

 Wavenumbers:   820. - 50000. cm-1, ATM      1
 LEVEL PRESSURE   UPWARD FLUX   DIFDOWN FLUX  DIRDOWN FLUX  DOWNWARD FLUX   NET FLUX    HEATING RATE
          mb          W/m2          W/m2          W/m2        W/m2          W/m2       degree/day
  51    .06700      239.6567        0.0000      397.8738      397.8738     158.217075       0.00000
  50    .07753      239.6561        0.0012      397.8577      397.8589     158.202783      11.45547
  49    .09103      239.6554        0.0027      397.8418      397.8445     158.189093       8.55672
  48    0.1069      239.6546        0.0044      397.8230      397.8274     158.172743       8.70331
  47    0.1255      239.6537        0.0063      397.7997      397.8060     158.152297       9.26916
  46    0.1487      239.6526        0.0088      397.7676      397.7765     158.123835      10.37477
  45    0.1794      239.6512        0.0122      397.7205      397.7327     158.081535      11.61218
  44    0.2165      239.6495        0.0162      397.6602      397.6764     158.026877      12.43379
  43    0.2613      239.6477        0.0209      397.5829      397.6038     157.956067      13.34748
  42    0.3336      239.6449        0.0286      397.4449      397.4735     157.828602      14.86112
  41    0.4307      239.6414        0.0387      397.2524      397.2911     157.649694      15.55566
  40    0.5894      239.6364        0.0550      396.9253      396.9803     157.343901      16.26166
  39     1.339      239.6247        0.1279      395.4254      395.5533     155.928596      15.93376
  38     1.782      239.6258        0.1688      394.7288      394.8976     155.271857      12.50326
  37     2.292      239.6340        0.2154      394.0572      394.2726     154.638570      10.48889
  36     2.964      239.6553        0.2759      393.3007      393.5766     153.921310       9.00377
  35     3.853      239.6978        0.3549      392.4318      392.7867     153.088924       7.89950
  34     5.035      239.7687        0.4590      391.4441      391.9031     152.134358       6.81903
  33     6.613      239.8713        0.5968      390.3268      390.9236     151.052329       5.78453
  32     8.786      240.0037        0.7812      389.0624      389.8436     149.839990       4.70829
  31     11.80      240.1685        1.0430      387.5500      388.5930     148.424467       3.96302
  30     15.07      240.3168        1.3218      386.1556      387.4774     147.160574       3.26313
  29     18.79      240.4588        1.6343      384.7502      386.3845     145.925709       2.79982
  28     23.16      240.5952        1.9965      383.2686      385.2651     144.669948       2.42823
  27     28.12      240.7167        2.4074      381.7329      384.1403     143.423580       2.11874
  26     33.73      240.8023        2.8640      380.1982      383.0621     142.259871       1.74967
  25     40.54      240.8472        3.4116      378.5384      381.9500     141.102810       1.43546
  24     48.69      240.8454        4.0662      376.7214      380.7876     139.942258       1.20099
  23     57.69      240.7897        4.7786      374.8959      379.6745     138.884836       0.99117
  22     68.43      240.6658        5.6188      372.8999      378.5188     137.852943       0.81121
  21     81.20      240.4386        6.6095      370.7496      377.3591     136.920433       0.61619
  20     96.49      240.0961        7.7753      368.4056      376.1809     136.084823       0.46120
  19     114.6      239.6673        9.1379      365.7513      374.8892     135.221834       0.40296
  18     136.5      239.1432       10.7213      362.7231      373.4444     134.301194       0.35401
  17     162.9      238.5105       12.5632      359.1748      371.7380     133.227562       0.34318
  16     196.4      237.6601       14.8876      354.5718      369.4595     131.799361       0.35950
  15     218.7      237.0968       16.3755      351.4437      367.8192     130.722433       0.40887
  14     243.0      236.4890       17.9593      347.7111      365.6704     129.181411       0.53448
  13     269.0      235.8376       19.6372      342.9441      362.5813     126.743747       0.79077
  12     297.5      235.1446       21.4074      337.4137      358.8211     123.676446       0.90973
  11     328.5      234.4161       23.2718      331.1302      354.4020     119.985939       1.00344
  10     361.9      233.6574       25.2251      324.1219      349.3470     115.689637       1.08701
   9     398.1      232.8731       27.2671      316.6066      343.8737     111.000579       1.09245
   8     437.6      232.0741       29.3936      308.5895      337.9831     105.908950       1.08862
   7     480.5      231.2782       31.5990      299.9349      331.5339     100.255651       1.11029
   6     533.0      230.3923       34.2156      289.7021      323.9177      93.525388       1.08269
   5     589.8      229.5634       36.9215      279.3388      316.2603      86.696827       1.01358
   4     651.6      228.8421       39.7051      268.7786      308.4837      79.641633       0.96482
   3     718.7      228.2582       42.5580      258.2837      300.8416      72.583472       0.88702
   2     792.3      227.8429       45.4662      248.0774      293.5436      65.700704       0.78938
   1     891.5      227.6963       49.1673      235.5216      284.6889      56.992633       0.74102
   0    1013.0      228.4824       53.2936      221.4731      274.7667      46.284332       0.74353



 Wavenumbers:  2600. -  3250. cm-1, ATM      1
 LEVEL PRESSURE   UPWARD FLUX   DIFDOWN FLUX  DIRDOWN FLUX  DOWNWARD FLUX   NET FLUX    HEATING RATE
          mb          W/m2          W/m2          W/m2        W/m2          W/m2       degree/day
  51    .06700        0.6038        0.0000        3.5066        3.5066       2.902812       0.00000
  50    .07753        0.6038        0.0000        3.5066        3.5066       2.902804       0.00640
  49    .09103        0.6038        0.0000        3.5066        3.5066       2.902794       0.00627
  48    0.1069        0.6038        0.0000        3.5066        3.5066       2.902782       0.00613
  47    0.1255        0.6038        0.0000        3.5066        3.5066       2.902769       0.00599
  46    0.1487        0.6038        0.0000        3.5066        3.5066       2.902752       0.00607
  45    0.1794        0.6038        0.0000        3.5065        3.5065       2.902730       0.00624
  44    0.2165        0.6038        0.0000        3.5065        3.5065       2.902703       0.00611
  43    0.2613        0.6038        0.0000        3.5065        3.5065       2.902671       0.00598
  42    0.3336        0.6038        0.0000        3.5064        3.5064       2.902618       0.00615
  41    0.4307        0.6038        0.0000        3.5064        3.5064       2.902547       0.00618
  40    0.5894        0.6038        0.0000        3.5062        3.5062       2.902428       0.00633
  39     1.339        0.6038        0.0000        3.5055        3.5055       2.901729       0.00787
  38     1.782        0.6038        0.0000        3.5050        3.5050       2.901198       0.01011
  37     2.292        0.6038        0.0000        3.5043        3.5043       2.900506       0.01147
  36     2.964        0.6038        0.0000        3.5033        3.5033       2.899515       0.01245
  35     3.853        0.6038        0.0000        3.5019        3.5019       2.898137       0.01307
  34     5.035        0.6038        0.0000        3.5001        3.5001       2.896277       0.01329
  33     6.613        0.6038        0.0000        3.4977        3.4977       2.893867       0.01288
  32     8.786        0.6038        0.0000        3.4947        3.4947       2.890896       0.01154
  31     11.80        0.6038        0.0000        3.4911        3.4911       2.887260       0.01018
  30     15.07        0.6038        0.0000        3.4878        3.4878       2.884039       0.00832
  29     18.79        0.6038        0.0000        3.4848        3.4848       2.880975       0.00695
  28     23.16        0.6038        0.0000        3.4816        3.4816       2.877755       0.00623
  27     28.12        0.6038        0.0000        3.4779        3.4779       2.874136       0.00615
  26     33.73        0.6038        0.0000        3.4735        3.4735       2.869669       0.00672
  25     40.54        0.6038        0.0000        3.4671        3.4671       2.863341       0.00785
  24     48.69        0.6038        0.0000        3.4582        3.4583       2.854443       0.00921
  23     57.69        0.6038        0.0000        3.4472        3.4472       2.843392       0.01036
  22     68.43        0.6038        0.0000        3.4329        3.4329       2.829126       0.01121
  21     81.20        0.6038        0.0000        3.4152        3.4152       2.811389       0.01172
  20     96.49        0.6039        0.0000        3.3940        3.3941       2.790233       0.01168
  19     114.6        0.6039        0.0000        3.3692        3.3692       2.765327       0.01163
  18     136.5        0.6039        0.0001        3.3419        3.3420       2.738085       0.01048
  17     162.9        0.6040        0.0001        3.3129        3.3129       2.708972       0.00931
  16     196.4        0.6041        0.0001        3.2793        3.2794       2.675325       0.00847
  15     218.7        0.6042        0.0001        3.2578        3.2578       2.653633       0.00824
  14     243.0        0.6044        0.0001        3.2320        3.2321       2.627639       0.00902
  13     269.0        0.6047        0.0001        3.1968        3.1969       2.592193       0.01150
  12     297.5        0.6052        0.0001        3.1489        3.1491       2.543809       0.01435
  11     328.5        0.6060        0.0001        3.0821        3.0822       2.476173       0.01839
  10     361.9        0.6071        0.0001        2.9902        2.9904       2.383251       0.02351
   9     398.1        0.6087        0.0001        2.8715        2.8716       2.262938       0.02803
   8     437.6        0.6109        0.0001        2.7276        2.7278       2.116884       0.03123
   7     480.5        0.6142        0.0002        2.5595        2.5597       1.945498       0.03366
   6     533.0        0.6196        0.0002        2.3617        2.3619       1.742336       0.03268
   5     589.8        0.6273        0.0002        2.1649        2.1651       1.537782       0.03036
   4     651.6        0.6384        0.0002        1.9608        1.9609       1.322482       0.02944
   3     718.7        0.6536        0.0002        1.7593        1.7595       1.105865       0.02722
   2     792.3        0.6734        0.0002        1.5761        1.5762       0.902805       0.02329
   1     891.5        0.7075        0.0002        1.3714        1.3716       0.664126       0.02031
   0    1013.0        0.7690        0.0002        1.1584        1.1586       0.389623       0.01906



 Wavenumbers:  3250. -  4000. cm-1, ATM      1
 LEVEL PRESSURE   UPWARD FLUX   DIFDOWN FLUX  DIRDOWN FLUX  DOWNWARD FLUX   NET FLUX    HEATING RATE
          mb          W/m2          W/m2          W/m2        W/m2          W/m2       degree/day
  51    .06700        0.0004        0.0000        5.9117        5.9117       5.911225       0.00000
  50    .07753        0.0004        0.0000        5.9075        5.9075       5.907036       3.35808
  49    .09103        0.0004        0.0000        5.9050        5.9050       5.904593       1.52677
  48    0.1069        0.0004        0.0000        5.9032        5.9032       5.902726       0.99346
  47    0.1255        0.0004        0.0000        5.9014        5.9014       5.900968       0.79708
  46    0.1487        0.0004        0.0000        5.8995        5.8995       5.899080       0.68848
  45    0.1794        0.0004        0.0000        5.8974        5.8974       5.896931       0.58983
  44    0.2165        0.0004        0.0000        5.8952        5.8952       5.894814       0.48155
  43    0.2613        0.0004        0.0000        5.8931        5.8931       5.892655       0.40696
  42    0.3336        0.0004        0.0000        5.8899        5.8899       5.889497       0.36820
  41    0.4307        0.0004        0.0000        5.8861        5.8861       5.885660       0.33365
  40    0.5894        0.0004        0.0000        5.8803        5.8803       5.879857       0.30857
  39     1.339        0.0004        0.0000        5.8597        5.8597       5.859260       0.23189
  38     1.782        0.0004        0.0000        5.8513        5.8513       5.850835       0.16039
  37     2.292        0.0004        0.0000        5.8431        5.8431       5.842664       0.13533
  36     2.964        0.0004        0.0000        5.8334        5.8334       5.833025       0.12100
  35     3.853        0.0004        0.0000        5.8213        5.8213       5.820849       0.11555
  34     5.035        0.0004        0.0000        5.8052        5.8052       5.804754       0.11498
  33     6.613        0.0004        0.0000        5.7833        5.7834       5.782932       0.11666
  32     8.786        0.0004        0.0000        5.7531        5.7531       5.752731       0.11729
  31     11.80        0.0004        0.0000        5.7090        5.7090       5.708562       0.12366
  30     15.07        0.0004        0.0000        5.6615        5.6615       5.661098       0.12254
  29     18.79        0.0004        0.0000        5.6093        5.6094       5.608962       0.11821
  28     23.16        0.0004        0.0000        5.5524        5.5524       5.552036       0.11008
  27     28.12        0.0004        0.0000        5.4935        5.4935       5.493157       0.10009
  26     33.73        0.0004        0.0000        5.4348        5.4349       5.434468       0.08824
  25     40.54        0.0004        0.0001        5.3707        5.3708       5.370407       0.07948
  24     48.69        0.0004        0.0001        5.2985        5.2985       5.298174       0.07475
  23     57.69        0.0004        0.0001        5.2215        5.2216       5.221235       0.07212
  22     68.43        0.0003        0.0001        5.1318        5.1319       5.131575       0.07048
  21     81.20        0.0003        0.0001        5.0284        5.0285       5.028145       0.06834
  20     96.49        0.0003        0.0001        4.9122        4.9123       4.912011       0.06410
  19     114.6        0.0003        0.0001        4.7780        4.7782       4.777900       0.06262
  18     136.5        0.0003        0.0002        4.6285        4.6287       4.628422       0.05748
  17     162.9        0.0002        0.0002        4.4406        4.4407       4.440509       0.06006
  16     196.4        0.0002        0.0002        4.1548        4.1550       4.154836       0.07191
  15     218.7        0.0002        0.0002        3.9564        3.9566       3.956455       0.07532
  14     243.0        0.0002        0.0002        3.7055        3.7058       3.705621       0.08700
  13     269.0        0.0001        0.0002        3.3399        3.3401       3.339982       0.11861
  12     297.5        0.0001        0.0002        2.8954        2.8956       2.895492       0.13183
  11     328.5        0.0001        0.0002        2.4388        2.4390       2.438951       0.12413
  10     361.9        0.0001        0.0002        2.0269        2.0271       2.027013       0.10422
   9     398.1        0.0001        0.0002        1.6753        1.6755       1.675424       0.08191
   8     437.6        0.0001        0.0002        1.3592        1.3594       1.359306       0.06759
   7     480.5        0.0000        0.0002        1.0616        1.0618       1.061723       0.05844
   6     533.0        0.0000        0.0001        0.7543        0.7544       0.754388       0.04944
   5     589.8        0.0000        0.0001        0.4951        0.4952       0.495194       0.03847
   4     651.6        0.0000        0.0001        0.2943        0.2943       0.294295       0.02747
   3     718.7        0.0001        0.0001        0.1528        0.1529       0.152795       0.01778
   2     792.3        0.0001        0.0000        0.0658        0.0658       0.065751       0.00998
   1     891.5        0.0002        0.0000        0.0157        0.0157       0.015455       0.00428
   0    1013.0        0.0009        0.0000        0.0013        0.0013       0.000452       0.00104



 Wavenumbers:  4000. -  4650. cm-1, ATM      1
 LEVEL PRESSURE   UPWARD FLUX   DIFDOWN FLUX  DIRDOWN FLUX  DOWNWARD FLUX   NET FLUX    HEATING RATE
          mb          W/m2          W/m2          W/m2        W/m2          W/m2       degree/day
  51    .06700        2.5899        0.0000        6.9421        6.9421       4.352136       0.00000
  50    .07753        2.5899        0.0000        6.9421        6.9421       4.352135       0.00079
  49    .09103        2.5899        0.0000        6.9421        6.9421       4.352134       0.00078
  48    0.1069        2.5899        0.0000        6.9421        6.9421       4.352132       0.00076
  47    0.1255        2.5899        0.0000        6.9421        6.9421       4.352130       0.00074
  46    0.1487        2.5899        0.0000        6.9421        6.9421       4.352128       0.00075
  45    0.1794        2.5899        0.0000        6.9421        6.9421       4.352126       0.00077
  44    0.2165        2.5899        0.0000        6.9421        6.9421       4.352122       0.00076
  43    0.2613        2.5899        0.0000        6.9420        6.9420       4.352118       0.00074
  42    0.3336        2.5899        0.0000        6.9420        6.9420       4.352112       0.00076
  41    0.4307        2.5899        0.0000        6.9420        6.9420       4.352103       0.00077
  40    0.5894        2.5899        0.0000        6.9420        6.9420       4.352088       0.00079
  39     1.339        2.5899        0.0000        6.9419        6.9419       4.351999       0.00100
  38     1.782        2.5899        0.0000        6.9418        6.9419       4.351930       0.00132
  37     2.292        2.5899        0.0000        6.9418        6.9418       4.351836       0.00155
  36     2.964        2.5899        0.0000        6.9416        6.9416       4.351697       0.00175
  35     3.853        2.5899        0.0000        6.9414        6.9414       4.351490       0.00196
  34     5.035        2.5899        0.0000        6.9411        6.9411       4.351186       0.00218
  33     6.613        2.5899        0.0000        6.9406        6.9407       4.350738       0.00239
  32     8.786        2.5899        0.0000        6.9399        6.9400       4.350078       0.00256
  31     11.80        2.5899        0.0000        6.9389        6.9389       4.349043       0.00290
  30     15.07        2.5899        0.0001        6.9377        6.9377       4.347833       0.00312
  29     18.79        2.5899        0.0001        6.9362        6.9363       4.346374       0.00331
  28     23.16        2.5899        0.0001        6.9343        6.9344       4.344570       0.00349
  27     28.12        2.5899        0.0001        6.9321        6.9323       4.342395       0.00370
  26     33.73        2.5899        0.0001        6.9294        6.9296       4.339727       0.00401
  25     40.54        2.5898        0.0002        6.9258        6.9260       4.336129       0.00446
  24     48.69        2.5898        0.0002        6.9210        6.9212       4.331365       0.00493
  23     57.69        2.5898        0.0002        6.9154        6.9156       4.325761       0.00525
  22     68.43        2.5898        0.0003        6.9083        6.9086       4.318793       0.00548
  21     81.20        2.5898        0.0003        6.8998        6.9001       4.310270       0.00563
  20     96.49        2.5899        0.0004        6.8894        6.8898       4.299975       0.00568
  19     114.6        2.5899        0.0005        6.8765        6.8770       4.287081       0.00602
  18     136.5        2.5900        0.0006        6.8610        6.8615       4.271519       0.00598
  17     162.9        2.5902        0.0007        6.8417        6.8423       4.252145       0.00619
  16     196.4        2.5905        0.0008        6.8147        6.8155       4.224939       0.00685
  15     218.7        2.5909        0.0009        6.7948        6.7957       4.204878       0.00762
  14     243.0        2.5914        0.0010        6.7698        6.7708       4.179407       0.00883
  13     269.0        2.5922        0.0011        6.7349        6.7359       4.143736       0.01157
  12     297.5        2.5935        0.0012        6.6869        6.6880       4.094549       0.01459
  11     328.5        2.5954        0.0013        6.6194        6.6207       4.025314       0.01882
  10     361.9        2.5978        0.0014        6.5295        6.5309       3.933063       0.02334
   9     398.1        2.6010        0.0015        6.4202        6.4218       3.820723       0.02617
   8     437.6        2.6053        0.0017        6.2962        6.2978       3.692585       0.02740
   7     480.5        2.6110        0.0018        6.1555        6.1573       3.546340       0.02872
   6     533.0        2.6200        0.0020        5.9675        5.9695       3.349453       0.03167
   5     589.8        2.6331        0.0021        5.7368        5.7389       3.105787       0.03617
   4     651.6        2.6519        0.0023        5.4662        5.4685       2.816594       0.03955
   3     718.7        2.6775        0.0024        5.1912        5.1936       2.516066       0.03777
   2     792.3        2.7105        0.0026        4.9395        4.9420       2.231496       0.03264
   1     891.5        2.7670        0.0027        4.6486        4.6514       1.884417       0.02953
   0    1013.0        2.8679        0.0029        4.3179        4.3208       1.452956       0.02996



 Wavenumbers:  4650. -  5150. cm-1, ATM      1
 LEVEL PRESSURE   UPWARD FLUX   DIFDOWN FLUX  DIRDOWN FLUX  DOWNWARD FLUX   NET FLUX    HEATING RATE
          mb          W/m2          W/m2          W/m2        W/m2          W/m2       degree/day
  51    .06700        1.7480        0.0000        6.5710        6.5710       4.822999       0.00000
  50    .07753        1.7480        0.0000        6.5708        6.5708       4.822764       0.18887
  49    .09103        1.7480        0.0000        6.5705        6.5705       4.822470       0.18362
  48    0.1069        1.7480        0.0000        6.5701        6.5701       4.822135       0.17806
  47    0.1255        1.7480        0.0000        6.5697        6.5697       4.821755       0.17238
  46    0.1487        1.7480        0.0000        6.5693        6.5693       4.821281       0.17268
  45    0.1794        1.7480        0.0000        6.5686        6.5686       4.820645       0.17473
  44    0.2165        1.7480        0.0000        6.5679        6.5679       4.819907       0.16788
  43    0.2613        1.7480        0.0000        6.5670        6.5670       4.819054       0.16078
  42    0.3336        1.7480        0.0000        6.5657        6.5657       4.817691       0.15894
  41    0.4307        1.7480        0.0000        6.5640        6.5640       4.815969       0.14971
  40    0.5894        1.7480        0.0000        6.5613        6.5613       4.813353       0.13913
  39     1.339        1.7480        0.0000        6.5516        6.5516       4.803575       0.11008
  38     1.782        1.7480        0.0000        6.5473        6.5473       4.799359       0.08026
  37     2.292        1.7480        0.0000        6.5434        6.5435       4.795472       0.06438
  36     2.964        1.7480        0.0000        6.5395        6.5395       4.791517       0.04964
  35     3.853        1.7480        0.0000        6.5355        6.5356       4.787574       0.03742
  34     5.035        1.7480        0.0000        6.5315        6.5315       4.783572       0.02859
  33     6.613        1.7480        0.0000        6.5271        6.5271       4.779177       0.02349
  32     8.786        1.7480        0.0001        6.5216        6.5216       4.773681       0.02135
  31     11.80        1.7480        0.0001        6.5135        6.5136       4.765600       0.02262
  30     15.07        1.7479        0.0001        6.5041        6.5042       4.756229       0.02420
  29     18.79        1.7479        0.0001        6.4925        6.4926       4.744709       0.02612
  28     23.16        1.7479        0.0001        6.4779        6.4780       4.730112       0.02823
  27     28.12        1.7479        0.0002        6.4599        6.4600       4.712129       0.03057
  26     33.73        1.7479        0.0002        6.4384        6.4386       4.690688       0.03224
  25     40.54        1.7479        0.0002        6.4112        6.4115       4.663549       0.03367
  24     48.69        1.7479        0.0003        6.3775        6.3778       4.629893       0.03483
  23     57.69        1.7479        0.0003        6.3404        6.3407       4.592777       0.03479
  22     68.43        1.7480        0.0004        6.2971        6.2975       4.549554       0.03398
  21     81.20        1.7480        0.0005        6.2483        6.2487       4.500693       0.03229
  20     96.49        1.7481        0.0006        6.1948        6.1954       4.447260       0.02949
  19     114.6        1.7483        0.0007        6.1381        6.1388       4.390538       0.02648
  18     136.5        1.7485        0.0008        6.0790        6.0798       4.331311       0.02277
  17     162.9        1.7488        0.0009        6.0160        6.0170       4.268184       0.02018
  16     196.4        1.7493        0.0011        5.9399        5.9410       4.191678       0.01926
  15     218.7        1.7497        0.0012        5.8896        5.8909       4.141128       0.01919
  14     243.0        1.7503        0.0014        5.8322        5.8335       4.083210       0.02009
  13     269.0        1.7512        0.0015        5.7624        5.7639       4.012664       0.02288
  12     297.5        1.7526        0.0016        5.6767        5.6784       3.925814       0.02576
  11     328.5        1.7544        0.0018        5.5726        5.5744       3.819988       0.02877
  10     361.9        1.7569        0.0019        5.4473        5.4493       3.692365       0.03229
   9     398.1        1.7603        0.0021        5.2995        5.3016       3.541295       0.03520
   8     437.6        1.7648        0.0022        5.1275        5.1297       3.364893       0.03772
   7     480.5        1.7710        0.0024        4.9290        4.9314       3.160377       0.04017
   6     533.0        1.7807        0.0025        4.6794        4.6819       2.901242       0.04169
   5     589.8        1.7941        0.0027        4.4188        4.4215       2.627348       0.04065
   4     651.6        1.8129        0.0028        4.1521        4.1549       2.342012       0.03902
   3     718.7        1.8379        0.0030        3.8929        3.8959       2.058008       0.03569
   2     792.3        1.8702        0.0031        3.6469        3.6500       1.779780       0.03191
   1     891.5        1.9251        0.0033        3.3535        3.3568       1.431650       0.02962
   0    1013.0        2.0190        0.0035        3.0383        3.0418       1.022803       0.02839



 Wavenumbers:  5150. -  6150. cm-1, ATM      1
 LEVEL PRESSURE   UPWARD FLUX   DIFDOWN FLUX  DIRDOWN FLUX  DOWNWARD FLUX   NET FLUX    HEATING RATE
          mb          W/m2          W/m2          W/m2        W/m2          W/m2       degree/day
  51    .06700        4.7177        0.0000       16.4735       16.4735      11.755849       0.00000
  50    .07753        4.7177        0.0000       16.4735       16.4735      11.755814       0.02762
  49    .09103        4.7177        0.0000       16.4734       16.4734      11.755769       0.02812
  48    0.1069        4.7177        0.0000       16.4734       16.4734      11.755716       0.02860
  47    0.1255        4.7177        0.0000       16.4733       16.4733      11.755651       0.02905
  46    0.1487        4.7177        0.0000       16.4732       16.4732      11.755567       0.03061
  45    0.1794        4.7177        0.0000       16.4731       16.4731      11.755448       0.03270
  44    0.2165        4.7177        0.0000       16.4730       16.4730      11.755302       0.03332
  43    0.2613        4.7177        0.0000       16.4728       16.4728      11.755123       0.03377
  42    0.3336        4.7177        0.0000       16.4725       16.4725      11.754817       0.03565
  41    0.4307        4.7177        0.0000       16.4720       16.4720      11.754397       0.03647
  40    0.5894        4.7176        0.0000       16.4713       16.4713      11.753696       0.03730
  39     1.339        4.7176        0.0000       16.4679       16.4679      11.750286       0.03839
  38     1.782        4.7176        0.0000       16.4659       16.4659      11.748285       0.03809
  37     2.292        4.7176        0.0001       16.4635       16.4636      11.745992       0.03798
  36     2.964        4.7176        0.0001       16.4605       16.4606      11.743020       0.03731
  35     3.853        4.7176        0.0001       16.4567       16.4568      11.739163       0.03660
  34     5.035        4.7176        0.0001       16.4516       16.4517      11.734161       0.03573
  33     6.613        4.7176        0.0002       16.4451       16.4452      11.727693       0.03458
  32     8.786        4.7175        0.0002       16.4367       16.4369      11.719369       0.03233
  31     11.80        4.7175        0.0003       16.4254       16.4257      11.708200       0.03127
  30     15.07        4.7175        0.0004       16.4141       16.4145      11.697092       0.02868
  29     18.79        4.7174        0.0005       16.4024       16.4030      11.685545       0.02618
  28     23.16        4.7174        0.0006       16.3900       16.3906      11.673251       0.02377
  27     28.12        4.7173        0.0008       16.3771       16.3779      11.660548       0.02160
  26     33.73        4.7173        0.0009       16.3641       16.3651      11.647772       0.01921
  25     40.54        4.7172        0.0011       16.3502       16.3513      11.634065       0.01701
  24     48.69        4.7172        0.0014       16.3354       16.3367      11.619502       0.01507
  23     57.69        4.7172        0.0016       16.3211       16.3227      11.605495       0.01313
  22     68.43        4.7172        0.0019       16.3062       16.3081      11.590972       0.01142
  21     81.20        4.7172        0.0022       16.2903       16.2926      11.575410       0.01028
  20     96.49        4.7172        0.0027       16.2726       16.2753      11.558129       0.00954
  19     114.6        4.7172        0.0032       16.2521       16.2552      11.538060       0.00937
  18     136.5        4.7172        0.0038       16.2245       16.2283      11.511087       0.01037
  17     162.9        4.7173        0.0045       16.1747       16.1792      11.461916       0.01572
  16     196.4        4.7174        0.0054       16.0518       16.0572      11.339784       0.03074
  15     218.7        4.7175        0.0059       15.8984       15.9043      11.186772       0.05809
  14     243.0        4.7177        0.0065       15.6153       15.6218      10.904046       0.09806
  13     269.0        4.7180        0.0071       15.1390       15.1460      10.428014       0.15442
  12     297.5        4.7185        0.0076       14.5779       14.5855       9.866933       0.16641
  11     328.5        4.7194        0.0081       13.8780       13.8861       9.166752       0.19038
  10     361.9        4.7206        0.0085       13.0814       13.0900       8.369396       0.20174
   9     398.1        4.7224        0.0090       12.2728       12.2818       7.559433       0.18870
   8     437.6        4.7249        0.0093       11.4776       11.4869       6.761959       0.17050
   7     480.5        4.7288        0.0097       10.7300       10.7396       6.010874       0.14751
   6     533.0        4.7353        0.0101       10.0326       10.0427       5.307379       0.11317
   5     589.8        4.7453        0.0106        9.5050        9.5157       4.770395       0.07971
   4     651.6        4.7604        0.0113        9.0814        9.0927       4.332289       0.05991
   3     718.7        4.7819        0.0120        8.7024        8.7145       3.932594       0.05023
   2     792.3        4.8109        0.0128        8.3379        8.3508       3.539900       0.04504
   1     891.5        4.8638        0.0139        7.9064        7.9202       3.056402       0.04114
   0    1013.0        4.9713        0.0150        7.4741        7.4891       2.517890       0.03739



 Wavenumbers:  6150. -  7700. cm-1, ATM      1
 LEVEL PRESSURE   UPWARD FLUX   DIFDOWN FLUX  DIRDOWN FLUX  DOWNWARD FLUX   NET FLUX    HEATING RATE
          mb          W/m2          W/m2          W/m2        W/m2          W/m2       degree/day
  51    .06700        6.9098        0.0000       30.4684       30.4684      23.558541       0.00000
  50    .07753        6.9098        0.0000       30.4683       30.4683      23.558489       0.04144
  49    .09103        6.9098        0.0000       30.4683       30.4683      23.558422       0.04174
  48    0.1069        6.9098        0.0000       30.4682       30.4682      23.558343       0.04202
  47    0.1255        6.9098        0.0000       30.4681       30.4681      23.558250       0.04227
  46    0.1487        6.9098        0.0000       30.4680       30.4680      23.558129       0.04411
  45    0.1794        6.9098        0.0000       30.4678       30.4678      23.557959       0.04669
  44    0.2165        6.9098        0.0000       30.4676       30.4676      23.557752       0.04715
  43    0.2613        6.9098        0.0000       30.4673       30.4673      23.557500       0.04744
  42    0.3336        6.9098        0.0000       30.4669       30.4669      23.557073       0.04974
  41    0.4307        6.9098        0.0000       30.4663       30.4663      23.556492       0.05052
  40    0.5894        6.9098        0.0001       30.4653       30.4653      23.555525       0.05146
  39     1.339        6.9097        0.0001       30.4604       30.4606      23.550841       0.05273
  38     1.782        6.9097        0.0002       30.4576       30.4578      23.548091       0.05235
  37     2.292        6.9096        0.0003       30.4543       30.4546      23.544933       0.05231
  36     2.964        6.9096        0.0003       30.4501       30.4504      23.540826       0.05156
  35     3.853        6.9095        0.0004       30.4445       30.4450      23.535468       0.05084
  34     5.035        6.9094        0.0006       30.4373       30.4378      23.528469       0.05000
  33     6.613        6.9092        0.0008       30.4278       30.4285      23.519321       0.04890
  32     8.786        6.9090        0.0010       30.4154       30.4164      23.507368       0.04642
  31     11.80        6.9087        0.0014       30.3984       30.3997      23.490983       0.04587
  30     15.07        6.9084        0.0017       30.3810       30.3827      23.474269       0.04315
  29     18.79        6.9081        0.0022       30.3623       30.3645      23.456368       0.04059
  28     23.16        6.9077        0.0027       30.3417       30.3444      23.436685       0.03806
  27     28.12        6.9072        0.0032       30.3196       30.3228      23.415585       0.03587
  26     33.73        6.9067        0.0039       30.2965       30.3004      23.393666       0.03296
  25     40.54        6.9061        0.0046       30.2708       30.2754      23.369328       0.03019
  24     48.69        6.9053        0.0056       30.2423       30.2479      23.342551       0.02771
  23     57.69        6.9045        0.0066       30.2139       30.2205      23.315984       0.02490
  22     68.43        6.9035        0.0078       30.1834       30.1912      23.287707       0.02223
  21     81.20        6.9023        0.0093       30.1500       30.1593      23.256976       0.02031
  20     96.49        6.9009        0.0110       30.1126       30.1236      23.222755       0.01889
  19     114.6        6.8992        0.0131       30.0695       30.0826      23.183366       0.01839
  18     136.5        6.8972        0.0155       30.0139       30.0294      23.132204       0.01967
  17     162.9        6.8949        0.0184       29.9225       29.9409      23.046010       0.02755
  16     196.4        6.8919        0.0221       29.7333       29.7555      22.863588       0.04592
  15     218.7        6.8900        0.0245       29.5259       29.5504      22.660422       0.07713
  14     243.0        6.8880        0.0270       29.1375       29.1645      22.276527       0.13315
  13     269.0        6.8860        0.0294       28.3800       28.4094      21.523392       0.24431
  12     297.5        6.8843        0.0317       27.3895       27.4212      20.536903       0.29258
  11     328.5        6.8831        0.0339       26.2257       26.2596      19.376469       0.31552
  10     361.9        6.8827        0.0359       24.8453       24.8812      17.998521       0.34863
   9     398.1        6.8835        0.0376       23.3471       23.3847      16.501195       0.34884
   8     437.6        6.8863        0.0392       21.7966       21.8358      14.949480       0.33177
   7     480.5        6.8926        0.0404       20.1977       20.2381      13.345550       0.31501
   6     533.0        6.9059        0.0417       18.4969       18.5386      11.632714       0.27554
   5     589.8        6.9290        0.0430       16.9754       17.0184      10.089425       0.22907
   4     651.6        6.9669        0.0444       15.6022       15.6465       8.679562       0.19280
   3     718.7        7.0234        0.0459       14.4232       14.4691       7.445627       0.15507
   2     792.3        7.1015        0.0476       13.4386       13.4862       6.384773       0.12167
   1     891.5        7.2452        0.0501       12.3736       12.4236       5.178425       0.10265
   0    1013.0        7.5315        0.0528       11.2911       11.3439       3.812469       0.09485



 Wavenumbers:  7700. -  8050. cm-1, ATM      1
 LEVEL PRESSURE   UPWARD FLUX   DIFDOWN FLUX  DIRDOWN FLUX  DOWNWARD FLUX   NET FLUX    HEATING RATE
          mb          W/m2          W/m2          W/m2        W/m2          W/m2       degree/day
  51    .06700        3.5883        0.0000        7.2006        7.2006       3.612267       0.00000
  50    .07753        3.5883        0.0000        7.2006        7.2006       3.612247       0.01604
  49    .09103        3.5883        0.0000        7.2005        7.2005       3.612221       0.01572
  48    0.1069        3.5883        0.0000        7.2005        7.2005       3.612193       0.01539
  47    0.1255        3.5883        0.0000        7.2005        7.2005       3.612159       0.01506
  46    0.1487        3.5883        0.0000        7.2004        7.2005       3.612117       0.01528
  45    0.1794        3.5883        0.0000        7.2004        7.2004       3.612060       0.01573
  44    0.2165        3.5883        0.0000        7.2003        7.2003       3.611992       0.01543
  43    0.2613        3.5884        0.0000        7.2003        7.2003       3.611912       0.01514
  42    0.3336        3.5884        0.0000        7.2001        7.2001       3.611779       0.01549
  41    0.4307        3.5884        0.0000        7.2000        7.2000       3.611603       0.01532
  40    0.5894        3.5884        0.0000        7.1997        7.1997       3.611315       0.01530
  39     1.339        3.5885        0.0001        7.1984        7.1985       3.609954       0.01532
  38     1.782        3.5886        0.0001        7.1977        7.1978       3.609155       0.01521
  37     2.292        3.5887        0.0001        7.1968        7.1969       3.608231       0.01532
  36     2.964        3.5888        0.0001        7.1957        7.1958       3.607017       0.01524
  35     3.853        3.5890        0.0002        7.1942        7.1944       3.605414       0.01521
  34     5.035        3.5892        0.0002        7.1922        7.1925       3.603286       0.01520
  33     6.613        3.5895        0.0003        7.1896        7.1899       3.600447       0.01518
  32     8.786        3.5898        0.0004        7.1860        7.1865       3.596625       0.01484
  31     11.80        3.5904        0.0006        7.1810        7.1816       3.591169       0.01528
  30     15.07        3.5910        0.0007        7.1755        7.1763       3.585326       0.01509
  29     18.79        3.5916        0.0009        7.1694        7.1704       3.578744       0.01492
  28     23.16        3.5924        0.0011        7.1623        7.1635       3.571083       0.01481
  27     28.12        3.5933        0.0014        7.1542        7.1556       3.562357       0.01483
  26     33.73        3.5943        0.0017        7.1452        7.1469       3.552637       0.01461
  25     40.54        3.5955        0.0020        7.1344        7.1364       3.540958       0.01449
  24     48.69        3.5969        0.0024        7.1215        7.1239       3.526972       0.01447
  23     57.69        3.5985        0.0028        7.1074        7.1103       3.511727       0.01429
  22     68.43        3.6005        0.0033        7.0909        7.0942       3.493729       0.01415
  21     81.20        3.6028        0.0040        7.0713        7.0753       3.472510       0.01402
  20     96.49        3.6056        0.0047        7.0484        7.0531       3.447536       0.01378
  19     114.6        3.6089        0.0056        7.0217        7.0272       3.418305       0.01365
  18     136.5        3.6130        0.0066        6.9906        6.9972       3.384228       0.01310
  17     162.9        3.6178        0.0078        6.9544        6.9622       3.344402       0.01273
  16     196.4        3.6242        0.0094        6.9087        6.9181       3.293910       0.01271
  15     218.7        3.6285        0.0104        6.8794        6.8899       3.261347       0.01236
  14     243.0        3.6333        0.0116        6.8481        6.8597       3.226428       0.01211
  13     269.0        3.6385        0.0128        6.8147        6.8275       3.189008       0.01214
  12     297.5        3.6443        0.0141        6.7791        6.7932       3.148867       0.01191
  11     328.5        3.6508        0.0155        6.7409        6.7564       3.105664       0.01175
  10     361.9        3.6581        0.0170        6.7002        6.7172       3.059108       0.01178
   9     398.1        3.6663        0.0186        6.6563        6.6749       3.008628       0.01176
   8     437.6        3.6756        0.0204        6.6089        6.6292       2.953618       0.01176
   7     480.5        3.6864        0.0222        6.5570        6.5792       2.892838       0.01194
   6     533.0        3.7008        0.0245        6.4915        6.5160       2.815151       0.01250
   5     589.8        3.7180        0.0269        6.4182        6.4451       2.727121       0.01307
   4     651.6        3.7387        0.0295        6.3359        6.3654       2.626661       0.01374
   3     718.7        3.7634        0.0322        6.2441        6.2764       2.513010       0.01428
   2     792.3        3.7922        0.0351        6.1437        6.1788       2.386614       0.01450
   1     891.5        3.8356        0.0389        6.0042        6.0431       2.207548       0.01524
   0    1013.0        3.8968        0.0434        5.8249        5.8683       1.971449       0.01639



 Wavenumbers:  8050. - 12850. cm-1, ATM      1
 LEVEL PRESSURE   UPWARD FLUX   DIFDOWN FLUX  DIRDOWN FLUX  DOWNWARD FLUX   NET FLUX    HEATING RATE
          mb          W/m2          W/m2          W/m2        W/m2          W/m2       degree/day
  51    .06700       45.4829        0.0000      100.8135      100.8135      55.330659       0.00000
  50    .07753       45.4828        0.0000      100.8135      100.8135      55.330659       0.00000
  49    .09103       45.4828        0.0001      100.8134      100.8135      55.330659      -0.00000
  48    0.1069       45.4828        0.0001      100.8134      100.8135      55.330659       0.00000
  47    0.1255       45.4828        0.0001      100.8133      100.8134      55.330659       0.00000
  46    0.1487       45.4827        0.0002      100.8132      100.8134      55.330659      -0.00000
  45    0.1794       45.4827        0.0003      100.8131      100.8133      55.330659       0.00000
  44    0.2165       45.4826        0.0004      100.8129      100.8133      55.330659      -0.00000
  43    0.2613       45.4826        0.0005      100.8127      100.8132      55.330659       0.00000
  42    0.3336       45.4824        0.0006      100.8125      100.8131      55.330659      -0.00000
  41    0.4307       45.4823        0.0009      100.8121      100.8129      55.330659       0.00000
  40    0.5894       45.4820        0.0013      100.8115      100.8127      55.330659      -0.00000
  39     1.339       45.4809        0.0030      100.8085      100.8115      55.330659       0.00000
  38     1.782       45.4802        0.0041      100.8068      100.8109      55.330659       0.00000
  37     2.292       45.4794        0.0053      100.8047      100.8101      55.330659       0.00000
  36     2.964       45.4784        0.0069      100.8021      100.8090      55.330659      -0.00000
  35     3.853       45.4770        0.0090      100.7986      100.8077      55.330659       0.00000
  34     5.035       45.4752        0.0119      100.7940      100.8058      55.330659      -0.00000
  33     6.613       45.4727        0.0156      100.7878      100.8034      55.330659       0.00000
  32     8.786       45.4694        0.0207      100.7794      100.8001      55.330659       0.00000
  31     11.80       45.4647        0.0280      100.7674      100.7954      55.330659      -0.00000
  30     15.07       45.4597        0.0358      100.7546      100.7903      55.330659       0.00000
  29     18.79       45.4539        0.0446      100.7400      100.7846      55.330659       0.00000
  28     23.16       45.4473        0.0549      100.7230      100.7779      55.330659      -0.00000
  27     28.12       45.4396        0.0668      100.7035      100.7702      55.330659       0.00000
  26     33.73       45.4310        0.0800      100.6817      100.7617      55.330659      -0.00000
  25     40.54       45.4206        0.0960      100.6552      100.7513      55.330659       0.00000
  24     48.69       45.4081        0.1154      100.6234      100.7387      55.330659      -0.00000
  23     57.69       45.3943        0.1367      100.5883      100.7249      55.330659       0.00000
  22     68.43       45.3778        0.1620      100.5464      100.7085      55.330659      -0.00000
  21     81.20       45.3582        0.1923      100.4965      100.6888      55.330659       0.00000
  20     96.49       45.3347        0.2284      100.4370      100.6654      55.330659      -0.00000
  19     114.6       45.3069        0.2714      100.3585      100.6299      55.322921       0.00361
  18     136.5       45.2740        0.3224      100.2634      100.5858      55.311789       0.00428
  17     162.9       45.2347        0.3832      100.1407      100.5239      55.289221       0.00721
  16     196.4       45.1838        0.4623       99.9505      100.4128      55.229016       0.01515
  15     218.7       45.1503        0.5142       99.7889      100.3031      55.152858       0.02891
  14     243.0       45.1141        0.5706       99.5472      100.1177      55.003689       0.05174
  13     269.0       45.0756        0.6313       99.1452       99.7765      54.700995       0.09819
  12     297.5       45.0354        0.6965       98.5975       99.2940      54.258644       0.13120
  11     328.5       44.9944        0.7664       97.8659       98.6323      53.637871       0.16879
  10     361.9       44.9542        0.8407       96.8848       97.7255      52.771220       0.21927
   9     398.1       44.9169        0.9192       95.6330       96.5521      51.635244       0.26466
   8     437.6       44.8862        1.0014       94.0655       95.0669      50.180709       0.31099
   7     480.5       44.8695        1.0865       92.0807       93.1673      48.297727       0.36981
   6     533.0       44.8765        1.1872       89.4449       90.6320      45.755541       0.40896
   5     589.8       44.9248        1.2913       86.5544       87.8457      42.920949       0.42075
   4     651.6       45.0371        1.3985       83.4174       84.8159      39.778772       0.42970
   3     718.7       45.2274        1.5093       80.2037       81.7130      36.485593       0.41386
   2     792.3       45.5085        1.6246       77.0811       78.7057      33.197222       0.37714
   1     891.5       46.0522        1.7739       73.2645       75.0384      28.986185       0.35834
   0    1013.0       47.1369        1.9408       68.9425       70.8833      23.746448       0.36382



 Wavenumbers: 12850. - 16000. cm-1, ATM      1
 LEVEL PRESSURE   UPWARD FLUX   DIFDOWN FLUX  DIRDOWN FLUX  DOWNWARD FLUX   NET FLUX    HEATING RATE
          mb          W/m2          W/m2          W/m2        W/m2          W/m2       degree/day
  51    .06700       43.7590        0.0000       63.1686       63.1686      19.409606       0.00000
  50    .07753       43.7589        0.0001       63.1677       63.1678      19.408825       0.62627
  49    .09103       43.7589        0.0001       63.1666       63.1668      19.407850       0.60888
  48    0.1069       43.7589        0.0002       63.1654       63.1656      19.406741       0.59071
  47    0.1255       43.7589        0.0003       63.1640       63.1643      19.405478       0.57251
  46    0.1487       43.7588        0.0004       63.1623       63.1627      19.403902       0.57447
  45    0.1794       43.7588        0.0006       63.1600       63.1606      19.401787       0.58059
  44    0.2165       43.7588        0.0008       63.1573       63.1581      19.399339       0.55682
  43    0.2613       43.7587        0.0011       63.1542       63.1553      19.396513       0.53274
  42    0.3336       43.7587        0.0014       63.1493       63.1507      19.392004       0.52570
  41    0.4307       43.7588        0.0020       63.1431       63.1451      19.386355       0.49112
  40    0.5894       43.7589        0.0028       63.1338       63.1367      19.377778       0.45614
  39     1.339       43.7610        0.0069       63.0956       63.1025      19.341427       0.40925
  38     1.782       43.7635        0.0093       63.0740       63.0833      19.319837       0.41103
  37     2.292       43.7673        0.0120       63.0477       63.0597      19.292345       0.45533
  36     2.964       43.7741        0.0156       63.0095       63.0252      19.251069       0.51815
  35     3.853       43.7853        0.0204       62.9533       62.9737      19.188321       0.59549
  34     5.035       43.8026        0.0267       62.8725       62.8992      19.096664       0.65476
  33     6.613       43.8267        0.0352       62.7621       62.7972      18.970476       0.67460
  32     8.786       43.8581        0.0465       62.6182       62.6648      18.806647       0.63625
  31     11.80       43.8985        0.0627       62.4284       62.4911      18.592623       0.59920
  30     15.07       43.9365        0.0801       62.2426       62.3227      18.386195       0.53296
  29     18.79       43.9747        0.0997       62.0493       62.1490      18.174229       0.48059
  28     23.16       44.0139        0.1225       61.8424       61.9649      17.951009       0.43163
  27     28.12       44.0523        0.1485       61.6278       61.7763      17.723987       0.38592
  26     33.73       44.0862        0.1776       61.4177       61.5953      17.509061       0.32315
  25     40.54       44.1165        0.2127       61.1983       61.4110      17.294434       0.26627
  24     48.69       44.1428        0.2549       60.9680       61.2229      17.080053       0.22185
  23     57.69       44.1618        0.3012       60.7478       61.0490      16.887277       0.18070
  22     68.43       44.1735        0.3564       60.5202       60.8766      16.703048       0.14483
  21     81.20       44.1728        0.4221       60.2938       60.7159      16.543119       0.10568
  20     96.49       44.1582        0.5003       60.0643       60.5646      16.406359       0.07548
  19     114.6       44.1424        0.5939       59.8078       60.4016      16.259287       0.06867
  18     136.5       44.1172        0.7046       59.5157       60.2203      16.103078       0.06007
  17     162.9       44.0815        0.8361       59.1770       60.0131      15.931690       0.05478
  16     196.4       44.0227        1.0063       58.7604       59.7667      15.743995       0.04725
  15     218.7       43.9797        1.1178       58.4948       59.6126      15.632878       0.04219
  14     243.0       43.9310        1.2388       58.2089       59.4477      15.516646       0.04031
  13     269.0       43.8766        1.3697       57.9006       59.2702      15.393636       0.03990
  12     297.5       43.8166        1.5108       57.5668       59.0776      15.261056       0.03932
  11     328.5       43.7521        1.6630       57.2005       58.8635      15.111398       0.04069
  10     361.9       43.6841        1.8265       56.7963       58.6228      14.938720       0.04369
   9     398.1       43.6134        2.0018       56.3475       58.3493      14.735961       0.04724
   8     437.6       43.5422        2.1894       55.8422       58.0316      14.489417       0.05271
   7     480.5       43.4746        2.3894       55.2625       57.6519      14.177354       0.06129
   6     533.0       43.4059        2.6337       54.4972       57.1309      13.724976       0.07277
   5     589.8       43.3500        2.8939       53.6307       56.5246      13.174527       0.08170
   4     651.6       43.3148        3.1690       52.6606       55.8296      12.514762       0.09022
   3     718.7       43.3043        3.4595       51.6100       55.0695      11.765280       0.09419
   2     792.3       43.3236        3.7653       50.5019       54.2671      10.943496       0.09425
   1     891.5       43.4119        4.1688       49.0197       53.1885       9.776628       0.09929
   0    1013.0       43.6443        4.6378       47.2289       51.8667       8.222365       0.10792



 Wavenumbers: 16000. - 22650. cm-1, ATM      1
 LEVEL PRESSURE   UPWARD FLUX   DIFDOWN FLUX  DIRDOWN FLUX  DOWNWARD FLUX   NET FLUX    HEATING RATE
          mb          W/m2          W/m2          W/m2        W/m2          W/m2       degree/day
  51    .06700       87.2325        0.0000      100.7153      100.7153      13.482804       0.00000
  50    .07753       87.2324        0.0003      100.7147      100.7151      13.482681       0.09810
  49    .09103       87.2323        0.0008      100.7140      100.7148      13.482503       0.11126
  48    0.1069       87.2321        0.0013      100.7131      100.7144      13.482265       0.12688
  47    0.1255       87.2320        0.0018      100.7121      100.7139      13.481946       0.14462
  46    0.1487       87.2318        0.0025      100.7108      100.7133      13.481476       0.17137
  45    0.1794       87.2316        0.0035      100.7089      100.7124      13.480741       0.20178
  44    0.2165       87.2314        0.0046      100.7066      100.7112      13.479744       0.22678
  43    0.2613       87.2313        0.0060      100.7037      100.7097      13.478391       0.25495
  42    0.3336       87.2311        0.0083      100.6987      100.7069      13.475820       0.29981
  41    0.4307       87.2311        0.0112      100.6918      100.7030      13.471944       0.33701
  40    0.5894       87.2313        0.0161      100.6797      100.6958      13.464552       0.39309
  39     1.339       87.2387        0.0392      100.6095      100.6487      13.409949       0.61473
  38     1.782       87.2477        0.0527      100.5585      100.6112      13.363446       0.88533
  37     2.292       87.2625        0.0684      100.4903      100.5586      13.296153       1.11456
  36     2.964       87.2885        0.0889      100.3868      100.4757      13.187182       1.36791
  35     3.853       87.3322        0.1160      100.2306      100.3466      13.014385       1.63988
  34     5.035       87.3996        0.1520      100.0045      100.1564      12.756835       1.83983
  33     6.613       87.4944        0.1999       99.6939       99.8938      12.399410       1.91080
  32     8.786       87.6173        0.2644       99.2881       99.5524      11.935174       1.80292
  31     11.80       87.7750        0.3563       98.7496       99.1059      11.330929       1.69170
  30     15.07       87.9233        0.4547       98.2198       98.6745      10.751238       1.49665
  29     18.79       88.0719        0.5655       97.6651       98.2306      10.158726       1.34341
  28     23.16       88.2236        0.6944       97.0671       97.7615       9.537932       1.20041
  27     28.12       88.3716        0.8413       96.4406       97.2819       8.910237       1.06704
  26     33.73       88.5007        1.0052       95.8179       96.8231       8.322419       0.88380
  25     40.54       88.6142        1.2026       95.1548       96.3574       7.743200       0.71859
  24     48.69       88.7101        1.4397       94.4420       95.8816       7.171566       0.59155
  23     57.69       88.7758        1.6991       93.7416       95.4407       6.664915       0.47491
  22     68.43       88.8115        2.0069       92.9954       95.0023       6.190772       0.37274
  21     81.20       88.7957        2.3723       92.2231       94.5955       5.799755       0.25838
  20     96.49       88.7231        2.8059       91.4110       94.2169       5.493831       0.16885
  19     114.6       88.6103        3.3174       90.5070       93.8244       5.214136       0.13060
  18     136.5       88.4592        3.9188       89.4803       93.3991       4.939904       0.10545
  17     162.9       88.2642        4.6282       88.3022       92.9304       4.666219       0.08748
  16     196.4       87.9778        5.5382       86.8606       92.3988       4.421083       0.06170
  15     218.7       87.7781        6.1297       85.9492       92.0789       4.300766       0.04568
  14     243.0       87.5567        6.7671       84.9789       91.7461       4.189337       0.03865
  13     269.0       87.3124        7.4516       83.9493       91.4008       4.088387       0.03275
  12     297.5       87.0448        8.1839       82.8589       91.0429       3.998064       0.02679
  11     328.5       86.7557        8.9669       81.6982       90.6651       3.909395       0.02411
  10     361.9       86.4454        9.8003       80.4669       90.2672       3.821852       0.02215
   9     398.1       86.1132       10.6863       79.1611       89.8474       3.734188       0.02042
   8     437.6       85.7600       11.6252       77.7777       89.4030       3.642961       0.01950
   7     480.5       85.3864       12.6177       76.3136       88.9314       3.544949       0.01925
   6     533.0       84.9347       13.8198       74.5359       88.3557       3.420958       0.01995
   5     589.8       84.4596       15.0917       72.6469       87.7386       3.279059       0.02106
   4     651.6       83.9639       16.4316       70.6456       87.0772       3.113276       0.02267
   3     718.7       83.4488       17.8378       68.5367       86.3744       2.925654       0.02358
   2     792.3       82.9176       19.3050       66.3287       85.6337       2.716101       0.02403
   1     891.5       82.2375       21.2230       63.4246       84.6476       2.410067       0.02604
   0    1013.0       81.4816       23.4322       60.0483       83.4806       1.998991       0.02854



 Wavenumbers: 22650. - 29000. cm-1, ATM      1
 LEVEL PRESSURE   UPWARD FLUX   DIFDOWN FLUX  DIRDOWN FLUX  DOWNWARD FLUX   NET FLUX    HEATING RATE
          mb          W/m2          W/m2          W/m2        W/m2          W/m2       degree/day
  51    .06700       37.2588        0.0000       38.0063       38.0063       0.747455       0.00000
  50    .07753       37.2587        0.0004       38.0057       38.0061       0.747455       0.00000
  49    .09103       37.2585        0.0009       38.0050       38.0059       0.747455       0.00000
  48    0.1069       37.2583        0.0015       38.0042       38.0057       0.747455       0.00000
  47    0.1255       37.2580        0.0021       38.0033       38.0054       0.747455      -0.00000
  46    0.1487       37.2577        0.0029       38.0022       38.0051       0.747455       0.00000
  45    0.1794       37.2572        0.0041       38.0006       38.0047       0.747455       0.00000
  44    0.2165       37.2567        0.0054       37.9987       38.0041       0.747455       0.00000
  43    0.2613       37.2560        0.0070       37.9965       38.0035       0.747455      -0.00000
  42    0.3336       37.2550        0.0096       37.9928       38.0025       0.747455       0.00000
  41    0.4307       37.2536        0.0131       37.9880       38.0011       0.747455       0.00000
  40    0.5894       37.2514        0.0188       37.9800       37.9988       0.747455      -0.00000
  39     1.339       37.2406        0.0456       37.9425       37.9881       0.747455       0.00000
  38     1.782       37.2344        0.0614       37.9204       37.9818       0.747455      -0.00000
  37     2.292       37.2271        0.0796       37.8949       37.9745       0.747455       0.00000
  36     2.964       37.2175        0.1036       37.8614       37.9650       0.747455       0.00000
  35     3.853       37.2050        0.1352       37.8172       37.9524       0.747455      -0.00000
  34     5.035       37.1882        0.1771       37.7586       37.9357       0.747455      -0.00000
  33     6.613       37.1659        0.2331       37.6803       37.9134       0.747455       0.00000
  32     8.786       37.1359        0.3083       37.5750       37.8834       0.747455       0.00000
  31     11.80       37.0931        0.4157       37.4249       37.8406       0.747455      -0.00000
  30     15.07       37.0473        0.5306       37.2642       37.7947       0.747455       0.00000
  29     18.79       36.9957        0.6599       37.0833       37.7432       0.747455       0.00000
  28     23.16       36.9358        0.8102       36.8730       37.6832       0.747455       0.00000
  27     28.12       36.8675        0.9812       36.6338       37.6150       0.747455       0.00000
  26     33.73       36.7917        1.1714       36.3677       37.5391       0.747455       0.00000
  25     40.54       36.7006        1.3995       36.0486       37.4481       0.747455       0.00000
  24     48.69       36.5918        1.6721       35.6672       37.3393       0.747455      -0.00000
  23     57.69       36.4736        1.9683       35.2527       37.2210       0.747455      -0.00000
  22     68.43       36.3344        2.3169       34.7649       37.0818       0.747455       0.00000
  21     81.20       36.1709        2.7261       34.1922       36.9183       0.747455       0.00000
  20     96.49       35.9794        3.2051       33.5217       36.7268       0.747455       0.00000
  19     114.6       35.7567        3.7618       32.7424       36.5042       0.747455      -0.00000
  18     136.5       35.4993        4.4051       31.8416       36.2467       0.747455       0.00000
  17     162.9       35.2016        5.1482       30.8008       35.9490       0.747455       0.00000
  16     196.4       34.8295        6.0762       29.5007       35.5769       0.747455       0.00000
  15     218.7       34.5934        6.6642       28.6767       35.3409       0.747455      -0.00000
  14     243.0       34.3441        7.2848       27.8068       35.0915       0.747455       0.00000
  13     269.0       34.0821        7.9362       26.8933       34.8295       0.747455      -0.00000
  12     297.5       33.8082        8.6163       25.9393       34.5556       0.747455       0.00000
  11     328.5       33.5225        9.3249       24.9451       34.2700       0.747455       0.00000
  10     361.9       33.2265       10.0580       23.9160       33.9740       0.747455      -0.00000
   9     398.1       32.9207       10.8140       22.8541       33.6682       0.747455      -0.00000
   8     437.6       32.6065       11.5895       21.7645       33.3540       0.747455       0.00000
   7     480.5       32.2853       12.3806       20.6521       33.0327       0.747455       0.00000
   6     533.0       31.9105       13.3011       19.3569       32.6580       0.747455       0.00000
   5     589.8       31.5306       14.2313       18.0467       32.2781       0.747455      -0.00000
   4     651.6       31.1483       15.1641       16.7316       31.8957       0.747455       0.00000
   3     718.7       30.7662       16.0922       15.4214       31.5137       0.747455       0.00000
   2     792.3       30.3876       17.0074       14.1276       31.1350       0.747455       0.00000
   1     891.5       29.9225       18.1240       12.5459       30.6699       0.747455       0.00000
   0    1013.0       29.4268       19.3025       10.8717       30.1742       0.747455      -0.00000



 Wavenumbers: 29000. - 38000. cm-1, ATM      1
 LEVEL PRESSURE   UPWARD FLUX   DIFDOWN FLUX  DIRDOWN FLUX  DOWNWARD FLUX   NET FLUX    HEATING RATE
          mb          W/m2          W/m2          W/m2        W/m2          W/m2       degree/day
  51    .06700        5.3262        0.0000       13.4026       13.4026       8.076419       0.00000
  50    .07753        5.3260        0.0003       13.3983       13.3986       8.072620       3.04479
  49    .09103        5.3257        0.0007       13.3921       13.3928       8.067100       3.45013
  48    0.1069        5.3254        0.0011       13.3840       13.3851       8.059722       3.92730
  47    0.1255        5.3251        0.0016       13.3733       13.3749       8.049876       4.46380
  46    0.1487        5.3246        0.0022       13.3579       13.3601       8.035431       5.26513
  45    0.1794        5.3241        0.0030       13.3340       13.3371       8.013028       6.15016
  44    0.2165        5.3234        0.0040       13.3024       13.3064       7.983005       6.82979
  43    0.2613        5.3227        0.0052       13.2604       13.2656       7.942944       7.55128
  42    0.3336        5.3215        0.0071       13.1833       13.1904       7.868926       8.62984
  41    0.4307        5.3200        0.0096       13.0729       13.0825       7.762535       9.25042
  40    0.5894        5.3177        0.0135       12.8796       12.8931       7.575456       9.94865
  39     1.339        5.3097        0.0300       11.9165       11.9465       6.636841      10.56709
  38     1.782        5.3067        0.0384       11.4399       11.4783       6.171628       8.85691
  37     2.292        5.3046        0.0474       10.9796       11.0270       5.722365       7.44096
  36     2.964        5.3039        0.0585       10.4786       10.5371       5.233208       6.14041
  35     3.853        5.3056        0.0722        9.9429       10.0151       4.709524       4.96986
  34     5.035        5.3104        0.0893        9.4007        9.4900       4.179569       3.78578
  33     6.613        5.3188        0.1110        8.8752        8.9863       3.667488       2.73759
  32     8.786        5.3301        0.1391        8.3786        8.5177       3.187557       1.86388
  31     11.80        5.3443        0.1776        7.8897        8.0673       2.723020       1.30056
  30     15.07        5.3569        0.2174        7.5108        7.7282       2.371300       0.90807
  29     18.79        5.3691        0.2608        7.1776        7.4384       2.069302       0.68472
  28     23.16        5.3809        0.3097        6.8664        7.1762       1.795209       0.53001
  27     28.12        5.3915        0.3639        6.5780        6.9419       1.550335       0.41627
  26     33.73        5.3983        0.4229        6.3195        6.7424       1.344103       0.31008
  25     40.54        5.4002        0.4926        6.0663        6.5588       1.158639       0.23009
  24     48.69        5.3969        0.5743        5.8128        6.3871       0.990238       0.17427
  23     57.69        5.3878        0.6616        5.5777        6.2393       0.851454       0.13009
  22     68.43        5.3712        0.7627        5.3379        6.1006       0.729441       0.09592
  21     81.20        5.3425        0.8802        5.0965        5.9767       0.634246       0.06290
  20     96.49        5.3005        1.0161        4.8476        5.8637       0.563193       0.03922
  19     114.6        5.2490        1.1703        4.5799        5.7502       0.501193       0.02895
  18     136.5        5.1891        1.3429        4.2891        5.6320       0.442919       0.02241
  17     162.9        5.1209        1.5349        3.9732        5.5080       0.387188       0.01781
  16     196.4        5.0341        1.7655        3.6080        5.3735       0.339363       0.01204
  15     218.7        4.9796        1.9063        3.3898        5.2961       0.316514       0.00868
  14     243.0        4.9231        2.0503        3.1686        5.2188       0.295727       0.00721
  13     269.0        4.8650        2.1963        2.9461        5.1424       0.277336       0.00597
  12     297.5        4.8058        2.3432        2.7239        5.0671       0.261371       0.00474
  11     328.5        4.7462        2.4897        2.5029        4.9926       0.246320       0.00409
  10     361.9        4.6870        2.6346        2.2846        4.9192       0.232208       0.00357
   9     398.1        4.6284        2.7766        2.0708        4.8474       0.219032       0.00307
   8     437.6        4.5710        2.9149        1.8626        4.7775       0.206513       0.00268
   7     480.5        4.5153        3.0479        1.6621        4.7100       0.194789       0.00230
   6     533.0        4.4541        3.1926        1.4437        4.6363       0.182183       0.00203
   5     589.8        4.3964        3.3276        1.2390        4.5666       0.170145       0.00179
   4     651.6        4.3429        3.4514        1.0500        4.5014       0.158510       0.00159
   3     718.7        4.2939        3.5633        0.8778        4.4412       0.147239       0.00142
   2     792.3        4.2499        3.6624        0.7237        4.3862       0.136309       0.00125
   1     891.5        4.2018        3.7684        0.5563        4.3247       0.122935       0.00114
   0    1013.0        4.1580        3.8624        0.4039        4.2663       0.108289       0.00102



 Wavenumbers: 38000. - 50000. cm-1, ATM      1
 LEVEL PRESSURE   UPWARD FLUX   DIFDOWN FLUX  DIRDOWN FLUX  DOWNWARD FLUX   NET FLUX    HEATING RATE
          mb          W/m2          W/m2          W/m2        W/m2          W/m2       degree/day
  51    .06700        0.0051        0.0000        0.8267        0.8267       0.821528       0.00000
  50    .07753        0.0051        0.0001        0.8242        0.8243       0.819196       1.86936
  49    .09103        0.0050        0.0002        0.8207        0.8209       0.815872       2.07705
  48    0.1069        0.0049        0.0002        0.8162        0.8164       0.811514       2.31984
  47    0.1255        0.0048        0.0004        0.8103        0.8106       0.805801       2.59006
  46    0.1487        0.0047        0.0005        0.8018        0.8023       0.797567       3.00143
  45    0.1794        0.0045        0.0007        0.7889        0.7896       0.785013       3.44648
  44    0.2165        0.0044        0.0009        0.7720        0.7729       0.768507       3.75474
  43    0.2613        0.0042        0.0011        0.7500        0.7511       0.746955       4.06246
  42    0.3336        0.0039        0.0015        0.7106        0.7121       0.708267       4.51071
  41    0.4307        0.0035        0.0019        0.6566        0.6584       0.654972       4.63387
  40    0.5894        0.0029        0.0024        0.5680        0.5704       0.567464       4.65357
  39     1.339        0.0015        0.0030        0.2422        0.2452       0.243720       3.64476
  38     1.782        0.0010        0.0026        0.1493        0.1519       0.150889       1.76735
  37     2.292        0.0007        0.0022        0.0924        0.0946       0.093932       0.94336
  36     2.964        0.0005        0.0018        0.0539        0.0557       0.055224       0.48589
  35     3.853        0.0003        0.0013        0.0295        0.0308       0.030502       0.23462
  34     5.035        0.0002        0.0010        0.0154        0.0164       0.016181       0.10230
  33     6.613        0.0001        0.0007        0.0073        0.0080       0.007912       0.04420
  32     8.786        0.0000        0.0004        0.0030        0.0034       0.003390       0.01756
  31     11.80        0.0000        0.0003        0.0010        0.0012       0.001199       0.00613
  30     15.07        0.0000        0.0001        0.0003        0.0005       0.000463       0.00190
  29     18.79        0.0000        0.0001        0.0001        0.0002       0.000182       0.00064
  28     23.16        0.0000        0.0000        0.0000        0.0001       0.000071       0.00022
  27     28.12        0.0000        0.0000        0.0000        0.0000       0.000028       0.00007
  26     33.73        0.0000        0.0000        0.0000        0.0000       0.000011       0.00002
  25     40.54        0.0000        0.0000        0.0000        0.0000       0.000005       0.00001
  24     48.69        0.0000        0.0000        0.0000        0.0000       0.000002       0.00000
  23     57.69        0.0000        0.0000        0.0000        0.0000       0.000001       0.00000
  22     68.43        0.0000        0.0000        0.0000        0.0000       0.000000       0.00000
  21     81.20        0.0000        0.0000        0.0000        0.0000       0.000000       0.00000
  20     96.49        0.0000        0.0000        0.0000        0.0000       0.000000       0.00000
  19     114.6        0.0000        0.0000        0.0000        0.0000       0.000000       0.00000
  18     136.5        0.0000        0.0000        0.0000        0.0000       0.000000       0.00000
  17     162.9        0.0000        0.0000        0.0000        0.0000       0.000000       0.00000
  16     196.4        0.0000        0.0000        0.0000        0.0000       0.000000       0.00000
  15     218.7        0.0000        0.0000        0.0000        0.0000       0.000000       0.00000
  14     243.0        0.0000        0.0000        0.0000        0.0000       0.000000       0.00000
  13     269.0        0.0000        0.0000        0.0000        0.0000       0.000000       0.00000
  12     297.5        0.0000        0.0000        0.0000        0.0000       0.000000       0.00000
  11     328.5        0.0000        0.0000        0.0000        0.0000       0.000000       0.00000
  10     361.9        0.0000        0.0000        0.0000        0.0000       0.000000       0.00000
   9     398.1        0.0000        0.0000        0.0000        0.0000       0.000000       0.00000
   8     437.6        0.0000        0.0000        0.0000        0.0000       0.000000       0.00000
   7     480.5        0.0000        0.0000        0.0000        0.0000       0.000000       0.00000
   6     533.0        0.0000        0.0000        0.0000        0.0000       0.000000       0.00000
   5     589.8        0.0000        0.0000        0.0000        0.0000       0.000000       0.00000
   4     651.6        0.0000        0.0000        0.0000        0.0000       0.000000       0.00000
   3     718.7        0.0000        0.0000        0.0000        0.0000       0.000000       0.00000
   2     792.3        0.0000        0.0000        0.0000        0.0000       0.000000       0.00000
   1     891.5        0.0000        0.0000        0.0000        0.0000       0.000000       0.00000
   0    1013.0        0.0000        0.0000        0.0000        0.0000       0.000000       0.00000



 Wavenumbers:   820. -  2600. cm-1, ATM      1
 LEVEL PRESSURE   UPWARD FLUX   DIFDOWN FLUX  DIRDOWN FLUX  DOWNWARD FLUX   NET FLUX    HEATING RATE
          mb          W/m2          W/m2          W/m2        W/m2          W/m2       degree/day
  51    .06700        0.4342        0.0000        3.8670        3.8670       3.432777       0.00000
  50    .07753        0.4342        0.0000        3.8643        3.8643       3.430060       2.17770
  49    .09103        0.4342        0.0000        3.8635        3.8635       3.429250       0.50638
  48    0.1069        0.4342        0.0000        3.8626        3.8626       3.428359       0.47415
  47    0.1255        0.4342        0.0000        3.8616        3.8616       3.427398       0.43560
  46    0.1487        0.4342        0.0000        3.8605        3.8605       3.426289       0.40438
  45    0.1794        0.4342        0.0000        3.8592        3.8592       3.424954       0.36648
  44    0.2165        0.4342        0.0000        3.8578        3.8578       3.423576       0.31346
  43    0.2613        0.4342        0.0000        3.8564        3.8564       3.422116       0.27522
  42    0.3336        0.4342        0.0000        3.8541        3.8541       3.419885       0.26013
  41    0.4307        0.4342        0.0000        3.8512        3.8512       3.417002       0.25063
  40    0.5894        0.4342        0.0000        3.8465        3.8465       3.412276       0.25134
  39     1.339        0.4342        0.0000        3.8251        3.8251       3.390900       0.24065
  38     1.782        0.4342        0.0000        3.8133        3.8133       3.379088       0.22490
  37     2.292        0.4342        0.0000        3.8003        3.8003       3.366026       0.21633
  36     2.964        0.4342        0.0000        3.7841        3.7841       3.349897       0.20247
  35     3.853        0.4342        0.0000        3.7642        3.7642       3.329982       0.18900
  34     5.035        0.4342        0.0000        3.7395        3.7395       3.305290       0.17639
  33     6.613        0.4342        0.0000        3.7090        3.7090       3.274754       0.16325
  32     8.786        0.4343        0.0000        3.6726        3.6726       3.238359       0.14134
  31     11.80        0.4343        0.0000        3.6320        3.6320       3.197763       0.11366
  30     15.07        0.4343        0.0000        3.6016        3.6016       3.167377       0.07845
  29     18.79        0.4343        0.0000        3.5777        3.5777       3.143477       0.05419
  28     23.16        0.4343        0.0000        3.5564        3.5564       3.122121       0.04130
  27     28.12        0.4343        0.0000        3.5348        3.5348       3.100572       0.03663
  26     33.73        0.4343        0.0000        3.5118        3.5118       3.077535       0.03464
  25     40.54        0.4343        0.0000        3.4849        3.4849       3.050643       0.03336
  24     48.69        0.4343        0.0000        3.4537        3.4537       3.019385       0.03235
  23     57.69        0.4343        0.0000        3.4210        3.4210       2.986706       0.03063
  22     68.43        0.4343        0.0000        3.3844        3.3844       2.950112       0.02877
  21     81.20        0.4343        0.0000        3.3441        3.3441       2.909804       0.02664
  20     96.49        0.4344        0.0000        3.2998        3.2998       2.865427       0.02449
  19     114.6        0.4344        0.0000        3.2506        3.2506       2.816264       0.02296
  18     136.5        0.4344        0.0000        3.1936        3.1936       2.759193       0.02195
  17     162.9        0.4345        0.0000        3.1181        3.1181       2.683652       0.02415
  16     196.4        0.4346        0.0000        3.0090        3.0090       2.574389       0.02750
  15     218.7        0.4347        0.0000        2.9420        2.9420       2.507328       0.02546
  14     243.0        0.4348        0.0000        2.8605        2.8605       2.425679       0.02832
  13     269.0        0.4350        0.0000        2.7419        2.7420       2.306949       0.03852
  12     297.5        0.4354        0.0000        2.5729        2.5729       2.137490       0.05026
  11     328.5        0.4360        0.0000        2.3602        2.3602       1.924190       0.05800
  10     361.9        0.4370        0.0000        2.1524        2.1524       1.715464       0.05281
   9     398.1        0.4384        0.0000        1.9974        1.9974       1.559063       0.03644
   8     437.6        0.4404        0.0000        1.8835        1.8835       1.443169       0.02478
   7     480.5        0.4433        0.0000        1.7734        1.7734       1.330177       0.02219
   6     533.0        0.4482        0.0000        1.6397        1.6398       1.191613       0.02229
   5     589.8        0.4552        0.0000        1.5068        1.5069       1.051641       0.02078
   4     651.6        0.4658        0.0000        1.3807        1.3807       0.914964       0.01869
   3     718.7        0.4798        0.0000        1.2680        1.2681       0.788286       0.01592
   2     792.3        0.4970        0.0000        1.1659        1.1660       0.669002       0.01368
   1     891.5        0.5259        0.0000        1.0372        1.0373       0.511339       0.01342
   0    1013.0        0.5785        0.0000        0.8716        0.8717       0.293143       0.01515

  Modules and versions used in this calculation:

       rrtmg_sw.1col.f90:  $Revision$                    rrtmg_sw_init.f90:  $Revision$        
     rrtmgsw_cldprop.f90:  $Revision$                  rrtmgsw_cldprmc.f90:  NOT USED          
     rrtmg_sw_reftra.f90:  $Revision$                  rrtmg_sw_spcvrt.f90:  NOT USED          
     rrtmg_sw_spcvmc.f90:  NOT USED                    rrtmgsw_setcoef.f90:  NOT USED          
     rrtmg_sw_taumol.f90:  $Revision$                  rrtmg_sw_vrtqdr.f90:  NOT USED          
                rrtatm.f:  NOT USED                             util_xxx.f:  NOT USED          
                 extra.f:  NOT USED                       rrtmg_sw_k_g.f90:  $Revision$        

