

 Wavenumbers:   820. - 50000. cm-1, ATM      1
 LEVEL PRESSURE   UPWARD FLUX   DIFDOWN FLUX  DIRDOWN FLUX  DOWNWARD FLUX   NET FLUX    HEATING RATE
          mb          W/m2          W/m2          W/m2        W/m2          W/m2       degree/day
  51    .06700      235.4589        0.0000      397.8738      397.8738     162.414901       0.00000
  50    .07753      235.4583        0.0012      397.8577      397.8589     162.400609      11.45549
  49    .09103      235.4576        0.0027      397.8418      397.8445     162.386919       8.55685
  48    0.1069      235.4568        0.0044      397.8230      397.8274     162.370568       8.70357
  47    0.1255      235.4559        0.0064      397.7997      397.8060     162.350121       9.26955
  46    0.1487      235.4548        0.0088      397.7676      397.7765     162.321658      10.37534
  45    0.1794      235.4534        0.0122      397.7205      397.7327     162.279355      11.61296
  44    0.2165      235.4518        0.0162      397.6602      397.6765     162.224693      12.43475
  43    0.2613      235.4499        0.0209      397.5829      397.6038     162.153876      13.34865
  42    0.3336      235.4471        0.0287      397.4449      397.4735     162.026399      14.86260
  41    0.4307      235.4437        0.0388      397.2524      397.2912     161.847471      15.55741
  40    0.5894      235.4388        0.0551      396.9253      396.9804     161.541637      16.26382
  39     1.339      235.4276        0.1282      395.4254      395.5536     160.126001      15.93750
  38     1.782      235.4290        0.1692      394.7288      394.8980     159.468964      12.50893
  37     2.292      235.4378        0.2159      394.0572      394.2730     158.835237      10.49617
  36     2.964      235.4599        0.2765      393.3007      393.5772     158.117253       9.01286
  35     3.853      235.5038        0.3557      392.4318      392.7875     157.283704       7.91053
  34     5.035      235.5767        0.4600      391.4441      391.9041     156.327390       6.83151
  33     6.613      235.6820        0.5982      390.3268      390.9250     155.242925       5.79755
  32     8.786      235.8180        0.7830      389.0624      389.8454     154.027414       4.72060
  31     11.80      235.9877        1.0454      387.5500      388.5954     152.607761       3.97458
  30     15.07      236.1406        1.3249      386.1556      387.4805     151.339909       3.27335
  29     18.79      236.2874        1.6382      384.7502      386.3884     150.100998       2.80899
  28     23.16      236.4289        2.0013      383.2686      385.2699     148.841006       2.43642
  27     28.12      236.5557        2.4132      381.7329      384.1461     147.590375       2.12599
  26     33.73      236.6464        2.8709      380.1982      383.0691     146.422723       1.75560
  25     40.54      236.6965        3.4200      378.5384      381.9584     145.261861       1.44018
  24     48.69      236.7001        4.0763      376.7214      380.7977     144.097670       1.20476
  23     57.69      236.6493        4.7906      374.8959      379.6865     143.037170       0.99406
  22     68.43      236.5303        5.6330      372.8999      378.5329     142.002612       0.81330
  21     81.20      236.3076        6.6263      370.7496      377.3759     141.068299       0.61738
  20     96.49      235.9691        7.7954      368.4056      376.2010     140.231824       0.46167
  19     114.6      235.5453        9.1618      365.7513      374.9131     139.367718       0.40348
  18     136.5      235.0264       10.7498      362.7231      373.4729     138.446441       0.35425
  17     162.9      234.3992       12.5972      359.1748      371.7720     137.372756       0.34319
  16     196.4      233.5546       14.9288      354.5718      369.5006     135.945945       0.35915
  15     218.7      232.9945       16.4214      351.4437      367.8651     134.870591       0.40827
  14     243.0      232.3896       18.0103      347.7111      365.7214     133.331801       0.53370
  13     269.0      231.7405       19.6938      342.9441      362.6379     130.897391       0.78971
  12     297.5      231.0491       21.4700      337.4137      358.8838     127.834667       0.90837
  11     328.5      230.3210       23.3411      331.1302      354.4713     124.150291       1.00177
  10     361.9      229.5614       25.3015      324.1219      349.4234     119.862039       1.08497
   9     398.1      228.7745       27.3513      316.6066      343.9579     115.183414       1.09001
   8     437.6      227.9703       29.4862      308.5895      338.0756     110.105328       1.08573
   7     480.5      227.1654       31.7006      299.9349      331.6355     104.470082       1.10674
   6     533.0      226.2626       34.3285      289.7021      324.0307      97.768031       1.07815
   5     589.8      225.4063       37.0467      279.3388      316.3855      90.979258       1.00768
   4     651.6      224.6410       39.8436      268.7786      308.6222      83.981252       0.95700
   3     718.7      223.9935       42.7108      258.2837      300.9945      77.000983       0.87723
   2     792.3      223.4927       45.6346      248.0774      293.7120      70.219253       0.77779
   1     891.5      223.1918       49.3567      235.5216      284.8783      61.686547       0.72609
   0    1013.0      223.6718       53.5085      221.4731      274.9816      51.309738       0.72052



 Wavenumbers:  2600. -  3250. cm-1, ATM      1
 LEVEL PRESSURE   UPWARD FLUX   DIFDOWN FLUX  DIRDOWN FLUX  DOWNWARD FLUX   NET FLUX    HEATING RATE
          mb          W/m2          W/m2          W/m2        W/m2          W/m2       degree/day
  51    .06700        0.2253        0.0000        3.5066        3.5066       3.281331       0.00000
  50    .07753        0.2253        0.0000        3.5066        3.5066       3.281323       0.00640
  49    .09103        0.2253        0.0000        3.5066        3.5066       3.281313       0.00627
  48    0.1069        0.2253        0.0000        3.5066        3.5066       3.281301       0.00613
  47    0.1255        0.2253        0.0000        3.5066        3.5066       3.281288       0.00599
  46    0.1487        0.2253        0.0000        3.5066        3.5066       3.281271       0.00607
  45    0.1794        0.2253        0.0000        3.5065        3.5065       3.281249       0.00624
  44    0.2165        0.2253        0.0000        3.5065        3.5065       3.281222       0.00611
  43    0.2613        0.2253        0.0000        3.5065        3.5065       3.281190       0.00598
  42    0.3336        0.2253        0.0000        3.5064        3.5064       3.281137       0.00615
  41    0.4307        0.2253        0.0000        3.5064        3.5064       3.281066       0.00618
  40    0.5894        0.2253        0.0000        3.5062        3.5062       3.280947       0.00633
  39     1.339        0.2253        0.0000        3.5055        3.5055       3.280248       0.00787
  38     1.782        0.2253        0.0000        3.5050        3.5050       3.279718       0.01011
  37     2.292        0.2253        0.0000        3.5043        3.5043       3.279025       0.01147
  36     2.964        0.2253        0.0000        3.5033        3.5033       3.278034       0.01245
  35     3.853        0.2253        0.0000        3.5019        3.5019       3.276657       0.01307
  34     5.035        0.2253        0.0000        3.5001        3.5001       3.274796       0.01329
  33     6.613        0.2253        0.0000        3.4977        3.4977       3.272386       0.01288
  32     8.786        0.2253        0.0000        3.4947        3.4947       3.269415       0.01154
  31     11.80        0.2253        0.0000        3.4911        3.4911       3.265780       0.01018
  30     15.07        0.2253        0.0000        3.4878        3.4878       3.262559       0.00832
  29     18.79        0.2253        0.0000        3.4848        3.4848       3.259496       0.00695
  28     23.16        0.2253        0.0000        3.4816        3.4816       3.256276       0.00623
  27     28.12        0.2253        0.0000        3.4779        3.4779       3.252658       0.00615
  26     33.73        0.2253        0.0000        3.4735        3.4735       3.248192       0.00671
  25     40.54        0.2253        0.0000        3.4671        3.4671       3.241866       0.00785
  24     48.69        0.2253        0.0000        3.4582        3.4583       3.232972       0.00920
  23     57.69        0.2253        0.0000        3.4472        3.4472       3.221925       0.01036
  22     68.43        0.2253        0.0000        3.4329        3.4329       3.207666       0.01121
  21     81.20        0.2253        0.0000        3.4152        3.4152       3.189939       0.01171
  20     96.49        0.2253        0.0000        3.3940        3.3941       3.168797       0.01167
  19     114.6        0.2253        0.0000        3.3692        3.3692       3.143910       0.01162
  18     136.5        0.2253        0.0001        3.3419        3.3420       3.116695       0.01046
  17     162.9        0.2253        0.0001        3.3129        3.3129       3.087625       0.00929
  16     196.4        0.2254        0.0001        3.2793        3.2794       3.054058       0.00845
  15     218.7        0.2254        0.0001        3.2578        3.2578       3.032448       0.00820
  14     243.0        0.2255        0.0001        3.2320        3.2320       3.006584       0.00897
  13     269.0        0.2256        0.0001        3.1968        3.1969       2.971348       0.01143
  12     297.5        0.2258        0.0001        3.1489        3.1490       2.923285       0.01425
  11     328.5        0.2260        0.0001        3.0821        3.0822       2.856131       0.01826
  10     361.9        0.2264        0.0001        2.9902        2.9904       2.763908       0.02333
   9     398.1        0.2270        0.0001        2.8715        2.8716       2.644588       0.02780
   8     437.6        0.2278        0.0001        2.7276        2.7278       2.499936       0.03093
   7     480.5        0.2291        0.0001        2.5595        2.5597       2.330602       0.03326
   6     533.0        0.2311        0.0001        2.3617        2.3619       2.130827       0.03214
   5     589.8        0.2339        0.0002        2.1649        2.1651       1.931137       0.02964
   4     651.6        0.2381        0.0002        1.9608        1.9609       1.722830       0.02849
   3     718.7        0.2437        0.0002        1.7593        1.7595       1.515742       0.02603
   2     792.3        0.2511        0.0002        1.5761        1.5762       1.325097       0.02186
   1     891.5        0.2638        0.0002        1.3714        1.3716       1.107795       0.01849
   0    1013.0        0.2867        0.0002        1.1584        1.1586       0.871847       0.01638



 Wavenumbers:  3250. -  4000. cm-1, ATM      1
 LEVEL PRESSURE   UPWARD FLUX   DIFDOWN FLUX  DIRDOWN FLUX  DOWNWARD FLUX   NET FLUX    HEATING RATE
          mb          W/m2          W/m2          W/m2        W/m2          W/m2       degree/day
  51    .06700        0.0004        0.0000        5.9117        5.9117       5.911216       0.00000
  50    .07753        0.0004        0.0000        5.9075        5.9075       5.907026       3.35808
  49    .09103        0.0004        0.0000        5.9050        5.9050       5.904584       1.52677
  48    0.1069        0.0004        0.0000        5.9032        5.9032       5.902717       0.99346
  47    0.1255        0.0004        0.0000        5.9014        5.9014       5.900959       0.79708
  46    0.1487        0.0004        0.0000        5.8995        5.8995       5.899070       0.68848
  45    0.1794        0.0004        0.0000        5.8974        5.8974       5.896922       0.58983
  44    0.2165        0.0004        0.0000        5.8952        5.8952       5.894805       0.48155
  43    0.2613        0.0004        0.0000        5.8931        5.8931       5.892646       0.40696
  42    0.3336        0.0004        0.0000        5.8899        5.8899       5.889488       0.36820
  41    0.4307        0.0004        0.0000        5.8861        5.8861       5.885651       0.33365
  40    0.5894        0.0004        0.0000        5.8803        5.8803       5.879848       0.30857
  39     1.339        0.0004        0.0000        5.8597        5.8597       5.859251       0.23189
  38     1.782        0.0004        0.0000        5.8513        5.8513       5.850826       0.16039
  37     2.292        0.0004        0.0000        5.8431        5.8431       5.842655       0.13533
  36     2.964        0.0004        0.0000        5.8334        5.8334       5.833015       0.12100
  35     3.853        0.0004        0.0000        5.8213        5.8213       5.820840       0.11555
  34     5.035        0.0004        0.0000        5.8052        5.8052       5.804745       0.11498
  33     6.613        0.0004        0.0000        5.7833        5.7834       5.782923       0.11666
  32     8.786        0.0004        0.0000        5.7531        5.7531       5.752722       0.11729
  31     11.80        0.0004        0.0000        5.7090        5.7090       5.708553       0.12366
  30     15.07        0.0004        0.0000        5.6615        5.6615       5.661088       0.12254
  29     18.79        0.0004        0.0000        5.6093        5.6094       5.608953       0.11821
  28     23.16        0.0004        0.0000        5.5524        5.5524       5.552027       0.11008
  27     28.12        0.0004        0.0000        5.4935        5.4935       5.493148       0.10009
  26     33.73        0.0004        0.0000        5.4348        5.4349       5.434459       0.08824
  25     40.54        0.0004        0.0001        5.3707        5.3708       5.370398       0.07948
  24     48.69        0.0004        0.0001        5.2985        5.2985       5.298165       0.07475
  23     57.69        0.0004        0.0001        5.2215        5.2216       5.221226       0.07212
  22     68.43        0.0003        0.0001        5.1318        5.1319       5.131565       0.07048
  21     81.20        0.0003        0.0001        5.0284        5.0285       5.028136       0.06834
  20     96.49        0.0003        0.0001        4.9122        4.9123       4.912002       0.06410
  19     114.6        0.0003        0.0001        4.7780        4.7782       4.777891       0.06262
  18     136.5        0.0003        0.0002        4.6285        4.6287       4.628413       0.05748
  17     162.9        0.0002        0.0002        4.4406        4.4407       4.440500       0.06006
  16     196.4        0.0002        0.0002        4.1548        4.1550       4.154827       0.07191
  15     218.7        0.0002        0.0002        3.9564        3.9566       3.956446       0.07532
  14     243.0        0.0002        0.0002        3.7055        3.7058       3.705611       0.08700
  13     269.0        0.0001        0.0002        3.3399        3.3401       3.339973       0.11861
  12     297.5        0.0001        0.0002        2.8954        2.8956       2.895483       0.13183
  11     328.5        0.0001        0.0002        2.4388        2.4390       2.438942       0.12413
  10     361.9        0.0001        0.0002        2.0269        2.0271       2.027003       0.10422
   9     398.1        0.0001        0.0002        1.6753        1.6755       1.675415       0.08191
   8     437.6        0.0001        0.0002        1.3592        1.3594       1.359296       0.06759
   7     480.5        0.0001        0.0002        1.0616        1.0618       1.061713       0.05844
   6     533.0        0.0001        0.0001        0.7543        0.7544       0.754377       0.04944
   5     589.8        0.0001        0.0001        0.4951        0.4952       0.495181       0.03847
   4     651.6        0.0001        0.0001        0.2943        0.2943       0.294278       0.02747
   3     718.7        0.0001        0.0001        0.1528        0.1529       0.152770       0.01778
   2     792.3        0.0001        0.0000        0.0658        0.0658       0.065710       0.00998
   1     891.5        0.0003        0.0000        0.0157        0.0157       0.015360       0.00428
   0    1013.0        0.0013        0.0000        0.0013        0.0013       0.000050       0.00106



 Wavenumbers:  4000. -  4650. cm-1, ATM      1
 LEVEL PRESSURE   UPWARD FLUX   DIFDOWN FLUX  DIRDOWN FLUX  DOWNWARD FLUX   NET FLUX    HEATING RATE
          mb          W/m2          W/m2          W/m2        W/m2          W/m2       degree/day
  51    .06700        0.7919        0.0000        6.9421        6.9421       6.150181       0.00000
  50    .07753        0.7919        0.0000        6.9421        6.9421       6.150180       0.00079
  49    .09103        0.7919        0.0000        6.9421        6.9421       6.150178       0.00078
  48    0.1069        0.7919        0.0000        6.9421        6.9421       6.150177       0.00076
  47    0.1255        0.7919        0.0000        6.9421        6.9421       6.150175       0.00074
  46    0.1487        0.7919        0.0000        6.9421        6.9421       6.150173       0.00075
  45    0.1794        0.7919        0.0000        6.9421        6.9421       6.150170       0.00077
  44    0.2165        0.7919        0.0000        6.9421        6.9421       6.150167       0.00076
  43    0.2613        0.7919        0.0000        6.9420        6.9420       6.150163       0.00074
  42    0.3336        0.7919        0.0000        6.9420        6.9420       6.150157       0.00076
  41    0.4307        0.7919        0.0000        6.9420        6.9420       6.150148       0.00077
  40    0.5894        0.7919        0.0000        6.9420        6.9420       6.150133       0.00079
  39     1.339        0.7919        0.0000        6.9419        6.9419       6.150044       0.00100
  38     1.782        0.7919        0.0000        6.9418        6.9419       6.149975       0.00132
  37     2.292        0.7919        0.0000        6.9418        6.9418       6.149881       0.00155
  36     2.964        0.7919        0.0000        6.9416        6.9416       6.149742       0.00175
  35     3.853        0.7919        0.0000        6.9414        6.9414       6.149535       0.00196
  34     5.035        0.7919        0.0000        6.9411        6.9411       6.149231       0.00218
  33     6.613        0.7919        0.0000        6.9406        6.9406       6.148783       0.00239
  32     8.786        0.7919        0.0000        6.9399        6.9400       6.148123       0.00256
  31     11.80        0.7918        0.0000        6.9389        6.9389       6.147089       0.00290
  30     15.07        0.7918        0.0001        6.9377        6.9377       6.145880       0.00312
  29     18.79        0.7918        0.0001        6.9362        6.9362       6.144422       0.00330
  28     23.16        0.7918        0.0001        6.9343        6.9344       6.142620       0.00348
  27     28.12        0.7918        0.0001        6.9321        6.9322       6.140448       0.00369
  26     33.73        0.7918        0.0001        6.9294        6.9296       6.137784       0.00401
  25     40.54        0.7918        0.0001        6.9258        6.9260       6.134193       0.00446
  24     48.69        0.7917        0.0002        6.9210        6.9212       6.129440       0.00492
  23     57.69        0.7917        0.0002        6.9154        6.9156       6.123851       0.00524
  22     68.43        0.7917        0.0003        6.9083        6.9086       6.116905       0.00546
  21     81.20        0.7917        0.0003        6.8998        6.9001       6.108416       0.00561
  20     96.49        0.7916        0.0004        6.8894        6.8898       6.098168       0.00566
  19     114.6        0.7916        0.0004        6.8765        6.8770       6.085348       0.00599
  18     136.5        0.7916        0.0005        6.8610        6.8615       6.069894       0.00594
  17     162.9        0.7916        0.0006        6.8417        6.8423       6.050691       0.00614
  16     196.4        0.7916        0.0007        6.8147        6.8154       6.023787       0.00677
  15     218.7        0.7916        0.0008        6.7948        6.7956       6.003995       0.00751
  14     243.0        0.7917        0.0009        6.7698        6.7707       5.978919       0.00870
  13     269.0        0.7919        0.0010        6.7349        6.7358       5.943885       0.01136
  12     297.5        0.7923        0.0011        6.6869        6.6879       5.895654       0.01430
  11     328.5        0.7928        0.0012        6.6194        6.6205       5.827771       0.01846
  10     361.9        0.7934        0.0013        6.5295        6.5307       5.737293       0.02289
   9     398.1        0.7943        0.0014        6.4202        6.4216       5.627252       0.02564
   8     437.6        0.7955        0.0015        6.2962        6.2977       5.502121       0.02675
   7     480.5        0.7972        0.0016        6.1555        6.1571       5.359908       0.02793
   6     533.0        0.7999        0.0018        5.9675        5.9693       5.169417       0.03064
   5     589.8        0.8037        0.0019        5.7368        5.7386       4.934901       0.03481
   4     651.6        0.8094        0.0020        5.4662        5.4682       4.658876       0.03775
   3     718.7        0.8171        0.0021        5.1912        5.1933       4.376254       0.03552
   2     792.3        0.8270        0.0022        4.9395        4.9417       4.114721       0.02999
   1     891.5        0.8440        0.0024        4.6486        4.6510       3.806979       0.02619
   0    1013.0        0.8746        0.0026        4.3179        4.3204       3.445802       0.02508



 Wavenumbers:  4650. -  5150. cm-1, ATM      1
 LEVEL PRESSURE   UPWARD FLUX   DIFDOWN FLUX  DIRDOWN FLUX  DOWNWARD FLUX   NET FLUX    HEATING RATE
          mb          W/m2          W/m2          W/m2        W/m2          W/m2       degree/day
  51    .06700        0.4796        0.0000        6.5710        6.5710       6.091402       0.00000
  50    .07753        0.4796        0.0000        6.5708        6.5708       6.091167       0.18887
  49    .09103        0.4796        0.0000        6.5705        6.5705       6.090873       0.18362
  48    0.1069        0.4796        0.0000        6.5701        6.5701       6.090539       0.17806
  47    0.1255        0.4796        0.0000        6.5697        6.5697       6.090158       0.17238
  46    0.1487        0.4796        0.0000        6.5693        6.5693       6.089685       0.17268
  45    0.1794        0.4796        0.0000        6.5686        6.5686       6.089048       0.17473
  44    0.2165        0.4796        0.0000        6.5679        6.5679       6.088310       0.16788
  43    0.2613        0.4796        0.0000        6.5670        6.5670       6.087457       0.16078
  42    0.3336        0.4796        0.0000        6.5657        6.5657       6.086094       0.15894
  41    0.4307        0.4796        0.0000        6.5640        6.5640       6.084372       0.14971
  40    0.5894        0.4796        0.0000        6.5613        6.5613       6.081756       0.13913
  39     1.339        0.4796        0.0000        6.5516        6.5516       6.071978       0.11008
  38     1.782        0.4796        0.0000        6.5473        6.5473       6.067762       0.08026
  37     2.292        0.4796        0.0000        6.5434        6.5435       6.063876       0.06438
  36     2.964        0.4796        0.0000        6.5395        6.5395       6.059921       0.04964
  35     3.853        0.4796        0.0000        6.5355        6.5356       6.055979       0.03742
  34     5.035        0.4796        0.0000        6.5315        6.5315       6.051977       0.02859
  33     6.613        0.4796        0.0000        6.5271        6.5271       6.047583       0.02349
  32     8.786        0.4795        0.0000        6.5216        6.5216       6.042089       0.02134
  31     11.80        0.4795        0.0001        6.5135        6.5135       6.034011       0.02261
  30     15.07        0.4795        0.0001        6.5041        6.5042       6.024645       0.02418
  29     18.79        0.4795        0.0001        6.4925        6.4926       6.013132       0.02610
  28     23.16        0.4795        0.0001        6.4779        6.4780       5.998543       0.02821
  27     28.12        0.4795        0.0002        6.4599        6.4600       5.980573       0.03055
  26     33.73        0.4794        0.0002        6.4384        6.4386       5.959149       0.03221
  25     40.54        0.4794        0.0002        6.4112        6.4114       5.932034       0.03364
  24     48.69        0.4794        0.0003        6.3775        6.3778       5.898411       0.03479
  23     57.69        0.4794        0.0003        6.3404        6.3407       5.861339       0.03475
  22     68.43        0.4793        0.0004        6.2971        6.2975       5.818176       0.03393
  21     81.20        0.4793        0.0004        6.2483        6.2487       5.769399       0.03223
  20     96.49        0.4793        0.0005        6.1948        6.1953       5.716080       0.02943
  19     114.6        0.4792        0.0006        6.1381        6.1388       5.659518       0.02641
  18     136.5        0.4792        0.0007        6.0790        6.0797       5.600509       0.02269
  17     162.9        0.4792        0.0009        6.0160        6.0169       5.537688       0.02008
  16     196.4        0.4792        0.0010        5.9399        5.9409       5.461657       0.01914
  15     218.7        0.4793        0.0011        5.8896        5.8908       5.411487       0.01905
  14     243.0        0.4794        0.0012        5.8322        5.8334       5.354071       0.01991
  13     269.0        0.4795        0.0014        5.7624        5.7638       5.284252       0.02265
  12     297.5        0.4798        0.0015        5.6767        5.6782       5.198444       0.02545
  11     328.5        0.4802        0.0016        5.5726        5.5742       5.094037       0.02839
  10     361.9        0.4808        0.0018        5.4473        5.4491       4.968326       0.03181
   9     398.1        0.4816        0.0019        5.2995        5.3014       4.819803       0.03460
   8     437.6        0.4827        0.0020        5.1275        5.1295       4.646794       0.03699
   7     480.5        0.4843        0.0022        4.9290        4.9311       4.446862       0.03927
   6     533.0        0.4868        0.0023        4.6794        4.6817       4.194901       0.04053
   5     589.8        0.4903        0.0024        4.4188        4.4212       3.930905       0.03919
   4     651.6        0.4953        0.0026        4.1521        4.1546       3.659348       0.03714
   3     718.7        0.5020        0.0027        3.8929        3.8956       3.393650       0.03339
   2     792.3        0.5106        0.0028        3.6469        3.6497       3.139037       0.02920
   1     891.5        0.5254        0.0029        3.3535        3.3564       2.830987       0.02621
   0    1013.0        0.5508        0.0030        3.0383        3.0414       2.490604       0.02363



 Wavenumbers:  5150. -  6150. cm-1, ATM      1
 LEVEL PRESSURE   UPWARD FLUX   DIFDOWN FLUX  DIRDOWN FLUX  DOWNWARD FLUX   NET FLUX    HEATING RATE
          mb          W/m2          W/m2          W/m2        W/m2          W/m2       degree/day
  51    .06700        1.5767        0.0000       16.4735       16.4735      14.896759       0.00000
  50    .07753        1.5767        0.0000       16.4735       16.4735      14.896724       0.02761
  49    .09103        1.5767        0.0000       16.4734       16.4734      14.896679       0.02810
  48    0.1069        1.5767        0.0000       16.4734       16.4734      14.896626       0.02859
  47    0.1255        1.5767        0.0000       16.4733       16.4733      14.896562       0.02904
  46    0.1487        1.5767        0.0000       16.4732       16.4732      14.896478       0.03060
  45    0.1794        1.5767        0.0000       16.4731       16.4731      14.896359       0.03269
  44    0.2165        1.5767        0.0000       16.4730       16.4730      14.896212       0.03331
  43    0.2613        1.5767        0.0000       16.4728       16.4728      14.896033       0.03376
  42    0.3336        1.5767        0.0000       16.4725       16.4725      14.895727       0.03564
  41    0.4307        1.5767        0.0000       16.4720       16.4720      14.895308       0.03645
  40    0.5894        1.5767        0.0000       16.4713       16.4713      14.894607       0.03729
  39     1.339        1.5767        0.0000       16.4679       16.4679      14.891199       0.03837
  38     1.782        1.5767        0.0000       16.4659       16.4659      14.889199       0.03807
  37     2.292        1.5767        0.0001       16.4635       16.4636      14.886908       0.03795
  36     2.964        1.5767        0.0001       16.4605       16.4606      14.883938       0.03727
  35     3.853        1.5767        0.0001       16.4567       16.4567      14.880085       0.03657
  34     5.035        1.5766        0.0001       16.4516       16.4517      14.875089       0.03569
  33     6.613        1.5766        0.0002       16.4451       16.4452      14.868628       0.03454
  32     8.786        1.5766        0.0002       16.4367       16.4369      14.860317       0.03228
  31     11.80        1.5765        0.0003       16.4254       16.4257      14.849166       0.03122
  30     15.07        1.5764        0.0004       16.4141       16.4145      14.838080       0.02862
  29     18.79        1.5764        0.0005       16.4024       16.4029      14.826560       0.02612
  28     23.16        1.5763        0.0006       16.3900       16.3906      14.814300       0.02371
  27     28.12        1.5762        0.0007       16.3771       16.3778      14.801637       0.02153
  26     33.73        1.5761        0.0009       16.3641       16.3650      14.788913       0.01913
  25     40.54        1.5759        0.0010       16.3502       16.3512      14.775275       0.01692
  24     48.69        1.5758        0.0012       16.3354       16.3366      14.760805       0.01497
  23     57.69        1.5756        0.0015       16.3211       16.3226      14.746910       0.01302
  22     68.43        1.5755        0.0018       16.3062       16.3080      14.732529       0.01131
  21     81.20        1.5753        0.0021       16.2903       16.2924      14.717146       0.01017
  20     96.49        1.5750        0.0025       16.2726       16.2751      14.700084       0.00942
  19     114.6        1.5747        0.0029       16.2521       16.2550      14.680284       0.00924
  18     136.5        1.5744        0.0035       16.2245       16.2280      14.653641       0.01025
  17     162.9        1.5740        0.0041       16.1747       16.1789      14.604878       0.01559
  16     196.4        1.5735        0.0050       16.0518       16.0568      14.483304       0.03060
  15     218.7        1.5732        0.0055       15.8984       15.9039      14.330675       0.05795
  14     243.0        1.5729        0.0060       15.6153       15.6213      14.048394       0.09790
  13     269.0        1.5726        0.0065       15.1390       15.1455      13.572909       0.15425
  12     297.5        1.5723        0.0070       14.5779       14.5849      13.012519       0.16621
  11     328.5        1.5722        0.0074       13.8780       13.8854      12.313237       0.19013
  10     361.9        1.5722        0.0078       13.0814       13.0892      11.517060       0.20144
   9     398.1        1.5723        0.0081       12.2728       12.2810      10.708640       0.18834
   8     437.6        1.5728        0.0084       11.4776       11.4860       9.913240       0.17006
   7     480.5        1.5736        0.0087       10.7300       10.7386       9.165066       0.14694
   6     533.0        1.5752        0.0090       10.0326       10.0416       8.466360       0.11240
   5     589.8        1.5780        0.0094        9.5050        9.5144       7.936428       0.07866
   4     651.6        1.5825        0.0099        9.0814        9.0913       7.508832       0.05847
   3     718.7        1.5890        0.0105        8.7024        8.7130       7.123934       0.04837
   2     792.3        1.5981        0.0112        8.3379        8.3492       6.751082       0.04276
   1     891.5        1.6149        0.0121        7.9064        7.9184       6.303559       0.03808
   0    1013.0        1.6496        0.0130        7.4741        7.4871       5.837518       0.03236



 Wavenumbers:  6150. -  7700. cm-1, ATM      1
 LEVEL PRESSURE   UPWARD FLUX   DIFDOWN FLUX  DIRDOWN FLUX  DOWNWARD FLUX   NET FLUX    HEATING RATE
          mb          W/m2          W/m2          W/m2        W/m2          W/m2       degree/day
  51    .06700        2.5638        0.0000       30.4684       30.4684      27.904573       0.00000
  50    .07753        2.5638        0.0000       30.4683       30.4683      27.904521       0.04144
  49    .09103        2.5638        0.0000       30.4683       30.4683      27.904454       0.04174
  48    0.1069        2.5638        0.0000       30.4682       30.4682      27.904375       0.04202
  47    0.1255        2.5638        0.0000       30.4681       30.4681      27.904282       0.04227
  46    0.1487        2.5638        0.0000       30.4680       30.4680      27.904161       0.04411
  45    0.1794        2.5638        0.0000       30.4678       30.4678      27.903991       0.04669
  44    0.2165        2.5638        0.0000       30.4676       30.4676      27.903784       0.04715
  43    0.2613        2.5638        0.0000       30.4673       30.4673      27.903532       0.04744
  42    0.3336        2.5638        0.0000       30.4669       30.4669      27.903105       0.04974
  41    0.4307        2.5638        0.0000       30.4663       30.4663      27.902524       0.05052
  40    0.5894        2.5638        0.0001       30.4653       30.4653      27.901557       0.05146
  39     1.339        2.5637        0.0001       30.4604       30.4606      27.896873       0.05273
  38     1.782        2.5636        0.0002       30.4576       30.4578      27.894123       0.05235
  37     2.292        2.5636        0.0002       30.4543       30.4546      27.890965       0.05231
  36     2.964        2.5635        0.0003       30.4501       30.4504      27.886857       0.05156
  35     3.853        2.5634        0.0004       30.4445       30.4449      27.881500       0.05084
  34     5.035        2.5633        0.0005       30.4373       30.4378      27.874501       0.05000
  33     6.613        2.5632        0.0007       30.4278       30.4285      27.865353       0.04890
  32     8.786        2.5629        0.0009       30.4154       30.4163      27.853400       0.04642
  31     11.80        2.5626        0.0013       30.3984       30.3996      27.837015       0.04587
  30     15.07        2.5623        0.0016       30.3810       30.3826      27.820302       0.04315
  29     18.79        2.5619        0.0020       30.3623       30.3643      27.802401       0.04059
  28     23.16        2.5615        0.0025       30.3417       30.3442      27.782718       0.03806
  27     28.12        2.5610        0.0030       30.3196       30.3226      27.761618       0.03587
  26     33.73        2.5604        0.0036       30.2965       30.3001      27.739700       0.03295
  25     40.54        2.5598        0.0044       30.2708       30.2751      27.715363       0.03019
  24     48.69        2.5590        0.0053       30.2423       30.2475      27.688587       0.02771
  23     57.69        2.5581        0.0062       30.2139       30.2201      27.662022       0.02490
  22     68.43        2.5570        0.0074       30.1834       30.1907      27.633747       0.02223
  21     81.20        2.5557        0.0087       30.1500       30.1587      27.603019       0.02030
  20     96.49        2.5542        0.0104       30.1126       30.1230      27.568803       0.01889
  19     114.6        2.5524        0.0123       30.0695       30.0818      27.529419       0.01839
  18     136.5        2.5503        0.0146       30.0139       30.0285      27.478268       0.01967
  17     162.9        2.5477        0.0174       29.9225       29.9398      27.392096       0.02754
  16     196.4        2.5445        0.0209       29.7333       29.7542      27.209720       0.04591
  15     218.7        2.5424        0.0231       29.5259       29.5490      27.006603       0.07712
  14     243.0        2.5401        0.0254       29.1375       29.1629      26.622798       0.13312
  13     269.0        2.5378        0.0277       28.3800       28.4077      25.869863       0.24425
  12     297.5        2.5355        0.0297       27.3895       27.4193      24.883768       0.29247
  11     328.5        2.5334        0.0317       26.2257       26.2574      23.724063       0.31532
  10     361.9        2.5315        0.0335       24.8453       24.8788      22.347378       0.34831
   9     398.1        2.5300        0.0350       23.3471       23.3821      20.852108       0.34836
   8     437.6        2.5292        0.0363       21.7966       21.8329      19.303710       0.33106
   7     480.5        2.5297        0.0373       20.1977       20.2350      17.705259       0.31393
   6     533.0        2.5326        0.0383       18.4969       18.5352      16.002579       0.27391
   5     589.8        2.5390        0.0392       16.9754       17.0146      14.475581       0.22666
   4     651.6        2.5508        0.0401       15.6022       15.6423      13.091447       0.18928
   3     718.7        2.5694        0.0412       14.4232       14.4644      11.894994       0.15036
   2     792.3        2.5958        0.0425       13.4386       13.4812      10.885331       0.11580
   1     891.5        2.6456        0.0444       12.3736       12.4180       9.772372       0.09471
   0    1013.0        2.7469        0.0464       11.2911       11.3375       8.590627       0.08205



 Wavenumbers:  7700. -  8050. cm-1, ATM      1
 LEVEL PRESSURE   UPWARD FLUX   DIFDOWN FLUX  DIRDOWN FLUX  DOWNWARD FLUX   NET FLUX    HEATING RATE
          mb          W/m2          W/m2          W/m2        W/m2          W/m2       degree/day
  51    .06700        2.3145        0.0000        7.2006        7.2006       4.886132       0.00000
  50    .07753        2.3145        0.0000        7.2006        7.2006       4.886113       0.01539
  49    .09103        2.3145        0.0000        7.2005        7.2005       4.886089       0.01509
  48    0.1069        2.3145        0.0000        7.2005        7.2005       4.886061       0.01477
  47    0.1255        2.3145        0.0000        7.2005        7.2005       4.886029       0.01445
  46    0.1487        2.3145        0.0000        7.2004        7.2005       4.885989       0.01466
  45    0.1794        2.3145        0.0000        7.2004        7.2004       4.885934       0.01509
  44    0.2165        2.3145        0.0000        7.2003        7.2003       4.885869       0.01480
  43    0.2613        2.3145        0.0000        7.2003        7.2003       4.885792       0.01452
  42    0.3336        2.3145        0.0000        7.2001        7.2001       4.885664       0.01486
  41    0.4307        2.3145        0.0000        7.2000        7.2000       4.885495       0.01470
  40    0.5894        2.3145        0.0000        7.1997        7.1997       4.885219       0.01468
  39     1.339        2.3146        0.0001        7.1984        7.1985       4.883914       0.01470
  38     1.782        2.3146        0.0001        7.1977        7.1978       4.883147       0.01460
  37     2.292        2.3147        0.0001        7.1968        7.1969       4.882260       0.01469
  36     2.964        2.3147        0.0001        7.1957        7.1958       4.881095       0.01462
  35     3.853        2.3148        0.0002        7.1942        7.1944       4.879558       0.01459
  34     5.035        2.3149        0.0002        7.1922        7.1925       4.877517       0.01458
  33     6.613        2.3151        0.0003        7.1896        7.1899       4.874794       0.01456
  32     8.786        2.3153        0.0004        7.1860        7.1864       4.871129       0.01423
  31     11.80        2.3156        0.0005        7.1810        7.1815       4.865897       0.01465
  30     15.07        2.3159        0.0007        7.1755        7.1762       4.860296       0.01446
  29     18.79        2.3163        0.0009        7.1694        7.1703       4.853988       0.01430
  28     23.16        2.3168        0.0011        7.1623        7.1634       4.846648       0.01419
  27     28.12        2.3173        0.0013        7.1542        7.1555       4.838290       0.01421
  26     33.73        2.3178        0.0016        7.1452        7.1468       4.828983       0.01399
  25     40.54        2.3185        0.0019        7.1344        7.1363       4.817806       0.01387
  24     48.69        2.3193        0.0022        7.1215        7.1238       4.804427       0.01384
  23     57.69        2.3202        0.0026        7.1074        7.1101       4.789852       0.01366
  22     68.43        2.3213        0.0031        7.0909        7.0940       4.772658       0.01352
  21     81.20        2.3227        0.0037        7.0713        7.0751       4.752403       0.01338
  20     96.49        2.3242        0.0044        7.0484        7.0528       4.728585       0.01315
  19     114.6        2.3261        0.0052        7.0217        7.0269       4.700741       0.01300
  18     136.5        2.3284        0.0062        6.9906        6.9968       4.668323       0.01247
  17     162.9        2.3312        0.0073        6.9544        6.9617       4.630499       0.01209
  16     196.4        2.3349        0.0088        6.9087        6.9175       4.582645       0.01205
  15     218.7        2.3373        0.0098        6.8794        6.8892       4.551840       0.01170
  14     243.0        2.3401        0.0108        6.8481        6.8589       4.518858       0.01144
  13     269.0        2.3431        0.0119        6.8147        6.8266       4.483575       0.01145
  12     297.5        2.3464        0.0132        6.7791        6.7922       4.445797       0.01120
  11     328.5        2.3502        0.0145        6.7409        6.7554       4.405222       0.01103
  10     361.9        2.3544        0.0159        6.7002        6.7160       4.361603       0.01104
   9     398.1        2.3592        0.0174        6.6563        6.6737       4.314422       0.01099
   8     437.6        2.3647        0.0190        6.6089        6.6278       4.263134       0.01097
   7     480.5        2.3711        0.0207        6.5570        6.5777       4.206620       0.01110
   6     533.0        2.3797        0.0228        6.4915        6.5143       4.134604       0.01159
   5     589.8        2.3900        0.0251        6.4182        6.4433       4.053281       0.01207
   4     651.6        2.4025        0.0274        6.3359        6.3633       3.960811       0.01265
   3     718.7        2.4175        0.0300        6.2441        6.2741       3.856614       0.01309
   2     792.3        2.4351        0.0326        6.1437        6.1764       3.741229       0.01323
   1     891.5        2.4617        0.0362        6.0042        6.0403       3.578590       0.01384
   0    1013.0        2.4996        0.0402        5.8249        5.8651       3.365522       0.01479



 Wavenumbers:  8050. - 12850. cm-1, ATM      1
 LEVEL PRESSURE   UPWARD FLUX   DIFDOWN FLUX  DIRDOWN FLUX  DOWNWARD FLUX   NET FLUX    HEATING RATE
          mb          W/m2          W/m2          W/m2        W/m2          W/m2       degree/day
  51    .06700       49.5547        0.0000      100.8135      100.8135      51.258819       0.00000
  50    .07753       49.5547        0.0000      100.8135      100.8135      51.258819       0.00000
  49    .09103       49.5547        0.0001      100.8134      100.8135      51.258819       0.00000
  48    0.1069       49.5546        0.0001      100.8134      100.8135      51.258819       0.00000
  47    0.1255       49.5546        0.0001      100.8133      100.8134      51.258819       0.00000
  46    0.1487       49.5546        0.0002      100.8132      100.8134      51.258819      -0.00000
  45    0.1794       49.5545        0.0003      100.8131      100.8133      51.258819       0.00000
  44    0.2165       49.5545        0.0004      100.8129      100.8133      51.258819       0.00000
  43    0.2613       49.5544        0.0005      100.8127      100.8132      51.258819       0.00000
  42    0.3336       49.5543        0.0007      100.8125      100.8131      51.258819      -0.00000
  41    0.4307       49.5541        0.0009      100.8121      100.8130      51.258819       0.00000
  40    0.5894       49.5539        0.0013      100.8115      100.8127      51.258819      -0.00000
  39     1.339       49.5528        0.0031      100.8085      100.8116      51.258819       0.00000
  38     1.782       49.5521        0.0042      100.8068      100.8109      51.258819      -0.00000
  37     2.292       49.5513        0.0054      100.8047      100.8102      51.258819       0.00000
  36     2.964       49.5503        0.0070      100.8021      100.8091      51.258819      -0.00000
  35     3.853       49.5490        0.0092      100.7986      100.8078      51.258819       0.00000
  34     5.035       49.5472        0.0120      100.7940      100.8060      51.258819      -0.00000
  33     6.613       49.5448        0.0159      100.7878      100.8036      51.258819       0.00000
  32     8.786       49.5416        0.0210      100.7794      100.8004      51.258819       0.00000
  31     11.80       49.5370        0.0284      100.7674      100.7958      51.258819      -0.00000
  30     15.07       49.5321        0.0363      100.7546      100.7909      51.258819       0.00000
  29     18.79       49.5265        0.0453      100.7400      100.7853      51.258819       0.00000
  28     23.16       49.5200        0.0558      100.7230      100.7788      51.258819      -0.00000
  27     28.12       49.5125        0.0678      100.7035      100.7713      51.258819      -0.00000
  26     33.73       49.5041        0.0813      100.6817      100.7629      51.258819       0.00000
  25     40.54       49.4940        0.0975      100.6552      100.7528      51.258819       0.00000
  24     48.69       49.4817        0.1172      100.6234      100.7406      51.258819      -0.00000
  23     57.69       49.4683        0.1388      100.5883      100.7271      51.258819       0.00000
  22     68.43       49.4522        0.1646      100.5464      100.7110      51.258819      -0.00000
  21     81.20       49.4331        0.1953      100.4965      100.6919      51.258819      -0.00000
  20     96.49       49.4102        0.2320      100.4370      100.6690      51.258819       0.00000
  19     114.6       49.3831        0.2757      100.3585      100.6342      51.251071       0.00362
  18     136.5       49.3509        0.3275      100.2634      100.5909      51.239926       0.00429
  17     162.9       49.3126        0.3893      100.1407      100.5300      51.217336       0.00722
  16     196.4       49.2630        0.4696       99.9505      100.4201      51.157092       0.01516
  15     218.7       49.2304        0.5223       99.7889      100.3113      51.080908       0.02892
  14     243.0       49.1951        0.5796       99.5472      100.1268      50.931693       0.05175
  13     269.0       49.1577        0.6414       99.1452       99.7866      50.628887       0.09823
  12     297.5       49.1188        0.7077       98.5975       99.3051      50.186303       0.13127
  11     328.5       49.0795        0.7787       97.8659       98.6445      49.565074       0.16891
  10     361.9       49.0414        0.8542       96.8848       97.7390      48.697603       0.21948
   9     398.1       49.0068        0.9340       95.6330       96.5670      47.560250       0.26498
   8     437.6       48.9798        1.0177       94.0655       95.0832      46.103436       0.31148
   7     480.5       48.9686        1.1044       92.0807       93.1852      44.216600       0.37057
   6     533.0       48.9846        1.2070       89.4449       90.6519      41.667267       0.41011
   5     589.8       49.0463        1.3133       86.5544       87.8677      38.821355       0.42243
   4     651.6       49.1785        1.4226       83.4174       84.8400      35.661586       0.43211
   3     718.7       49.3964        1.5360       80.2037       81.7396      32.343216       0.41703
   2     792.3       49.7140        1.6538       77.0811       78.7349      29.020867       0.38104
   1     891.5       50.3222        1.8066       73.2645       75.0711      24.748925       0.36352
   0    1013.0       51.5240        1.9777       68.9425       70.9202      19.396252       0.37166



 Wavenumbers: 12850. - 16000. cm-1, ATM      1
 LEVEL PRESSURE   UPWARD FLUX   DIFDOWN FLUX  DIRDOWN FLUX  DOWNWARD FLUX   NET FLUX    HEATING RATE
          mb          W/m2          W/m2          W/m2        W/m2          W/m2       degree/day
  51    .06700       47.8489        0.0000       63.1686       63.1686      15.319698       0.00000
  50    .07753       47.8489        0.0001       63.1677       63.1678      15.318916       0.62699
  49    .09103       47.8488        0.0001       63.1666       63.1668      15.317940       0.60969
  48    0.1069       47.8488        0.0002       63.1654       63.1656      15.316829       0.59164
  47    0.1255       47.8488        0.0003       63.1640       63.1643      15.315564       0.57357
  46    0.1487       47.8488        0.0005       63.1623       63.1627      15.313984       0.57573
  45    0.1794       47.8487        0.0006       63.1600       63.1606      15.311864       0.58206
  44    0.2165       47.8487        0.0008       63.1573       63.1581      15.309409       0.55849
  43    0.2613       47.8487        0.0011       63.1542       63.1553      15.306573       0.53461
  42    0.3336       47.8487        0.0015       63.1493       63.1508      15.302045       0.52790
  41    0.4307       47.8488        0.0020       63.1431       63.1452      15.296368       0.49359
  40    0.5894       47.8490        0.0029       63.1338       63.1367      15.287736       0.45902
  39     1.339       47.8516        0.0070       63.0956       63.1026      15.250984       0.41377
  38     1.782       47.8544        0.0095       63.0740       63.0835      15.229052       0.41754
  37     2.292       47.8589        0.0123       63.0477       63.0599      15.201065       0.46353
  36     2.964       47.8665        0.0160       63.0095       63.0255      15.158986       0.52822
  35     3.853       47.8791        0.0208       62.9533       62.9741      15.094965       0.60758
  34     5.035       47.8984        0.0273       62.8725       62.8998      15.001405       0.66835
  33     6.613       47.9254        0.0359       62.7621       62.7980      14.872568       0.68876
  32     8.786       47.9605        0.0475       62.6182       62.6657      14.705282       0.64968
  31     11.80       48.0057        0.0641       62.4284       62.4924      14.486730       0.61188
  30     15.07       48.0485        0.0818       62.2426       62.3244      14.275928       0.54425
  29     18.79       48.0916        0.1018       62.0493       62.1511      14.059458       0.49080
  28     23.16       48.1360        0.1251       61.8424       61.9675      13.831484       0.44083
  27     28.12       48.1799        0.1517       61.6278       61.7795      13.599616       0.39416
  26     33.73       48.2190        0.1814       61.4177       61.5991      13.380112       0.33003
  25     40.54       48.2546        0.2172       61.1983       61.4156      13.160933       0.27192
  24     48.69       48.2864        0.2604       60.9680       61.2284      12.942019       0.22654
  23     57.69       48.3104        0.3078       60.7478       61.0556      12.745190       0.18450
  22     68.43       48.3272        0.3641       60.5202       60.8843      12.557139       0.14783
  21     81.20       48.3311        0.4313       60.2938       60.7251      12.394034       0.10778
  20     96.49       48.3208        0.5113       60.0643       60.5755      12.254769       0.07686
  19     114.6       48.3102        0.6070       59.8078       60.4148      12.104595       0.07012
  18     136.5       48.2906        0.7202       59.5157       60.2360      11.945321       0.06124
  17     162.9       48.2610        0.8548       59.1770       60.0319      11.770850       0.05577
  16     196.4       48.2091        1.0290       58.7604       59.7894      11.580353       0.04795
  15     218.7       48.1701        1.1431       58.4948       59.6379      11.467831       0.04272
  14     243.0       48.1256        1.2670       58.2089       59.4759      11.350266       0.04078
  13     269.0       48.0755        1.4010       57.9006       59.3015      11.225985       0.04032
  12     297.5       48.0201        1.5455       57.5668       59.1123      11.092166       0.03969
  11     328.5       47.9607        1.7014       57.2005       58.9019      10.941141       0.04106
  10     361.9       47.8983        1.8688       56.7963       58.6651      10.766880       0.04409
   9     398.1       47.8338        2.0485       56.3475       58.3960      10.562196       0.04769
   8     437.6       47.7699        2.2408       55.8422       58.0830      10.313151       0.05325
   7     480.5       47.7108        2.4459       55.2625       57.7084       9.997598       0.06197
   6     533.0       47.6542        2.6966       54.4972       57.1937       9.539544       0.07369
   5     589.8       47.6131        2.9636       53.6307       56.5943       8.981239       0.08287
   4     651.6       47.5962        3.2462       52.6606       55.9068       8.310618       0.09171
   3     718.7       47.6080        3.5448       51.6100       55.1548       7.546846       0.09599
   2     792.3       47.6543        3.8592       50.5019       54.3611       6.706792       0.09634
   1     891.5       47.7851        4.2745       49.0197       53.2942       5.509173       0.10191
   0    1013.0       48.0812        4.7577       47.2289       51.9866       3.905426       0.11136



 Wavenumbers: 16000. - 22650. cm-1, ATM      1
 LEVEL PRESSURE   UPWARD FLUX   DIFDOWN FLUX  DIRDOWN FLUX  DOWNWARD FLUX   NET FLUX    HEATING RATE
          mb          W/m2          W/m2          W/m2        W/m2          W/m2       degree/day
  51    .06700       87.1191        0.0000      100.7153      100.7153      13.596198       0.00000
  50    .07753       87.1190        0.0003      100.7147      100.7151      13.596075       0.09806
  49    .09103       87.1189        0.0008      100.7140      100.7148      13.595897       0.11122
  48    0.1069       87.1187        0.0013      100.7131      100.7144      13.595659       0.12683
  47    0.1255       87.1186        0.0018      100.7121      100.7139      13.595340       0.14456
  46    0.1487       87.1184        0.0025      100.7108      100.7133      13.594870       0.17130
  45    0.1794       87.1182        0.0035      100.7089      100.7124      13.594135       0.20170
  44    0.2165       87.1181        0.0046      100.7066      100.7112      13.593139       0.22668
  43    0.2613       87.1179        0.0060      100.7037      100.7097      13.591787       0.25484
  42    0.3336       87.1177        0.0082      100.6987      100.7069      13.589217       0.29969
  41    0.4307       87.1177        0.0112      100.6918      100.7030      13.585342       0.33687
  40    0.5894       87.1179        0.0161      100.6797      100.6958      13.577953       0.39293
  39     1.339       87.1253        0.0391      100.6095      100.6486      13.523373       0.61448
  38     1.782       87.1342        0.0527      100.5585      100.6111      13.476890       0.88497
  37     2.292       87.1490        0.0683      100.4903      100.5586      13.409624       1.11410
  36     2.964       87.1749        0.0889      100.3868      100.4756      13.300698       1.36735
  35     3.853       87.2186        0.1160      100.2306      100.3466      13.127972       1.63920
  34     5.035       87.2859        0.1519      100.0045      100.1564      12.870529       1.83906
  33     6.613       87.3805        0.1999       99.6939       99.8937      12.513252       1.91000
  32     8.786       87.5031        0.2643       99.2881       99.5523      12.049211       1.80217
  31     11.80       87.6606        0.3562       98.7496       99.1058      11.445220       1.69098
  30     15.07       87.8086        0.4545       98.2198       98.6744      10.865774       1.49601
  29     18.79       87.9569        0.5653       97.6651       98.2304      10.273515       1.34283
  28     23.16       88.1083        0.6941       97.0671       97.7613       9.652989       1.19990
  27     28.12       88.2560        0.8410       96.4406       97.2815       9.025566       1.06658
  26     33.73       88.3847        1.0048       95.8179       96.8227       8.438005       0.88341
  25     40.54       88.4979        1.2021       95.1548       96.3569       7.859042       0.71827
  24     48.69       88.5934        1.4391       94.4420       95.8811       7.287662       0.59129
  23     57.69       88.6588        1.6985       93.7416       95.4401       6.781239       0.47470
  22     68.43       88.6942        2.0062       92.9954       95.0015       6.307311       0.37257
  21     81.20       88.6781        2.3714       92.2231       94.5946       5.916472       0.25826
  20     96.49       88.6051        2.8048       91.4110       94.2158       5.610689       0.16877
  19     114.6       88.4920        3.3161       90.5070       93.8231       5.331125       0.13054
  18     136.5       88.3405        3.9173       89.4803       93.3975       5.057022       0.10540
  17     162.9       88.1451        4.6264       88.3022       92.9286       4.783468       0.08744
  16     196.4       87.8582        5.5360       86.8606       92.3966       4.538450       0.06167
  15     218.7       87.6582        6.1272       85.9492       92.0764       4.418191       0.04566
  14     243.0       87.4365        6.7644       84.9789       91.7433       4.306817       0.03863
  13     269.0       87.1919        7.4485       83.9493       91.3978       4.205917       0.03273
  12     297.5       86.9238        8.1805       82.8589       91.0395       4.115638       0.02678
  11     328.5       86.6344        8.9632       81.6982       90.6614       4.027013       0.02410
  10     361.9       86.3236        9.7962       80.4669       90.2631       3.939514       0.02214
   9     398.1       85.9909       10.6817       79.1611       89.8428       3.851893       0.02041
   8     437.6       85.6373       11.6202       77.7777       89.3980       3.760710       0.01950
   7     480.5       85.2631       12.6122       76.3136       88.9259       3.662745       0.01924
   6     533.0       84.8108       13.8137       74.5359       88.3496       3.538812       0.01994
   5     589.8       84.3349       15.0849       72.6469       87.7319       3.396980       0.02105
   4     651.6       83.8385       16.4242       70.6456       87.0697       3.231276       0.02266
   3     718.7       83.3225       17.8295       68.5367       86.3662       3.043747       0.02357
   2     792.3       82.7903       19.2959       66.3287       85.6246       2.834301       0.02402
   1     891.5       82.1090       21.2128       63.4246       84.6374       2.528432       0.02603
   0    1013.0       81.3514       23.4207       60.0483       83.4690       2.117594       0.02853



 Wavenumbers: 22650. - 29000. cm-1, ATM      1
 LEVEL PRESSURE   UPWARD FLUX   DIFDOWN FLUX  DIRDOWN FLUX  DOWNWARD FLUX   NET FLUX    HEATING RATE
          mb          W/m2          W/m2          W/m2        W/m2          W/m2       degree/day
  51    .06700       37.5078        0.0000       38.0063       38.0063       0.498481       0.00000
  50    .07753       37.5077        0.0004       38.0057       38.0061       0.498481       0.00000
  49    .09103       37.5075        0.0009       38.0050       38.0059       0.498481       0.00000
  48    0.1069       37.5072        0.0015       38.0042       38.0057       0.498481      -0.00000
  47    0.1255       37.5070        0.0021       38.0033       38.0055       0.498481       0.00000
  46    0.1487       37.5066        0.0029       38.0022       38.0051       0.498481      -0.00000
  45    0.1794       37.5062        0.0041       38.0006       38.0047       0.498481       0.00000
  44    0.2165       37.5057        0.0054       37.9987       38.0041       0.498481       0.00000
  43    0.2613       37.5050        0.0070       37.9965       38.0035       0.498481      -0.00000
  42    0.3336       37.5040        0.0096       37.9928       38.0025       0.498481       0.00000
  41    0.4307       37.5026        0.0131       37.9880       38.0011       0.498481      -0.00000
  40    0.5894       37.5004        0.0188       37.9800       37.9988       0.498481       0.00000
  39     1.339       37.4897        0.0457       37.9425       37.9882       0.498481       0.00000
  38     1.782       37.4835        0.0615       37.9204       37.9819       0.498481       0.00000
  37     2.292       37.4762        0.0798       37.8949       37.9747       0.498481       0.00000
  36     2.964       37.4667        0.1038       37.8614       37.9652       0.498481       0.00000
  35     3.853       37.4542        0.1354       37.8172       37.9527       0.498481       0.00000
  34     5.035       37.4376        0.1775       37.7586       37.9360       0.498481       0.00000
  33     6.613       37.4154        0.2335       37.6803       37.9138       0.498481      -0.00000
  32     8.786       37.3855        0.3089       37.5750       37.8840       0.498481       0.00000
  31     11.80       37.3429        0.4165       37.4249       37.8414       0.498481      -0.00000
  30     15.07       37.2973        0.5317       37.2642       37.7958       0.498481       0.00000
  29     18.79       37.2460        0.6612       37.0833       37.7445       0.498481      -0.00000
  28     23.16       37.1864        0.8119       36.8730       37.6849       0.498481       0.00000
  27     28.12       37.1185        0.9832       36.6338       37.6170       0.498481       0.00000
  26     33.73       37.0430        1.1738       36.3677       37.5415       0.498481      -0.00000
  25     40.54       36.9525        1.4024       36.0486       37.4510       0.498481       0.00000
  24     48.69       36.8443        1.6755       35.6672       37.3427       0.498481       0.00000
  23     57.69       36.7266        1.9724       35.2527       37.2251       0.498481      -0.00000
  22     68.43       36.5882        2.3217       34.7649       37.0867       0.498481       0.00000
  21     81.20       36.4256        2.7318       34.1922       36.9241       0.498481       0.00000
  20     96.49       36.2352        3.2119       33.5217       36.7337       0.498481      -0.00000
  19     114.6       36.0138        3.7699       32.7424       36.5123       0.498481      -0.00000
  18     136.5       35.7579        4.4148       31.8416       36.2564       0.498481       0.00000
  17     162.9       35.4620        5.1597       30.8008       35.9605       0.498481       0.00000
  16     196.4       35.0923        6.0901       29.5007       35.5908       0.498481      -0.00000
  15     218.7       34.8578        6.6796       28.6767       35.3563       0.498481       0.00000
  14     243.0       34.6102        7.3019       27.8068       35.1087       0.498481      -0.00000
  13     269.0       34.3500        7.9552       26.8933       34.8485       0.498481       0.00000
  12     297.5       34.0782        8.6373       25.9393       34.5766       0.498481      -0.00000
  11     328.5       33.7947        9.3481       24.9451       34.2932       0.498481       0.00000
  10     361.9       33.5010       10.0835       23.9160       33.9995       0.498481      -0.00000
   9     398.1       33.1978       10.8421       22.8541       33.6963       0.498481       0.00000
   8     437.6       32.8863       11.6204       21.7645       33.3848       0.498481      -0.00000
   7     480.5       32.5681       12.4144       20.6521       33.0666       0.498481      -0.00000
   6     533.0       32.1971       13.3386       19.3569       32.6956       0.498481       0.00000
   5     589.8       31.8212       14.2729       18.0467       32.3197       0.498481      -0.00000
   4     651.6       31.4432       15.2101       16.7316       31.9417       0.498481      -0.00000
   3     718.7       31.0659       16.1430       15.4214       31.5644       0.498481       0.00000
   2     792.3       30.6924       17.0633       14.1276       31.1909       0.498481       0.00000
   1     891.5       30.2343       18.1868       12.5459       30.7328       0.498481      -0.00000
   0    1013.0       29.7471       19.3739       10.8717       30.2456       0.498481       0.00000



 Wavenumbers: 29000. - 38000. cm-1, ATM      1
 LEVEL PRESSURE   UPWARD FLUX   DIFDOWN FLUX  DIRDOWN FLUX  DOWNWARD FLUX   NET FLUX    HEATING RATE
          mb          W/m2          W/m2          W/m2        W/m2          W/m2       degree/day
  51    .06700        5.3424        0.0000       13.4026       13.4026       8.060170       0.00000
  50    .07753        5.3422        0.0003       13.3983       13.3986       8.056371       3.04481
  49    .09103        5.3419        0.0007       13.3921       13.3928       8.050851       3.45015
  48    0.1069        5.3416        0.0011       13.3840       13.3851       8.043473       3.92732
  47    0.1255        5.3413        0.0016       13.3733       13.3749       8.033627       4.46382
  46    0.1487        5.3409        0.0022       13.3579       13.3601       8.019182       5.26516
  45    0.1794        5.3403        0.0030       13.3340       13.3371       7.996779       6.15020
  44    0.2165        5.3397        0.0040       13.3024       13.3064       7.966756       6.82983
  43    0.2613        5.3389        0.0052       13.2604       13.2656       7.926695       7.55133
  42    0.3336        5.3377        0.0071       13.1833       13.1904       7.852676       8.62989
  41    0.4307        5.3362        0.0096       13.0729       13.0825       7.746284       9.25048
  40    0.5894        5.3339        0.0135       12.8796       12.8931       7.559204       9.94872
  39     1.339        5.3259        0.0300       11.9165       11.9465       6.620579      10.56721
  38     1.782        5.3230        0.0384       11.4399       11.4783       6.155357       8.85708
  37     2.292        5.3209        0.0474       10.9796       11.0270       5.706082       7.44117
  36     2.964        5.3202        0.0585       10.4786       10.5371       5.216904       6.14065
  35     3.853        5.3219        0.0722        9.9429       10.0151       4.693189       4.97015
  34     5.035        5.3269        0.0894        9.4007        9.4900       4.163189       3.78610
  33     6.613        5.3353        0.1111        8.8752        8.9863       3.651045       2.73792
  32     8.786        5.3467        0.1392        8.3786        8.5178       3.171033       1.86419
  31     11.80        5.3610        0.1777        7.8897        8.0674       2.706390       1.30085
  30     15.07        5.3738        0.2176        7.5108        7.7284       2.354566       0.90834
  29     18.79        5.3861        0.2610        7.1776        7.4386       2.052460       0.68497
  28     23.16        5.3981        0.3099        6.8664        7.1764       1.778252       0.53023
  27     28.12        5.4089        0.3641        6.5780        6.9421       1.533258       0.41647
  26     33.73        5.4158        0.4232        6.3195        6.7427       1.326911       0.31025
  25     40.54        5.4179        0.4929        6.0663        6.5592       1.141331       0.23023
  24     48.69        5.4148        0.5747        5.8128        6.3876       0.972812       0.17439
  23     57.69        5.4059        0.6621        5.5777        6.2398       0.833919       0.13019
  22     68.43        5.3895        0.7634        5.3379        6.1013       0.711802       0.09600
  21     81.20        5.3610        0.8810        5.0965        5.9775       0.616517       0.06296
  20     96.49        5.3193        1.0170        4.8476        5.8647       0.545392       0.03926
  19     114.6        5.2680        1.1714        4.5799        5.7513       0.483324       0.02898
  18     136.5        5.2084        1.3443        4.2891        5.6334       0.424981       0.02243
  17     162.9        5.1405        1.5365        3.9732        5.5097       0.369178       0.01784
  16     196.4        5.0542        1.7675        3.6080        5.3755       0.321285       0.01206
  15     218.7        4.9999        1.9085        3.3898        5.2983       0.298401       0.00869
  14     243.0        4.9437        2.0527        3.1686        5.2213       0.277580       0.00722
  13     269.0        4.8859        2.1990        2.9461        5.1451       0.259157       0.00598
  12     297.5        4.8270        2.3462        2.7239        5.0702       0.243162       0.00474
  11     328.5        4.7678        2.4930        2.5029        4.9959       0.228081       0.00410
  10     361.9        4.7089        2.6383        2.2846        4.9229       0.213940       0.00358
   9     398.1        4.6508        2.7807        2.0708        4.8515       0.200734       0.00308
   8     437.6        4.5938        2.9194        1.8626        4.7820       0.188185       0.00268
   7     480.5        4.5386        3.0529        1.6621        4.7150       0.176431       0.00231
   6     533.0        4.4780        3.1981        1.4437        4.6418       0.163790       0.00203
   5     589.8        4.4210        3.3337        1.2390        4.5727       0.151716       0.00179
   4     651.6        4.3682        3.4582        1.0500        4.5082       0.140043       0.00160
   3     718.7        4.3199        3.5709        0.8778        4.4487       0.128733       0.00142
   2     792.3        4.2767        3.6707        0.7237        4.3945       0.117762       0.00126
   1     891.5        4.2297        3.7778        0.5563        4.3341       0.104334       0.00114
   0    1013.0        4.1873        3.8731        0.4039        4.2770       0.089622       0.00102



 Wavenumbers: 38000. - 50000. cm-1, ATM      1
 LEVEL PRESSURE   UPWARD FLUX   DIFDOWN FLUX  DIRDOWN FLUX  DOWNWARD FLUX   NET FLUX    HEATING RATE
          mb          W/m2          W/m2          W/m2        W/m2          W/m2       degree/day
  51    .06700        0.0051        0.0000        0.8267        0.8267       0.821528       0.00000
  50    .07753        0.0051        0.0001        0.8242        0.8243       0.819196       1.86936
  49    .09103        0.0050        0.0002        0.8207        0.8209       0.815872       2.07705
  48    0.1069        0.0049        0.0002        0.8162        0.8164       0.811514       2.31984
  47    0.1255        0.0048        0.0004        0.8103        0.8106       0.805801       2.59006
  46    0.1487        0.0047        0.0005        0.8018        0.8023       0.797567       3.00143
  45    0.1794        0.0045        0.0007        0.7889        0.7896       0.785013       3.44648
  44    0.2165        0.0044        0.0009        0.7720        0.7729       0.768507       3.75474
  43    0.2613        0.0042        0.0011        0.7500        0.7511       0.746955       4.06246
  42    0.3336        0.0039        0.0015        0.7106        0.7121       0.708267       4.51071
  41    0.4307        0.0035        0.0019        0.6566        0.6584       0.654972       4.63387
  40    0.5894        0.0029        0.0024        0.5680        0.5704       0.567464       4.65357
  39     1.339        0.0015        0.0030        0.2422        0.2452       0.243720       3.64476
  38     1.782        0.0010        0.0026        0.1493        0.1519       0.150889       1.76735
  37     2.292        0.0007        0.0022        0.0924        0.0946       0.093932       0.94336
  36     2.964        0.0005        0.0018        0.0539        0.0557       0.055224       0.48589
  35     3.853        0.0003        0.0013        0.0295        0.0308       0.030502       0.23462
  34     5.035        0.0002        0.0010        0.0154        0.0164       0.016181       0.10230
  33     6.613        0.0001        0.0007        0.0073        0.0080       0.007912       0.04420
  32     8.786        0.0000        0.0004        0.0030        0.0034       0.003390       0.01756
  31     11.80        0.0000        0.0003        0.0010        0.0012       0.001199       0.00613
  30     15.07        0.0000        0.0001        0.0003        0.0005       0.000463       0.00190
  29     18.79        0.0000        0.0001        0.0001        0.0002       0.000182       0.00064
  28     23.16        0.0000        0.0000        0.0000        0.0001       0.000071       0.00022
  27     28.12        0.0000        0.0000        0.0000        0.0000       0.000028       0.00007
  26     33.73        0.0000        0.0000        0.0000        0.0000       0.000011       0.00002
  25     40.54        0.0000        0.0000        0.0000        0.0000       0.000005       0.00001
  24     48.69        0.0000        0.0000        0.0000        0.0000       0.000002       0.00000
  23     57.69        0.0000        0.0000        0.0000        0.0000       0.000001       0.00000
  22     68.43        0.0000        0.0000        0.0000        0.0000       0.000000       0.00000
  21     81.20        0.0000        0.0000        0.0000        0.0000       0.000000       0.00000
  20     96.49        0.0000        0.0000        0.0000        0.0000       0.000000       0.00000
  19     114.6        0.0000        0.0000        0.0000        0.0000       0.000000       0.00000
  18     136.5        0.0000        0.0000        0.0000        0.0000       0.000000       0.00000
  17     162.9        0.0000        0.0000        0.0000        0.0000       0.000000       0.00000
  16     196.4        0.0000        0.0000        0.0000        0.0000       0.000000       0.00000
  15     218.7        0.0000        0.0000        0.0000        0.0000       0.000000       0.00000
  14     243.0        0.0000        0.0000        0.0000        0.0000       0.000000       0.00000
  13     269.0        0.0000        0.0000        0.0000        0.0000       0.000000       0.00000
  12     297.5        0.0000        0.0000        0.0000        0.0000       0.000000       0.00000
  11     328.5        0.0000        0.0000        0.0000        0.0000       0.000000       0.00000
  10     361.9        0.0000        0.0000        0.0000        0.0000       0.000000       0.00000
   9     398.1        0.0000        0.0000        0.0000        0.0000       0.000000       0.00000
   8     437.6        0.0000        0.0000        0.0000        0.0000       0.000000       0.00000
   7     480.5        0.0000        0.0000        0.0000        0.0000       0.000000       0.00000
   6     533.0        0.0000        0.0000        0.0000        0.0000       0.000000       0.00000
   5     589.8        0.0000        0.0000        0.0000        0.0000       0.000000       0.00000
   4     651.6        0.0000        0.0000        0.0000        0.0000       0.000000       0.00000
   3     718.7        0.0000        0.0000        0.0000        0.0000       0.000000       0.00000
   2     792.3        0.0000        0.0000        0.0000        0.0000       0.000000       0.00000
   1     891.5        0.0000        0.0000        0.0000        0.0000       0.000000       0.00000
   0    1013.0        0.0000        0.0000        0.0000        0.0000       0.000000       0.00000



 Wavenumbers:   820. -  2600. cm-1, ATM      1
 LEVEL PRESSURE   UPWARD FLUX   DIFDOWN FLUX  DIRDOWN FLUX  DOWNWARD FLUX   NET FLUX    HEATING RATE
          mb          W/m2          W/m2          W/m2        W/m2          W/m2       degree/day
  51    .06700        0.1286        0.0000        3.8670        3.8670       3.738415       0.00000
  50    .07753        0.1286        0.0000        3.8643        3.8643       3.735698       2.17769
  49    .09103        0.1286        0.0000        3.8635        3.8635       3.734888       0.50638
  48    0.1069        0.1286        0.0000        3.8626        3.8626       3.733997       0.47415
  47    0.1255        0.1286        0.0000        3.8616        3.8616       3.733036       0.43559
  46    0.1487        0.1286        0.0000        3.8605        3.8605       3.731927       0.40437
  45    0.1794        0.1286        0.0000        3.8592        3.8592       3.730592       0.36647
  44    0.2165        0.1286        0.0000        3.8578        3.8578       3.729214       0.31346
  43    0.2613        0.1286        0.0000        3.8564        3.8564       3.727754       0.27522
  42    0.3336        0.1286        0.0000        3.8541        3.8541       3.725523       0.26012
  41    0.4307        0.1286        0.0000        3.8512        3.8512       3.722640       0.25063
  40    0.5894        0.1286        0.0000        3.8465        3.8465       3.717914       0.25133
  39     1.339        0.1286        0.0000        3.8251        3.8251       3.696539       0.24064
  38     1.782        0.1286        0.0000        3.8133        3.8133       3.684726       0.22489
  37     2.292        0.1286        0.0000        3.8003        3.8003       3.671665       0.21632
  36     2.964        0.1286        0.0000        3.7841        3.7841       3.655537       0.20246
  35     3.853        0.1286        0.0000        3.7642        3.7642       3.635622       0.18899
  34     5.035        0.1286        0.0000        3.7395        3.7395       3.610932       0.17638
  33     6.613        0.1286        0.0000        3.7090        3.7090       3.580397       0.16324
  32     8.786        0.1286        0.0000        3.6726        3.6726       3.544004       0.14133
  31     11.80        0.1286        0.0000        3.6320        3.6320       3.503411       0.11365
  30     15.07        0.1286        0.0000        3.6016        3.6016       3.473028       0.07844
  29     18.79        0.1286        0.0000        3.5777        3.5777       3.449131       0.05418
  28     23.16        0.1286        0.0000        3.5564        3.5564       3.427779       0.04129
  27     28.12        0.1286        0.0000        3.5348        3.5348       3.406234       0.03662
  26     33.73        0.1286        0.0000        3.5118        3.5118       3.383203       0.03463
  25     40.54        0.1286        0.0000        3.4849        3.4849       3.356317       0.03335
  24     48.69        0.1286        0.0000        3.4537        3.4537       3.325067       0.03234
  23     57.69        0.1286        0.0000        3.4210        3.4210       3.292397       0.03062
  22     68.43        0.1286        0.0000        3.3844        3.3844       3.255813       0.02876
  21     81.20        0.1286        0.0000        3.3441        3.3441       3.215518       0.02663
  20     96.49        0.1286        0.0000        3.2998        3.2998       3.171157       0.02448
  19     114.6        0.1286        0.0000        3.2506        3.2506       3.122012       0.02295
  18     136.5        0.1286        0.0000        3.1936        3.1936       3.064966       0.02194
  17     162.9        0.1287        0.0000        3.1181        3.1181       2.989467       0.02413
  16     196.4        0.1287        0.0000        3.0090        3.0090       2.880286       0.02748
  15     218.7        0.1287        0.0000        2.9420        2.9420       2.813287       0.02544
  14     243.0        0.1288        0.0000        2.8605        2.8605       2.731731       0.02829
  13     269.0        0.1288        0.0000        2.7419        2.7420       2.613159       0.03846
  12     297.5        0.1289        0.0000        2.5729        2.5729       2.443967       0.05018
  11     328.5        0.1291        0.0000        2.3602        2.3602       2.231097       0.05788
  10     361.9        0.1294        0.0000        2.1524        2.1524       2.023049       0.05264
   9     398.1        0.1298        0.0000        1.9974        1.9974       1.867632       0.03621
   8     437.6        0.1304        0.0000        1.8835        1.8835       1.753135       0.02448
   7     480.5        0.1312        0.0000        1.7734        1.7734       1.642197       0.02179
   6     533.0        0.1327        0.0000        1.6397        1.6398       1.507072       0.02174
   5     589.8        0.1348        0.0000        1.5068        1.5069       1.372072       0.02004
   4     651.6        0.1379        0.0000        1.3807        1.3807       1.242826       0.01767
   3     718.7        0.1420        0.0000        1.2680        1.2680       1.126003       0.01468
   2     792.3        0.1471        0.0000        1.1659        1.1660       1.018841       0.01229
   1     891.5        0.1557        0.0000        1.0372        1.0373       0.881560       0.01168
   0    1013.0        0.1713        0.0000        0.8716        0.8717       0.700393       0.01258

  Modules and versions used in this calculation:

       rrtmg_sw.1col.f90:  $Revision$                    rrtmg_sw_init.f90:  $Revision$        
     rrtmgsw_cldprop.f90:  $Revision$                  rrtmgsw_cldprmc.f90:  NOT USED          
     rrtmg_sw_reftra.f90:  $Revision$                  rrtmg_sw_spcvrt.f90:  NOT USED          
     rrtmg_sw_spcvmc.f90:  NOT USED                    rrtmgsw_setcoef.f90:  NOT USED          
     rrtmg_sw_taumol.f90:  $Revision$                  rrtmg_sw_vrtqdr.f90:  NOT USED          
                rrtatm.f:  NOT USED                             util_xxx.f:  NOT USED          
                 extra.f:  NOT USED                       rrtmg_sw_k_g.f90:  $Revision$        

