

 Wavenumbers:   820. - 50000. cm-1, ATM      1
 LEVEL PRESSURE   UPWARD FLUX   DIFDOWN FLUX  DIRDOWN FLUX  DOWNWARD FLUX   NET FLUX    HEATING RATE
          mb          W/m2          W/m2          W/m2        W/m2          W/m2       degree/day
  51    .06700      244.9201        0.0000      397.8738      397.8738     152.953653       0.00000
  50    .07753      244.9196        0.0012      397.8577      397.8589     152.939360      11.45593
  49    .09103      244.9188        0.0027      397.8418      397.8445     152.925669       8.55722
  48    0.1069      244.9180        0.0044      397.8230      397.8274     152.909317       8.70387
  47    0.1255      244.9171        0.0064      397.7997      397.8060     152.888870       9.26978
  46    0.1487      244.9161        0.0088      397.7676      397.7765     152.860406      10.37549
  45    0.1794      244.9146        0.0122      397.7205      397.7327     152.818104      11.61302
  44    0.2165      244.9130        0.0162      397.6602      397.6764     152.763441      12.43472
  43    0.2613      244.9112        0.0209      397.5829      397.6038     152.692625      13.34851
  42    0.3336      244.9084        0.0286      397.4449      397.4735     152.565151      14.86232
  41    0.4307      244.9049        0.0388      397.2524      397.2912     152.386227      15.55699
  40    0.5894      244.9000        0.0551      396.9253      396.9804     152.080405      16.26320
  39     1.339      244.8886        0.1281      395.4254      395.5535     150.664891      15.93613
  38     1.782      244.8899        0.1691      394.7288      394.8979     150.007975      12.50662
  37     2.292      244.8985        0.2158      394.0572      394.2729     149.374434      10.49308
  36     2.964      244.9203        0.2763      393.3007      393.5770     148.656766       9.00890
  35     3.853      244.9636        0.3555      392.4318      392.7873     147.823734       7.90563
  34     5.035      245.0356        0.4598      391.4441      391.9038     146.868205       6.82590
  33     6.613      245.1398        0.5979      390.3268      390.9246     145.784838       5.79168
  32     8.786      245.2743        0.7826      389.0624      389.8450     144.570751       4.71507
  31     11.80      245.4419        1.0449      387.5500      388.5948     143.152935       3.96944
  30     15.07      245.5930        1.3242      386.1556      387.4798     141.886820       3.26886
  29     18.79      245.7378        1.6373      384.7502      386.3875     140.649663       2.80502
  28     23.16      245.8773        2.0002      383.2686      385.2688     139.391474       2.43293
  27     28.12      246.0021        2.4118      381.7329      384.1447     138.142619       2.12297
  26     33.73      246.0909        2.8693      380.1982      383.0675     136.976547       1.75322
  25     40.54      246.1393        3.4180      378.5384      381.9564     135.817118       1.43840
  24     48.69      246.1412        4.0739      376.7214      380.7954     134.654183       1.20346
  23     57.69      246.0891        4.7878      374.8959      379.6837     133.594604       0.99320
  22     68.43      245.9690        5.6297      372.8999      378.5296     132.560640       0.81283
  21     81.20      245.7456        6.6224      370.7496      377.3720     131.626348       0.61737
  20     96.49      245.4070        7.7907      368.4056      376.1963     130.789255       0.46202
  19     114.6      244.9828        9.1562      365.7513      374.9075     129.924638       0.40372
  18     136.5      244.4638       10.7431      362.7231      373.4662     129.002322       0.35465
  17     162.9      243.8370       12.5892      359.1748      371.7640     127.926922       0.34374
  16     196.4      242.9939       14.9190      354.5718      369.4908     126.496917       0.35995
  15     218.7      242.4352       16.4105      351.4437      367.8542     125.418976       0.40925
  14     243.0      241.8324       17.9982      347.7111      365.7093     123.876899       0.53484
  13     269.0      241.1864       19.6803      342.9441      362.6245     121.438078       0.79114
  12     297.5      240.4994       21.4551      337.4137      358.8688     118.369443       0.91012
  11     328.5      239.7775       23.3246      331.1302      354.4548     114.677260       1.00389
  10     361.9      239.0264       25.2833      324.1219      349.4052     110.378780       1.08756
   9     398.1      238.2510       27.3312      316.6066      343.9378     105.686821       1.09312
   8     437.6      237.4623       29.4640      308.5895      338.0535     100.591180       1.08948
   7     480.5      236.6791       31.6763      299.9349      331.6112      94.932026       1.11144
   6     533.0      235.8116       34.3014      289.7021      324.0035      88.191901       1.08427
   5     589.8      235.0066       37.0166      279.3388      316.3553      81.348783       1.01574
   4     651.6      234.3167       39.8102      268.7786      308.5888      74.272083       0.96776
   3     718.7      233.7735       42.6739      258.2837      300.9576      67.184104       0.89076
   2     792.3      233.4093       45.5939      248.0774      293.6713      60.261971       0.79389
   1     891.5      233.3478       49.3110      235.5216      284.8326      51.484800       0.74690
   0    1013.0      234.2788       53.4566      221.4731      274.9297      40.650942       0.75225



 Wavenumbers:  2600. -  3250. cm-1, ATM      1
 LEVEL PRESSURE   UPWARD FLUX   DIFDOWN FLUX  DIRDOWN FLUX  DOWNWARD FLUX   NET FLUX    HEATING RATE
          mb          W/m2          W/m2          W/m2        W/m2          W/m2       degree/day
  51    .06700        0.6379        0.0000        3.5066        3.5066       2.868708       0.00000
  50    .07753        0.6379        0.0000        3.5066        3.5066       2.868700       0.00640
  49    .09103        0.6379        0.0000        3.5066        3.5066       2.868690       0.00627
  48    0.1069        0.6379        0.0000        3.5066        3.5066       2.868678       0.00613
  47    0.1255        0.6379        0.0000        3.5066        3.5066       2.868665       0.00599
  46    0.1487        0.6379        0.0000        3.5066        3.5066       2.868649       0.00607
  45    0.1794        0.6379        0.0000        3.5065        3.5065       2.868626       0.00624
  44    0.2165        0.6379        0.0000        3.5065        3.5065       2.868599       0.00611
  43    0.2613        0.6379        0.0000        3.5065        3.5065       2.868567       0.00598
  42    0.3336        0.6379        0.0000        3.5064        3.5064       2.868514       0.00615
  41    0.4307        0.6379        0.0000        3.5064        3.5064       2.868443       0.00618
  40    0.5894        0.6379        0.0000        3.5062        3.5062       2.868324       0.00633
  39     1.339        0.6379        0.0000        3.5055        3.5055       2.867625       0.00787
  38     1.782        0.6379        0.0000        3.5050        3.5050       2.867095       0.01011
  37     2.292        0.6379        0.0000        3.5043        3.5043       2.866402       0.01147
  36     2.964        0.6379        0.0000        3.5033        3.5033       2.865411       0.01245
  35     3.853        0.6379        0.0000        3.5019        3.5019       2.864034       0.01307
  34     5.035        0.6379        0.0000        3.5001        3.5001       2.862173       0.01329
  33     6.613        0.6379        0.0000        3.4977        3.4977       2.859763       0.01288
  32     8.786        0.6379        0.0000        3.4947        3.4947       2.856792       0.01154
  31     11.80        0.6379        0.0000        3.4911        3.4911       2.853157       0.01018
  30     15.07        0.6379        0.0000        3.4878        3.4878       2.849935       0.00832
  29     18.79        0.6379        0.0000        3.4848        3.4848       2.846872       0.00695
  28     23.16        0.6379        0.0000        3.4816        3.4816       2.843651       0.00623
  27     28.12        0.6379        0.0000        3.4779        3.4779       2.840032       0.00615
  26     33.73        0.6379        0.0000        3.4735        3.4735       2.835565       0.00672
  25     40.54        0.6379        0.0000        3.4671        3.4671       2.829237       0.00785
  24     48.69        0.6379        0.0000        3.4582        3.4583       2.820339       0.00921
  23     57.69        0.6379        0.0000        3.4472        3.4472       2.809286       0.01036
  22     68.43        0.6379        0.0000        3.4329        3.4329       2.795020       0.01121
  21     81.20        0.6379        0.0000        3.4152        3.4152       2.777283       0.01172
  20     96.49        0.6380        0.0000        3.3940        3.3941       2.756125       0.01168
  19     114.6        0.6380        0.0000        3.3692        3.3692       2.731218       0.01163
  18     136.5        0.6380        0.0001        3.3419        3.3420       2.703973       0.01048
  17     162.9        0.6381        0.0001        3.3129        3.3129       2.674856       0.00931
  16     196.4        0.6382        0.0001        3.2793        3.2794       2.641202       0.00847
  15     218.7        0.6383        0.0001        3.2578        3.2578       2.619502       0.00824
  14     243.0        0.6386        0.0001        3.2320        3.2321       2.593497       0.00902
  13     269.0        0.6389        0.0001        3.1968        3.1969       2.558032       0.01150
  12     297.5        0.6394        0.0001        3.1489        3.1491       2.509619       0.01436
  11     328.5        0.6402        0.0001        3.0821        3.0822       2.441939       0.01840
  10     361.9        0.6414        0.0001        2.9902        2.9904       2.348954       0.02353
   9     398.1        0.6431        0.0001        2.8715        2.8716       2.228552       0.02805
   8     437.6        0.6454        0.0001        2.7276        2.7278       2.082372       0.03125
   7     480.5        0.6489        0.0002        2.5595        2.5597       1.910801       0.03370
   6     533.0        0.6546        0.0002        2.3617        2.3619       1.707334       0.03273
   5     589.8        0.6627        0.0002        2.1649        2.1651       1.502341       0.03043
   4     651.6        0.6745        0.0002        1.9608        1.9609       1.286412       0.02953
   3     718.7        0.6906        0.0002        1.7593        1.7595       1.068936       0.02733
   2     792.3        0.7115        0.0002        1.5761        1.5762       0.864757       0.02342
   1     891.5        0.7475        0.0002        1.3714        1.3716       0.624152       0.02047
   0    1013.0        0.8124        0.0002        1.1584        1.1586       0.346176       0.01930



 Wavenumbers:  3250. -  4000. cm-1, ATM      1
 LEVEL PRESSURE   UPWARD FLUX   DIFDOWN FLUX  DIRDOWN FLUX  DOWNWARD FLUX   NET FLUX    HEATING RATE
          mb          W/m2          W/m2          W/m2        W/m2          W/m2       degree/day
  51    .06700        0.0004        0.0000        5.9117        5.9117       5.911224       0.00000
  50    .07753        0.0004        0.0000        5.9075        5.9075       5.907034       3.35808
  49    .09103        0.0004        0.0000        5.9050        5.9050       5.904592       1.52677
  48    0.1069        0.0004        0.0000        5.9032        5.9032       5.902725       0.99346
  47    0.1255        0.0004        0.0000        5.9014        5.9014       5.900967       0.79708
  46    0.1487        0.0004        0.0000        5.8995        5.8995       5.899078       0.68848
  45    0.1794        0.0004        0.0000        5.8974        5.8974       5.896930       0.58983
  44    0.2165        0.0004        0.0000        5.8952        5.8952       5.894813       0.48155
  43    0.2613        0.0004        0.0000        5.8931        5.8931       5.892654       0.40696
  42    0.3336        0.0004        0.0000        5.8899        5.8899       5.889496       0.36820
  41    0.4307        0.0004        0.0000        5.8861        5.8861       5.885659       0.33365
  40    0.5894        0.0004        0.0000        5.8803        5.8803       5.879856       0.30857
  39     1.339        0.0004        0.0000        5.8597        5.8597       5.859258       0.23189
  38     1.782        0.0004        0.0000        5.8513        5.8513       5.850834       0.16039
  37     2.292        0.0004        0.0000        5.8431        5.8431       5.842663       0.13533
  36     2.964        0.0004        0.0000        5.8334        5.8334       5.833023       0.12100
  35     3.853        0.0004        0.0000        5.8213        5.8213       5.820848       0.11555
  34     5.035        0.0004        0.0000        5.8052        5.8052       5.804752       0.11498
  33     6.613        0.0004        0.0000        5.7833        5.7834       5.782931       0.11666
  32     8.786        0.0004        0.0000        5.7531        5.7531       5.752730       0.11729
  31     11.80        0.0004        0.0000        5.7090        5.7090       5.708561       0.12366
  30     15.07        0.0004        0.0000        5.6615        5.6615       5.661096       0.12254
  29     18.79        0.0004        0.0000        5.6093        5.6094       5.608961       0.11821
  28     23.16        0.0004        0.0000        5.5524        5.5524       5.552035       0.11008
  27     28.12        0.0004        0.0000        5.4935        5.4935       5.493156       0.10009
  26     33.73        0.0004        0.0000        5.4348        5.4349       5.434467       0.08824
  25     40.54        0.0004        0.0001        5.3707        5.3708       5.370406       0.07948
  24     48.69        0.0004        0.0001        5.2985        5.2985       5.298172       0.07475
  23     57.69        0.0004        0.0001        5.2215        5.2216       5.221234       0.07212
  22     68.43        0.0003        0.0001        5.1318        5.1319       5.131573       0.07048
  21     81.20        0.0003        0.0001        5.0284        5.0285       5.028144       0.06834
  20     96.49        0.0003        0.0001        4.9122        4.9123       4.912010       0.06410
  19     114.6        0.0003        0.0001        4.7780        4.7782       4.777899       0.06262
  18     136.5        0.0003        0.0002        4.6285        4.6287       4.628421       0.05748
  17     162.9        0.0002        0.0002        4.4406        4.4407       4.440508       0.06006
  16     196.4        0.0002        0.0002        4.1548        4.1550       4.154835       0.07191
  15     218.7        0.0002        0.0002        3.9564        3.9566       3.956454       0.07532
  14     243.0        0.0002        0.0002        3.7055        3.7058       3.705619       0.08700
  13     269.0        0.0001        0.0002        3.3399        3.3401       3.339981       0.11861
  12     297.5        0.0001        0.0002        2.8954        2.8956       2.895491       0.13183
  11     328.5        0.0001        0.0002        2.4388        2.4390       2.438950       0.12413
  10     361.9        0.0001        0.0002        2.0269        2.0271       2.027012       0.10422
   9     398.1        0.0001        0.0002        1.6753        1.6755       1.675423       0.08191
   8     437.6        0.0001        0.0002        1.3592        1.3594       1.359305       0.06759
   7     480.5        0.0000        0.0002        1.0616        1.0618       1.061722       0.05844
   6     533.0        0.0000        0.0001        0.7543        0.7544       0.754387       0.04944
   5     589.8        0.0000        0.0001        0.4951        0.4952       0.495193       0.03847
   4     651.6        0.0000        0.0001        0.2943        0.2943       0.294293       0.02747
   3     718.7        0.0001        0.0001        0.1528        0.1529       0.152792       0.01778
   2     792.3        0.0001        0.0000        0.0658        0.0658       0.065746       0.00998
   1     891.5        0.0002        0.0000        0.0157        0.0157       0.015443       0.00428
   0    1013.0        0.0009        0.0000        0.0013        0.0013       0.000401       0.00104



 Wavenumbers:  4000. -  4650. cm-1, ATM      1
 LEVEL PRESSURE   UPWARD FLUX   DIFDOWN FLUX  DIRDOWN FLUX  DOWNWARD FLUX   NET FLUX    HEATING RATE
          mb          W/m2          W/m2          W/m2        W/m2          W/m2       degree/day
  51    .06700        2.7361        0.0000        6.9421        6.9421       4.205938       0.00000
  50    .07753        2.7361        0.0000        6.9421        6.9421       4.205937       0.00079
  49    .09103        2.7361        0.0000        6.9421        6.9421       4.205936       0.00078
  48    0.1069        2.7361        0.0000        6.9421        6.9421       4.205934       0.00076
  47    0.1255        2.7361        0.0000        6.9421        6.9421       4.205933       0.00074
  46    0.1487        2.7361        0.0000        6.9421        6.9421       4.205931       0.00075
  45    0.1794        2.7361        0.0000        6.9421        6.9421       4.205928       0.00077
  44    0.2165        2.7361        0.0000        6.9421        6.9421       4.205925       0.00076
  43    0.2613        2.7361        0.0000        6.9420        6.9420       4.205921       0.00074
  42    0.3336        2.7361        0.0000        6.9420        6.9420       4.205914       0.00076
  41    0.4307        2.7361        0.0000        6.9420        6.9420       4.205905       0.00077
  40    0.5894        2.7361        0.0000        6.9420        6.9420       4.205890       0.00079
  39     1.339        2.7361        0.0000        6.9419        6.9419       4.205802       0.00100
  38     1.782        2.7361        0.0000        6.9418        6.9419       4.205732       0.00132
  37     2.292        2.7361        0.0000        6.9418        6.9418       4.205639       0.00155
  36     2.964        2.7361        0.0000        6.9416        6.9416       4.205499       0.00175
  35     3.853        2.7361        0.0000        6.9414        6.9414       4.205293       0.00196
  34     5.035        2.7361        0.0000        6.9411        6.9411       4.204988       0.00218
  33     6.613        2.7361        0.0000        6.9406        6.9407       4.204540       0.00239
  32     8.786        2.7361        0.0000        6.9399        6.9400       4.203880       0.00256
  31     11.80        2.7361        0.0000        6.9389        6.9389       4.202845       0.00290
  30     15.07        2.7361        0.0001        6.9377        6.9377       4.201635       0.00312
  29     18.79        2.7361        0.0001        6.9362        6.9363       4.200176       0.00331
  28     23.16        2.7361        0.0001        6.9343        6.9344       4.198372       0.00349
  27     28.12        2.7361        0.0001        6.9321        6.9323       4.196197       0.00370
  26     33.73        2.7361        0.0001        6.9294        6.9296       4.193528       0.00401
  25     40.54        2.7360        0.0002        6.9258        6.9260       4.189929       0.00446
  24     48.69        2.7360        0.0002        6.9210        6.9212       4.185165       0.00493
  23     57.69        2.7360        0.0002        6.9154        6.9156       4.179559       0.00525
  22     68.43        2.7360        0.0003        6.9083        6.9086       4.172589       0.00548
  21     81.20        2.7360        0.0003        6.8998        6.9001       4.164064       0.00563
  20     96.49        2.7361        0.0004        6.8894        6.8898       4.153765       0.00568
  19     114.6        2.7361        0.0005        6.8765        6.8770       4.140865       0.00602
  18     136.5        2.7362        0.0006        6.8610        6.8615       4.125294       0.00599
  17     162.9        2.7364        0.0007        6.8417        6.8423       4.105906       0.00620
  16     196.4        2.7368        0.0008        6.8147        6.8155       4.078676       0.00685
  15     218.7        2.7371        0.0009        6.7948        6.7957       4.058593       0.00762
  14     243.0        2.7377        0.0010        6.7698        6.7708       4.033090       0.00885
  13     269.0        2.7386        0.0011        6.7349        6.7359       3.997367       0.01159
  12     297.5        2.7399        0.0012        6.6869        6.6881       3.948102       0.01461
  11     328.5        2.7419        0.0013        6.6194        6.6207       3.878757       0.01885
  10     361.9        2.7445        0.0014        6.5295        6.5309       3.786363       0.02338
   9     398.1        2.7479        0.0016        6.4202        6.4218       3.673835       0.02622
   8     437.6        2.7524        0.0017        6.2962        6.2979       3.545453       0.02745
   7     480.5        2.7584        0.0018        6.1555        6.1573       3.398880       0.02879
   6     533.0        2.7680        0.0020        5.9675        5.9695       3.201473       0.03176
   5     589.8        2.7818        0.0021        5.7368        5.7389       2.957063       0.03628
   4     651.6        2.8017        0.0023        5.4662        5.4685       2.666800       0.03969
   3     718.7        2.8288        0.0024        5.1912        5.1936       2.364816       0.03795
   2     792.3        2.8637        0.0026        4.9395        4.9421       2.078373       0.03285
   1     891.5        2.9233        0.0028        4.6486        4.6514       1.728096       0.02981
   0    1013.0        3.0299        0.0030        4.3179        4.3209       1.290920       0.03036



 Wavenumbers:  4650. -  5150. cm-1, ATM      1
 LEVEL PRESSURE   UPWARD FLUX   DIFDOWN FLUX  DIRDOWN FLUX  DOWNWARD FLUX   NET FLUX    HEATING RATE
          mb          W/m2          W/m2          W/m2        W/m2          W/m2       degree/day
  51    .06700        1.8466        0.0000        6.5710        6.5710       4.724420       0.00000
  50    .07753        1.8466        0.0000        6.5708        6.5708       4.724184       0.18887
  49    .09103        1.8466        0.0000        6.5705        6.5705       4.723890       0.18362
  48    0.1069        1.8466        0.0000        6.5701        6.5701       4.723556       0.17806
  47    0.1255        1.8466        0.0000        6.5697        6.5697       4.723176       0.17238
  46    0.1487        1.8466        0.0000        6.5693        6.5693       4.722702       0.17268
  45    0.1794        1.8466        0.0000        6.5686        6.5686       4.722065       0.17473
  44    0.2165        1.8466        0.0000        6.5679        6.5679       4.721327       0.16788
  43    0.2613        1.8466        0.0000        6.5670        6.5670       4.720474       0.16078
  42    0.3336        1.8466        0.0000        6.5657        6.5657       4.719111       0.15894
  41    0.4307        1.8466        0.0000        6.5640        6.5640       4.717389       0.14971
  40    0.5894        1.8466        0.0000        6.5613        6.5613       4.714773       0.13913
  39     1.339        1.8466        0.0000        6.5516        6.5516       4.704995       0.11008
  38     1.782        1.8466        0.0000        6.5473        6.5473       4.700779       0.08026
  37     2.292        1.8466        0.0000        6.5434        6.5435       4.696892       0.06438
  36     2.964        1.8466        0.0000        6.5395        6.5395       4.692938       0.04964
  35     3.853        1.8466        0.0000        6.5355        6.5356       4.688995       0.03742
  34     5.035        1.8466        0.0000        6.5315        6.5315       4.684992       0.02859
  33     6.613        1.8465        0.0000        6.5271        6.5271       4.680597       0.02350
  32     8.786        1.8465        0.0001        6.5216        6.5216       4.675101       0.02135
  31     11.80        1.8465        0.0001        6.5135        6.5136       4.667020       0.02262
  30     15.07        1.8465        0.0001        6.5041        6.5042       4.657648       0.02420
  29     18.79        1.8465        0.0001        6.4925        6.4926       4.646128       0.02612
  28     23.16        1.8465        0.0001        6.4779        6.4780       4.631530       0.02823
  27     28.12        1.8465        0.0002        6.4599        6.4600       4.613546       0.03057
  26     33.73        1.8465        0.0002        6.4384        6.4386       4.592104       0.03224
  25     40.54        1.8465        0.0002        6.4112        6.4115       4.564963       0.03367
  24     48.69        1.8465        0.0003        6.3775        6.3778       4.531304       0.03483
  23     57.69        1.8465        0.0003        6.3404        6.3407       4.494185       0.03479
  22     68.43        1.8466        0.0004        6.2971        6.2975       4.450957       0.03398
  21     81.20        1.8466        0.0005        6.2483        6.2487       4.402090       0.03229
  20     96.49        1.8467        0.0006        6.1948        6.1954       4.348648       0.02950
  19     114.6        1.8469        0.0007        6.1381        6.1388       4.291914       0.02649
  18     136.5        1.8471        0.0008        6.0790        6.0798       4.232669       0.02278
  17     162.9        1.8475        0.0009        6.0160        6.0170       4.169519       0.02019
  16     196.4        1.8480        0.0011        5.9399        5.9410       4.092976       0.01927
  15     218.7        1.8485        0.0012        5.8896        5.8909       4.042396       0.01920
  14     243.0        1.8491        0.0014        5.8322        5.8336       3.984439       0.02010
  13     269.0        1.8501        0.0015        5.7624        5.7639       3.913837       0.02290
  12     297.5        1.8515        0.0016        5.6767        5.6784       3.826905       0.02578
  11     328.5        1.8534        0.0018        5.5726        5.5744       3.720970       0.02880
  10     361.9        1.8561        0.0019        5.4473        5.4493       3.593199       0.03233
   9     398.1        1.8597        0.0021        5.2995        5.3016       3.441930       0.03524
   8     437.6        1.8644        0.0023        5.1275        5.1297       3.265265       0.03777
   7     480.5        1.8710        0.0024        4.9290        4.9314       3.060392       0.04024
   6     533.0        1.8812        0.0026        4.6794        4.6819       2.800699       0.04178
   5     589.8        1.8955        0.0027        4.4188        4.4215       2.526036       0.04077
   4     651.6        1.9153        0.0029        4.1521        4.1550       2.239630       0.03917
   3     718.7        1.9418        0.0030        3.8929        3.8960       1.954203       0.03587
   2     792.3        1.9759        0.0032        3.6469        3.6500       1.674140       0.03212
   1     891.5        2.0339        0.0033        3.3535        3.3568       1.322896       0.02989
   0    1013.0        2.1331        0.0035        3.0383        3.0419       0.908728       0.02876



 Wavenumbers:  5150. -  6150. cm-1, ATM      1
 LEVEL PRESSURE   UPWARD FLUX   DIFDOWN FLUX  DIRDOWN FLUX  DOWNWARD FLUX   NET FLUX    HEATING RATE
          mb          W/m2          W/m2          W/m2        W/m2          W/m2       degree/day
  51    .06700        4.9834        0.0000       16.4735       16.4735      11.490101       0.00000
  50    .07753        4.9834        0.0000       16.4735       16.4735      11.490067       0.02762
  49    .09103        4.9834        0.0000       16.4734       16.4734      11.490022       0.02812
  48    0.1069        4.9834        0.0000       16.4734       16.4734      11.489968       0.02861
  47    0.1255        4.9834        0.0000       16.4733       16.4733      11.489904       0.02906
  46    0.1487        4.9834        0.0000       16.4732       16.4732      11.489820       0.03061
  45    0.1794        4.9834        0.0000       16.4731       16.4731      11.489701       0.03270
  44    0.2165        4.9834        0.0000       16.4730       16.4730      11.489554       0.03332
  43    0.2613        4.9834        0.0000       16.4728       16.4728      11.489375       0.03377
  42    0.3336        4.9834        0.0000       16.4725       16.4725      11.489069       0.03565
  41    0.4307        4.9834        0.0000       16.4720       16.4720      11.488650       0.03647
  40    0.5894        4.9834        0.0000       16.4713       16.4713      11.487948       0.03730
  39     1.339        4.9834        0.0000       16.4679       16.4679      11.484538       0.03839
  38     1.782        4.9834        0.0000       16.4659       16.4659      11.482537       0.03809
  37     2.292        4.9834        0.0001       16.4635       16.4636      11.480244       0.03798
  36     2.964        4.9834        0.0001       16.4605       16.4606      11.477272       0.03731
  35     3.853        4.9833        0.0001       16.4567       16.4568      11.473415       0.03661
  34     5.035        4.9833        0.0001       16.4516       16.4517      11.468412       0.03574
  33     6.613        4.9833        0.0002       16.4451       16.4452      11.461943       0.03458
  32     8.786        4.9833        0.0002       16.4367       16.4369      11.453619       0.03233
  31     11.80        4.9832        0.0003       16.4254       16.4257      11.442448       0.03127
  30     15.07        4.9832        0.0004       16.4141       16.4145      11.431338       0.02868
  29     18.79        4.9832        0.0005       16.4024       16.4030      11.419788       0.02619
  28     23.16        4.9831        0.0006       16.3900       16.3906      11.407492       0.02378
  27     28.12        4.9831        0.0008       16.3771       16.3779      11.394785       0.02160
  26     33.73        4.9831        0.0009       16.3641       16.3651      11.382005       0.01921
  25     40.54        4.9830        0.0011       16.3502       16.3513      11.368292       0.01701
  24     48.69        4.9830        0.0014       16.3354       16.3367      11.353722       0.01508
  23     57.69        4.9830        0.0016       16.3211       16.3227      11.339705       0.01314
  22     68.43        4.9830        0.0019       16.3062       16.3082      11.325170       0.01143
  21     81.20        4.9830        0.0023       16.2903       16.2926      11.309593       0.01029
  20     96.49        4.9830        0.0027       16.2726       16.2753      11.292293       0.00955
  19     114.6        4.9831        0.0032       16.2521       16.2553      11.272202       0.00938
  18     136.5        4.9831        0.0038       16.2245       16.2283      11.245200       0.01038
  17     162.9        4.9832        0.0045       16.1747       16.1792      11.195995       0.01573
  16     196.4        4.9834        0.0054       16.0518       16.0572      11.073815       0.03075
  15     218.7        4.9836        0.0060       15.8984       15.9043      10.920771       0.05811
  14     243.0        4.9838        0.0066       15.6153       15.6218      10.638007       0.09807
  13     269.0        4.9842        0.0071       15.1390       15.1461      10.161929       0.15444
  12     297.5        4.9847        0.0076       14.5779       14.5855       9.600789       0.16643
  11     328.5        4.9856        0.0082       13.8780       13.8862       8.900533       0.19040
  10     361.9        4.9870        0.0086       13.0814       13.0901       8.103077       0.20176
   9     398.1        4.9889        0.0090       12.2728       12.2819       7.292983       0.18873
   8     437.6        4.9916        0.0094       11.4776       11.4870       6.495334       0.17054
   7     480.5        4.9957        0.0098       10.7300       10.7397       5.744003       0.14756
   6     533.0        5.0027        0.0102       10.0326       10.0428       5.040103       0.11324
   5     589.8        5.0132        0.0107        9.5050        9.5158       4.502522       0.07979
   4     651.6        5.0292        0.0114        9.0814        9.0928       4.063527       0.06003
   3     718.7        5.0520        0.0121        8.7024        8.7146       3.662580       0.05039
   2     792.3        5.0827        0.0130        8.3379        8.3509       3.268208       0.04523
   1     891.5        5.1387        0.0140        7.9064        7.9204       2.781666       0.04140
   0    1013.0        5.2523        0.0152        7.4741        7.4893       2.237025       0.03782



 Wavenumbers:  6150. -  7700. cm-1, ATM      1
 LEVEL PRESSURE   UPWARD FLUX   DIFDOWN FLUX  DIRDOWN FLUX  DOWNWARD FLUX   NET FLUX    HEATING RATE
          mb          W/m2          W/m2          W/m2        W/m2          W/m2       degree/day
  51    .06700        7.2969        0.0000       30.4684       30.4684      23.171520       0.00000
  50    .07753        7.2969        0.0000       30.4683       30.4683      23.171468       0.04144
  49    .09103        7.2969        0.0000       30.4683       30.4683      23.171401       0.04174
  48    0.1069        7.2969        0.0000       30.4682       30.4682      23.171322       0.04202
  47    0.1255        7.2969        0.0000       30.4681       30.4681      23.171229       0.04227
  46    0.1487        7.2969        0.0000       30.4680       30.4680      23.171108       0.04411
  45    0.1794        7.2969        0.0000       30.4678       30.4678      23.170938       0.04669
  44    0.2165        7.2969        0.0000       30.4676       30.4676      23.170731       0.04715
  43    0.2613        7.2968        0.0000       30.4673       30.4673      23.170479       0.04744
  42    0.3336        7.2968        0.0000       30.4669       30.4669      23.170052       0.04974
  41    0.4307        7.2968        0.0000       30.4663       30.4663      23.169471       0.05052
  40    0.5894        7.2968        0.0001       30.4653       30.4653      23.168504       0.05146
  39     1.339        7.2967        0.0001       30.4604       30.4606      23.163820       0.05273
  38     1.782        7.2967        0.0002       30.4576       30.4578      23.161070       0.05235
  37     2.292        7.2967        0.0003       30.4543       30.4546      23.157912       0.05231
  36     2.964        7.2966        0.0003       30.4501       30.4504      23.153804       0.05156
  35     3.853        7.2965        0.0004       30.4445       30.4450      23.148447       0.05084
  34     5.035        7.2964        0.0006       30.4373       30.4378      23.141447       0.05000
  33     6.613        7.2963        0.0008       30.4278       30.4286      23.132300       0.04890
  32     8.786        7.2961        0.0010       30.4154       30.4164      23.120347       0.04642
  31     11.80        7.2958        0.0014       30.3984       30.3997      23.103961       0.04587
  30     15.07        7.2955        0.0017       30.3810       30.3827      23.087248       0.04315
  29     18.79        7.2951        0.0022       30.3623       30.3645      23.069347       0.04059
  28     23.16        7.2947        0.0027       30.3417       30.3444      23.049664       0.03806
  27     28.12        7.2943        0.0032       30.3196       30.3228      23.028563       0.03587
  26     33.73        7.2937        0.0039       30.2965       30.3004      23.006644       0.03296
  25     40.54        7.2931        0.0047       30.2708       30.2754      22.982306       0.03019
  24     48.69        7.2924        0.0056       30.2423       30.2479      22.955529       0.02771
  23     57.69        7.2915        0.0066       30.2139       30.2205      22.928962       0.02490
  22     68.43        7.2905        0.0079       30.1834       30.1912      22.900685       0.02223
  21     81.20        7.2894        0.0093       30.1500       30.1593      22.869954       0.02031
  20     96.49        7.2880        0.0111       30.1126       30.1237      22.835733       0.01889
  19     114.6        7.2863        0.0131       30.0695       30.0826      22.796343       0.01839
  18     136.5        7.2843        0.0156       30.0139       30.0295      22.745180       0.01967
  17     162.9        7.2820        0.0185       29.9225       29.9410      22.658984       0.02755
  16     196.4        7.2790        0.0223       29.7333       29.7556      22.476558       0.04592
  15     218.7        7.2771        0.0247       29.5259       29.5505      22.273387       0.07714
  14     243.0        7.2751        0.0272       29.1375       29.1646      21.889484       0.13315
  13     269.0        7.2733        0.0296       28.3800       28.4096      21.136332       0.24432
  12     297.5        7.2716        0.0319       27.3895       27.4214      20.149808       0.29259
  11     328.5        7.2705        0.0341       26.2257       26.2598      18.989308       0.31554
  10     361.9        7.2702        0.0361       24.8453       24.8814      17.611249       0.34866
   9     398.1        7.2712        0.0379       23.3471       23.3849      16.113739       0.34889
   8     437.6        7.2743        0.0394       21.7966       21.8361      14.561729       0.33183
   7     480.5        7.2811        0.0407       20.1977       20.2384      12.957311       0.31510
   6     533.0        7.2954        0.0420       18.4969       18.5390      11.243571       0.27569
   5     589.8        7.3199        0.0434       16.9754       17.0188       9.698832       0.22929
   4     651.6        7.3602        0.0447       15.6022       15.6469       8.286679       0.19312
   3     718.7        7.4201        0.0463       14.4232       14.4695       7.049407       0.15549
   2     792.3        7.5027        0.0481       13.4386       13.4867       5.983997       0.12219
   1     891.5        7.6548        0.0506       12.3736       12.4242       4.769337       0.10336
   0    1013.0        7.9575        0.0533       11.2911       11.3445       3.386986       0.09598



 Wavenumbers:  7700. -  8050. cm-1, ATM      1
 LEVEL PRESSURE   UPWARD FLUX   DIFDOWN FLUX  DIRDOWN FLUX  DOWNWARD FLUX   NET FLUX    HEATING RATE
          mb          W/m2          W/m2          W/m2        W/m2          W/m2       degree/day
  51    .06700        3.7895        0.0000        7.2006        7.2006       3.411122       0.00000
  50    .07753        3.7895        0.0000        7.2006        7.2006       3.411102       0.01614
  49    .09103        3.7895        0.0000        7.2005        7.2005       3.411076       0.01582
  48    0.1069        3.7895        0.0000        7.2005        7.2005       3.411047       0.01549
  47    0.1255        3.7895        0.0000        7.2005        7.2005       3.411014       0.01516
  46    0.1487        3.7895        0.0000        7.2004        7.2005       3.410972       0.01538
  45    0.1794        3.7895        0.0000        7.2004        7.2004       3.410914       0.01583
  44    0.2165        3.7895        0.0000        7.2003        7.2003       3.410846       0.01552
  43    0.2613        3.7895        0.0000        7.2003        7.2003       3.410765       0.01523
  42    0.3336        3.7895        0.0000        7.2001        7.2001       3.410631       0.01559
  41    0.4307        3.7895        0.0000        7.2000        7.2000       3.410454       0.01542
  40    0.5894        3.7896        0.0000        7.1997        7.1997       3.410164       0.01540
  39     1.339        3.7897        0.0001        7.1984        7.1985       3.408795       0.01542
  38     1.782        3.7898        0.0001        7.1977        7.1978       3.407991       0.01531
  37     2.292        3.7899        0.0001        7.1968        7.1969       3.407060       0.01541
  36     2.964        3.7900        0.0001        7.1957        7.1958       3.405838       0.01533
  35     3.853        3.7902        0.0002        7.1942        7.1944       3.404225       0.01531
  34     5.035        3.7904        0.0002        7.1922        7.1925       3.402084       0.01530
  33     6.613        3.7907        0.0003        7.1896        7.1899       3.399226       0.01528
  32     8.786        3.7911        0.0004        7.1860        7.1865       3.395380       0.01494
  31     11.80        3.7917        0.0006        7.1810        7.1816       3.389888       0.01537
  30     15.07        3.7923        0.0008        7.1755        7.1763       3.384007       0.01518
  29     18.79        3.7930        0.0009        7.1694        7.1704       3.377382       0.01502
  28     23.16        3.7938        0.0012        7.1623        7.1635       3.369670       0.01491
  27     28.12        3.7948        0.0014        7.1542        7.1556       3.360886       0.01493
  26     33.73        3.7958        0.0017        7.1452        7.1469       3.351101       0.01471
  25     40.54        3.7971        0.0020        7.1344        7.1364       3.339342       0.01459
  24     48.69        3.7987        0.0024        7.1215        7.1239       3.325260       0.01457
  23     57.69        3.8004        0.0029        7.1074        7.1103       3.309909       0.01439
  22     68.43        3.8025        0.0034        7.0909        7.0942       3.291785       0.01425
  21     81.20        3.8049        0.0040        7.0713        7.0754       3.270414       0.01412
  20     96.49        3.8079        0.0047        7.0484        7.0532       3.245257       0.01388
  19     114.6        3.8115        0.0056        7.0217        7.0273       3.215808       0.01375
  18     136.5        3.8158        0.0067        6.9906        6.9973       3.181468       0.01320
  17     162.9        3.8210        0.0079        6.9544        6.9623       3.141325       0.01283
  16     196.4        3.8278        0.0095        6.9087        6.9182       3.090418       0.01281
  15     218.7        3.8324        0.0105        6.8794        6.8900       3.057577       0.01247
  14     243.0        3.8374        0.0117        6.8481        6.8598       3.022353       0.01222
  13     269.0        3.8430        0.0129        6.8147        6.8276       2.984595       0.01225
  12     297.5        3.8492        0.0142        6.7791        6.7933       2.944081       0.01202
  11     328.5        3.8561        0.0157        6.7409        6.7566       2.900462       0.01186
  10     361.9        3.8639        0.0172        6.7002        6.7173       2.853443       0.01190
   9     398.1        3.8727        0.0188        6.6563        6.6751       2.802442       0.01188
   8     437.6        3.8826        0.0206        6.6089        6.6294       2.746845       0.01189
   7     480.5        3.8941        0.0225        6.5570        6.5794       2.685391       0.01207
   6     533.0        3.9094        0.0247        6.4915        6.5162       2.606808       0.01264
   5     589.8        3.9277        0.0272        6.4182        6.4454       2.517720       0.01322
   4     651.6        3.9497        0.0298        6.3359        6.3657       2.415998       0.01391
   3     718.7        3.9759        0.0326        6.2441        6.2767       2.300855       0.01447
   2     792.3        4.0065        0.0355        6.1437        6.1792       2.172720       0.01470
   1     891.5        4.0525        0.0394        6.0042        6.0435       1.991061       0.01546
   0    1013.0        4.1174        0.0439        5.8249        5.8688       1.751325       0.01665



 Wavenumbers:  8050. - 12850. cm-1, ATM      1
 LEVEL PRESSURE   UPWARD FLUX   DIFDOWN FLUX  DIRDOWN FLUX  DOWNWARD FLUX   NET FLUX    HEATING RATE
          mb          W/m2          W/m2          W/m2        W/m2          W/m2       degree/day
  51    .06700       47.9736        0.0000      100.8135      100.8135      52.839935       0.00000
  50    .07753       47.9736        0.0000      100.8135      100.8135      52.839935       0.00000
  49    .09103       47.9735        0.0001      100.8134      100.8135      52.839935       0.00000
  48    0.1069       47.9735        0.0001      100.8134      100.8135      52.839935      -0.00000
  47    0.1255       47.9735        0.0001      100.8133      100.8134      52.839935       0.00000
  46    0.1487       47.9735        0.0002      100.8132      100.8134      52.839935      -0.00000
  45    0.1794       47.9734        0.0003      100.8131      100.8133      52.839935       0.00000
  44    0.2165       47.9734        0.0004      100.8129      100.8133      52.839935      -0.00000
  43    0.2613       47.9733        0.0005      100.8127      100.8132      52.839935       0.00000
  42    0.3336       47.9732        0.0006      100.8125      100.8131      52.839935      -0.00000
  41    0.4307       47.9730        0.0009      100.8121      100.8130      52.839935       0.00000
  40    0.5894       47.9728        0.0013      100.8115      100.8127      52.839935      -0.00000
  39     1.339       47.9716        0.0031      100.8085      100.8116      52.839935      -0.00000
  38     1.782       47.9710        0.0041      100.8068      100.8109      52.839935       0.00000
  37     2.292       47.9702        0.0054      100.8047      100.8101      52.839935       0.00000
  36     2.964       47.9692        0.0070      100.8021      100.8091      52.839935       0.00000
  35     3.853       47.9678        0.0091      100.7986      100.8077      52.839935       0.00000
  34     5.035       47.9660        0.0120      100.7940      100.8059      52.839935      -0.00000
  33     6.613       47.9636        0.0158      100.7878      100.8035      52.839935       0.00000
  32     8.786       47.9604        0.0209      100.7794      100.8003      52.839935       0.00000
  31     11.80       47.9557        0.0282      100.7674      100.7957      52.839935       0.00000
  30     15.07       47.9507        0.0361      100.7546      100.7907      52.839935       0.00000
  29     18.79       47.9451        0.0450      100.7400      100.7850      52.839935      -0.00000
  28     23.16       47.9385        0.0555      100.7230      100.7784      52.839935      -0.00000
  27     28.12       47.9310        0.0674      100.7035      100.7709      52.839935       0.00000
  26     33.73       47.9225        0.0808      100.6817      100.7624      52.839935      -0.00000
  25     40.54       47.9123        0.0970      100.6552      100.7522      52.839935       0.00000
  24     48.69       47.8999        0.1165      100.6234      100.7398      52.839935       0.00000
  23     57.69       47.8863        0.1380      100.5883      100.7263      52.839935       0.00000
  22     68.43       47.8701        0.1636      100.5464      100.7100      52.839935      -0.00000
  21     81.20       47.8508        0.1942      100.4965      100.6907      52.839935      -0.00000
  20     96.49       47.8277        0.2306      100.4370      100.6676      52.839935       0.00000
  19     114.6       47.8003        0.2740      100.3585      100.6325      52.832191       0.00362
  18     136.5       47.7678        0.3255      100.2634      100.5889      52.821052       0.00428
  17     162.9       47.7292        0.3870      100.1407      100.5276      52.798470       0.00722
  16     196.4       47.6790        0.4667       99.9505      100.4173      52.738241       0.01516
  15     218.7       47.6460        0.5192       99.7889      100.3081      52.662067       0.02892
  14     243.0       47.6104        0.5761       99.5472      100.1233      52.512870       0.05175
  13     269.0       47.5726        0.6375       99.1452       99.7827      52.210108       0.09821
  12     297.5       47.5332        0.7033       98.5975       99.3008      51.767614       0.13124
  11     328.5       47.4932        0.7739       97.8659       98.6398      51.146563       0.16886
  10     361.9       47.4543        0.8489       96.8848       97.7337      50.279411       0.21940
   9     398.1       47.4186        0.9283       95.6330       96.5612      49.142593       0.26485
   8     437.6       47.3902        1.0114       94.0655       95.0769      47.686666       0.31129
   7     480.5       47.3769        1.0975       92.0807       93.1782      45.801330       0.37027
   6     533.0       47.3894        1.1993       89.4449       90.6442      43.254778       0.40966
   5     589.8       47.4459        1.3048       86.5544       87.8591      40.413271       0.42177
   4     651.6       47.5703        1.4133       83.4174       84.8306      37.260345       0.43117
   3     718.7       47.7775        1.5256       80.2037       81.7293      33.951774       0.41580
   2     792.3       48.0809        1.6425       77.0811       78.7236      30.642640       0.37952
   1     891.5       48.6641        1.7939       73.2645       75.0584      26.394376       0.36151
   0    1013.0       49.8203        1.9634       68.9425       70.9059      21.085562       0.36862



 Wavenumbers: 12850. - 16000. cm-1, ATM      1
 LEVEL PRESSURE   UPWARD FLUX   DIFDOWN FLUX  DIRDOWN FLUX  DOWNWARD FLUX   NET FLUX    HEATING RATE
          mb          W/m2          W/m2          W/m2        W/m2          W/m2       degree/day
  51    .06700       44.7246        0.0000       63.1686       63.1686      18.443997       0.00000
  50    .07753       44.7246        0.0001       63.1677       63.1678      18.443216       0.62644
  49    .09103       44.7245        0.0001       63.1666       63.1668      18.442241       0.60907
  48    0.1069       44.7245        0.0002       63.1654       63.1656      18.441131       0.59093
  47    0.1255       44.7245        0.0003       63.1640       63.1643      18.439868       0.57276
  46    0.1487       44.7244        0.0004       63.1623       63.1627      18.438291       0.57477
  45    0.1794       44.7244        0.0006       63.1600       63.1606      18.436175       0.58094
  44    0.2165       44.7244        0.0008       63.1573       63.1581      18.433725       0.55722
  43    0.2613       44.7244        0.0011       63.1542       63.1553      18.430897       0.53319
  42    0.3336       44.7244        0.0015       63.1493       63.1507      18.426383       0.52622
  41    0.4307       44.7244        0.0020       63.1431       63.1451      18.420728       0.49170
  40    0.5894       44.7245        0.0028       63.1338       63.1367      18.412138       0.45682
  39     1.339       44.7268        0.0069       63.0956       63.1025      18.375691       0.41032
  38     1.782       44.7293        0.0093       63.0740       63.0833      18.354021       0.41257
  37     2.292       44.7333        0.0121       63.0477       63.0597      18.326412       0.45727
  36     2.964       44.7403        0.0157       63.0095       63.0252      18.284946       0.52053
  35     3.853       44.7519        0.0205       62.9533       62.9738      18.221896       0.59835
  34     5.035       44.7696        0.0269       62.8725       62.8994      18.129789       0.65797
  33     6.613       44.7944        0.0353       62.7621       62.7974      18.002975       0.67795
  32     8.786       44.8267        0.0467       62.6182       62.6650      17.838328       0.63943
  31     11.80       44.8682        0.0630       62.4284       62.4914      17.623233       0.60220
  30     15.07       44.9073        0.0805       62.2426       62.3231      17.415770       0.53563
  29     18.79       44.9467        0.1002       62.0493       62.1495      17.202738       0.48301
  28     23.16       44.9871        0.1231       61.8424       61.9655      16.978394       0.43381
  27     28.12       45.0268        0.1493       61.6278       61.7771      16.750226       0.38787
  26     33.73       45.0619        0.1785       61.4177       61.5962      16.534217       0.32478
  25     40.54       45.0935        0.2137       61.1983       61.4120      16.318512       0.26761
  24     48.69       45.1211        0.2562       60.9680       61.2242      16.103059       0.22296
  23     57.69       45.1413        0.3028       60.7478       61.0506      15.909324       0.18160
  22     68.43       45.1542        0.3582       60.5202       60.8784      15.724191       0.14554
  21     81.20       45.1546        0.4242       60.2938       60.7181      15.563510       0.10618
  20     96.49       45.1410        0.5029       60.0643       60.5672      15.426158       0.07581
  19     114.6       45.1264        0.5970       59.8078       60.4047      15.278353       0.06901
  18     136.5       45.1026        0.7083       59.5157       60.2240      15.121420       0.06034
  17     162.9       45.0683        0.8405       59.1770       60.0176      14.949304       0.05502
  16     196.4       45.0111        1.0116       58.7604       59.7721      14.760947       0.04741
  15     218.7       44.9691        1.1238       58.4948       59.6186      14.649497       0.04231
  14     243.0       44.9214        1.2454       58.2089       59.4544      14.532950       0.04042
  13     269.0       44.8680        1.3771       57.9006       59.2776      14.409640       0.04000
  12     297.5       44.8090        1.5190       57.5668       59.0858      14.276767       0.03941
  11     328.5       44.7458        1.6721       57.2005       58.8726      14.126786       0.04078
  10     361.9       44.6791        1.8365       56.7963       58.6328      13.953733       0.04378
   9     398.1       44.6099        2.0129       56.3475       58.3604      13.750519       0.04734
   8     437.6       44.5404        2.2016       55.8422       58.0438      13.503383       0.05284
   7     480.5       44.4748        2.4027       55.2625       57.6653      13.190494       0.06145
   6     533.0       44.4090        2.6486       54.4972       57.1457      12.736771       0.07299
   5     589.8       44.3566        2.9103       53.6307       56.5410      12.184462       0.08198
   4     651.6       44.3257        3.1872       52.6606       55.8478      11.522125       0.09058
   3     718.7       44.3204        3.4797       51.6100       55.0897      10.769257       0.09461
   2     792.3       44.3462        3.7875       50.5019       54.2893       9.943144       0.09475
   1     891.5       44.4445        4.1938       49.0197       53.2135       8.768988       0.09992
   0    1013.0       44.6920        4.6661       47.2289       51.8950       7.202992       0.10874



 Wavenumbers: 16000. - 22650. cm-1, ATM      1
 LEVEL PRESSURE   UPWARD FLUX   DIFDOWN FLUX  DIRDOWN FLUX  DOWNWARD FLUX   NET FLUX    HEATING RATE
          mb          W/m2          W/m2          W/m2        W/m2          W/m2       degree/day
  51    .06700       87.6835        0.0000      100.7153      100.7153      13.031773       0.00000
  50    .07753       87.6834        0.0003      100.7147      100.7151      13.031651       0.09826
  49    .09103       87.6833        0.0008      100.7140      100.7148      13.031472       0.11145
  48    0.1069       87.6832        0.0013      100.7131      100.7144      13.031234       0.12709
  47    0.1255       87.6830        0.0018      100.7121      100.7139      13.030914       0.14487
  46    0.1487       87.6829        0.0025      100.7108      100.7133      13.030443       0.17166
  45    0.1794       87.6827        0.0035      100.7089      100.7124      13.029707       0.20212
  44    0.2165       87.6825        0.0046      100.7066      100.7112      13.028708       0.22716
  43    0.2613       87.6823        0.0060      100.7037      100.7097      13.027354       0.25538
  42    0.3336       87.6822        0.0083      100.6987      100.7070      13.024778       0.30031
  41    0.4307       87.6821        0.0112      100.6918      100.7030      13.020895       0.33758
  40    0.5894       87.6824        0.0161      100.6797      100.6959      13.013491       0.39375
  39     1.339       87.6899        0.0392      100.6095      100.6487      12.958796       0.61576
  38     1.782       87.6990        0.0528      100.5585      100.6112      12.912216       0.88682
  37     2.292       87.7139        0.0685      100.4903      100.5587      12.844809       1.11643
  36     2.964       87.7401        0.0890      100.3868      100.4758      12.735655       1.37021
  35     3.853       87.7842        0.1162      100.2306      100.3468      12.562566       1.64265
  34     5.035       87.8521        0.1522      100.0045      100.1567      12.304581       1.84294
  33     6.613       87.9475        0.2002       99.6939       99.8941      11.946548       1.91404
  32     8.786       88.0713        0.2648       99.2881       99.5528      11.481521       1.80600
  31     11.80       88.2302        0.3568       98.7496       99.1064      10.876237       1.69460
  30     15.07       88.3796        0.4554       98.2198       98.6752      10.295543       1.49924
  29     18.79       88.5294        0.5663       97.6651       98.2314       9.701997       1.34575
  28     23.16       88.6824        0.6954       97.0671       97.7626       9.080112       1.20252
  27     28.12       88.8318        0.8425       96.4406       97.2831       8.451304       1.06893
  26     33.73       88.9621        1.0067       95.8179       96.8246       7.862436       0.88538
  25     40.54       89.0770        1.2044       95.1548       96.3592       7.282173       0.71988
  24     48.69       89.1743        1.4418       94.4420       95.8838       6.709500       0.59263
  23     57.69       89.2414        1.7017       93.7416       95.4433       6.201921       0.47578
  22     68.43       89.2784        2.0100       92.9954       95.0053       5.726901       0.37343
  21     81.20       89.2639        2.3760       92.2231       94.5991       5.335154       0.25886
  20     96.49       89.1926        2.8102       91.4110       94.2212       5.028656       0.16917
  19     114.6       89.0811        3.3225       90.5070       93.8295       4.748429       0.13085
  18     136.5       88.9315        3.9249       89.4803       93.4051       4.473670       0.10565
  17     162.9       88.7382        4.6355       88.3022       92.9377       4.199453       0.08765
  16     196.4       88.4538        5.5470       86.8606       92.4076       3.953836       0.06182
  15     218.7       88.2554        6.1395       85.9492       92.0886       3.833280       0.04577
  14     243.0       88.0353        6.7780       84.9789       91.7569       3.721629       0.03872
  13     269.0       87.7924        7.4636       83.9493       91.4129       3.620476       0.03281
  12     297.5       87.5262        8.1972       82.8589       91.0562       3.529970       0.02684
  11     328.5       87.2387        8.9816       81.6982       90.6798       3.441122       0.02416
  10     361.9       86.9301        9.8165       80.4669       90.2835       3.353403       0.02219
   9     398.1       86.5997       10.7041       79.1611       89.8653       3.265563       0.02046
   8     437.6       86.2485       11.6449       77.7777       89.4226       3.174155       0.01954
   7     480.5       85.8770       12.6393       76.3136       88.9529       3.075950       0.01929
   6     533.0       85.4279       13.8437       74.5359       88.3796       2.951719       0.01998
   5     589.8       84.9556       15.1182       72.6469       87.7651       2.809545       0.02110
   4     651.6       84.4630       16.4609       70.6456       87.1065       2.643437       0.02272
   3     718.7       83.9513       17.8701       68.5367       86.4068       2.455437       0.02363
   2     792.3       83.4238       19.3406       66.3287       85.6693       2.245444       0.02408
   1     891.5       82.7489       21.2631       63.4246       84.6877       1.938731       0.02610
   0    1013.0       81.9994       23.4778       60.0483       83.5261       1.526677       0.02861



 Wavenumbers: 22650. - 29000. cm-1, ATM      1
 LEVEL PRESSURE   UPWARD FLUX   DIFDOWN FLUX  DIRDOWN FLUX  DOWNWARD FLUX   NET FLUX    HEATING RATE
          mb          W/m2          W/m2          W/m2        W/m2          W/m2       degree/day
  51    .06700       37.4354        0.0000       38.0063       38.0063       0.570905       0.00000
  50    .07753       37.4352        0.0004       38.0057       38.0061       0.570905      -0.00000
  49    .09103       37.4350        0.0009       38.0050       38.0059       0.570905       0.00000
  48    0.1069       37.4348        0.0015       38.0042       38.0057       0.570905       0.00000
  47    0.1255       37.4345        0.0021       38.0033       38.0054       0.570905      -0.00000
  46    0.1487       37.4342        0.0029       38.0022       38.0051       0.570905       0.00000
  45    0.1794       37.4338        0.0041       38.0006       38.0047       0.570905       0.00000
  44    0.2165       37.4332        0.0054       37.9987       38.0041       0.570905       0.00000
  43    0.2613       37.4326        0.0070       37.9965       38.0035       0.570905       0.00000
  42    0.3336       37.4316        0.0096       37.9928       38.0025       0.570905      -0.00000
  41    0.4307       37.4302        0.0131       37.9880       38.0011       0.570905       0.00000
  40    0.5894       37.4279        0.0188       37.9800       37.9988       0.570905       0.00000
  39     1.339       37.4173        0.0457       37.9425       37.9882       0.570905       0.00000
  38     1.782       37.4110        0.0615       37.9204       37.9819       0.570905      -0.00000
  37     2.292       37.4038        0.0797       37.8949       37.9747       0.570905       0.00000
  36     2.964       37.3942        0.1037       37.8614       37.9651       0.570905       0.00000
  35     3.853       37.3817        0.1354       37.8172       37.9526       0.570905      -0.00000
  34     5.035       37.3650        0.1774       37.7586       37.9359       0.570905       0.00000
  33     6.613       37.3428        0.2334       37.6803       37.9137       0.570905      -0.00000
  32     8.786       37.3129        0.3088       37.5750       37.8838       0.570905       0.00000
  31     11.80       37.2702        0.4163       37.4249       37.8412       0.570905       0.00000
  30     15.07       37.2246        0.5313       37.2642       37.7955       0.570905       0.00000
  29     18.79       37.1732        0.6608       37.0833       37.7441       0.570905      -0.00000
  28     23.16       37.1135        0.8114       36.8730       37.6844       0.570905       0.00000
  27     28.12       37.0455        0.9826       36.6338       37.6164       0.570905       0.00000
  26     33.73       36.9699        1.1731       36.3677       37.5408       0.570905      -0.00000
  25     40.54       36.8792        1.4016       36.0486       37.4501       0.570905       0.00000
  24     48.69       36.7708        1.6745       35.6672       37.3418       0.570905      -0.00000
  23     57.69       36.6530        1.9712       35.2527       37.2239       0.570905       0.00000
  22     68.43       36.5143        2.3203       34.7649       37.0852       0.570905      -0.00000
  21     81.20       36.3515        2.7302       34.1922       36.9224       0.570905       0.00000
  20     96.49       36.1608        3.2100       33.5217       36.7317       0.570905      -0.00000
  19     114.6       35.9390        3.7676       32.7424       36.5099       0.570905       0.00000
  18     136.5       35.6827        4.4120       31.8416       36.2536       0.570905       0.00000
  17     162.9       35.3863        5.1564       30.8008       35.9572       0.570905       0.00000
  16     196.4       35.0158        6.0861       29.5007       35.5868       0.570905       0.00000
  15     218.7       34.7809        6.6751       28.6767       35.3518       0.570905       0.00000
  14     243.0       34.5328        7.2969       27.8068       35.1037       0.570905      -0.00000
  13     269.0       34.2721        7.9497       26.8933       34.8430       0.570905       0.00000
  12     297.5       33.9997        8.6313       25.9393       34.5706       0.570905       0.00000
  11     328.5       33.7155        9.3414       24.9451       34.2864       0.570905       0.00000
  10     361.9       33.4212       10.0761       23.9160       33.9921       0.570905      -0.00000
   9     398.1       33.1172       10.8340       22.8541       33.6881       0.570905       0.00000
   8     437.6       32.8050       11.6114       21.7645       33.3759       0.570905       0.00000
   7     480.5       32.4859       12.4046       20.6521       33.0568       0.570905      -0.00000
   6     533.0       32.1138       13.3278       19.3569       32.6847       0.570905       0.00000
   5     589.8       31.7367       14.2609       18.0467       32.3076       0.570905       0.00000
   4     651.6       31.3575       15.1968       16.7316       31.9284       0.570905       0.00000
   3     718.7       30.9788       16.1283       15.4214       31.5497       0.570905       0.00000
   2     792.3       30.6038       17.0471       14.1276       31.1747       0.570905       0.00000
   1     891.5       30.1437       18.1687       12.5459       30.7146       0.570905       0.00000
   0    1013.0       29.6540       19.3532       10.8717       30.2250       0.570905      -0.00000



 Wavenumbers: 29000. - 38000. cm-1, ATM      1
 LEVEL PRESSURE   UPWARD FLUX   DIFDOWN FLUX  DIRDOWN FLUX  DOWNWARD FLUX   NET FLUX    HEATING RATE
          mb          W/m2          W/m2          W/m2        W/m2          W/m2       degree/day
  51    .06700        5.3484        0.0000       13.4026       13.4026       8.054237       0.00000
  50    .07753        5.3481        0.0003       13.3983       13.3986       8.050438       3.04481
  49    .09103        5.3479        0.0007       13.3921       13.3928       8.044918       3.45016
  48    0.1069        5.3476        0.0011       13.3840       13.3851       8.037540       3.92733
  47    0.1255        5.3472        0.0016       13.3733       13.3749       8.027694       4.46383
  46    0.1487        5.3468        0.0022       13.3579       13.3601       8.013249       5.26517
  45    0.1794        5.3463        0.0030       13.3340       13.3371       7.990846       6.15021
  44    0.2165        5.3456        0.0040       13.3024       13.3064       7.960822       6.82985
  43    0.2613        5.3449        0.0052       13.2604       13.2656       7.920761       7.55134
  42    0.3336        5.3437        0.0071       13.1833       13.1904       7.846742       8.62991
  41    0.4307        5.3422        0.0096       13.0729       13.0825       7.740350       9.25051
  40    0.5894        5.3399        0.0135       12.8796       12.8931       7.553269       9.94875
  39     1.339        5.3319        0.0300       11.9165       11.9465       6.614641      10.56725
  38     1.782        5.3289        0.0384       11.4399       11.4783       6.149415       8.85714
  37     2.292        5.3269        0.0474       10.9796       11.0270       5.700136       7.44124
  36     2.964        5.3262        0.0585       10.4786       10.5372       5.210951       6.14075
  35     3.853        5.3279        0.0722        9.9429       10.0151       4.687224       4.97026
  34     5.035        5.3329        0.0894        9.4007        9.4901       4.157207       3.78622
  33     6.613        5.3413        0.1111        8.8752        8.9863       3.645040       2.73805
  32     8.786        5.3528        0.1392        8.3786        8.5178       3.164998       1.86431
  31     11.80        5.3671        0.1778        7.8897        8.0674       2.700315       1.30097
  30     15.07        5.3800        0.2176        7.5108        7.7284       2.348453       0.90844
  29     18.79        5.3924        0.2610        7.1776        7.4387       2.046307       0.68506
  28     23.16        5.4044        0.3100        6.8664        7.1764       1.772056       0.53031
  27     28.12        5.4152        0.3642        6.5780        6.9422       1.527018       0.41655
  26     33.73        5.4222        0.4233        6.3195        6.7428       1.320628       0.31031
  25     40.54        5.4244        0.4931        6.0663        6.5594       1.135005       0.23029
  24     48.69        5.4213        0.5749        5.8128        6.3878       0.966442       0.17444
  23     57.69        5.4125        0.6623        5.5777        6.2400       0.827509       0.13023
  22     68.43        5.3962        0.7636        5.3379        6.1015       0.705352       0.09603
  21     81.20        5.3678        0.8813        5.0965        5.9778       0.610035       0.06298
  20     96.49        5.3261        1.0174        4.8476        5.8650       0.538882       0.03927
  19     114.6        5.2749        1.1718        4.5799        5.7517       0.476789       0.02899
  18     136.5        5.2154        1.3448        4.2891        5.6339       0.418421       0.02244
  17     162.9        5.1477        1.5371        3.9732        5.5103       0.362591       0.01785
  16     196.4        5.0615        1.7682        3.6080        5.3762       0.314673       0.01206
  15     218.7        5.0073        1.9093        3.3898        5.2991       0.291775       0.00869
  14     243.0        4.9512        2.0536        3.1686        5.2222       0.270942       0.00723
  13     269.0        4.8936        2.2000        2.9461        5.1461       0.252507       0.00598
  12     297.5        4.8348        2.3473        2.7239        5.0713       0.236501       0.00475
  11     328.5        4.7757        2.4943        2.5029        4.9971       0.221409       0.00410
  10     361.9        4.7170        2.6396        2.2846        4.9242       0.207257       0.00358
   9     398.1        4.6590        2.7822        2.0708        4.8530       0.194040       0.00308
   8     437.6        4.6022        2.9210        1.8626        4.7836       0.181480       0.00269
   7     480.5        4.5471        3.0547        1.6621        4.7168       0.169714       0.00231
   6     533.0        4.4867        3.2001        1.4437        4.6438       0.157061       0.00204
   5     589.8        4.4300        3.3359        1.2390        4.5749       0.144973       0.00179
   4     651.6        4.3774        3.4607        1.0500        4.5107       0.133286       0.00160
   3     718.7        4.3294        3.5736        0.8778        4.4514       0.121962       0.00142
   2     792.3        4.2865        3.6738        0.7237        4.3975       0.110976       0.00126
   1     891.5        4.2400        3.7812        0.5563        4.3375       0.097527       0.00114
   0    1013.0        4.1981        3.8770        0.4039        4.2809       0.082790       0.00102



 Wavenumbers: 38000. - 50000. cm-1, ATM      1
 LEVEL PRESSURE   UPWARD FLUX   DIFDOWN FLUX  DIRDOWN FLUX  DOWNWARD FLUX   NET FLUX    HEATING RATE
          mb          W/m2          W/m2          W/m2        W/m2          W/m2       degree/day
  51    .06700        0.0051        0.0000        0.8267        0.8267       0.821528       0.00000
  50    .07753        0.0051        0.0001        0.8242        0.8243       0.819196       1.86936
  49    .09103        0.0050        0.0002        0.8207        0.8209       0.815872       2.07705
  48    0.1069        0.0049        0.0002        0.8162        0.8164       0.811514       2.31984
  47    0.1255        0.0048        0.0004        0.8103        0.8106       0.805801       2.59006
  46    0.1487        0.0047        0.0005        0.8018        0.8023       0.797567       3.00143
  45    0.1794        0.0045        0.0007        0.7889        0.7896       0.785013       3.44648
  44    0.2165        0.0044        0.0009        0.7720        0.7729       0.768507       3.75474
  43    0.2613        0.0042        0.0011        0.7500        0.7511       0.746955       4.06246
  42    0.3336        0.0039        0.0015        0.7106        0.7121       0.708267       4.51071
  41    0.4307        0.0035        0.0019        0.6566        0.6584       0.654972       4.63387
  40    0.5894        0.0029        0.0024        0.5680        0.5704       0.567464       4.65357
  39     1.339        0.0015        0.0030        0.2422        0.2452       0.243720       3.64476
  38     1.782        0.0010        0.0026        0.1493        0.1519       0.150889       1.76735
  37     2.292        0.0007        0.0022        0.0924        0.0946       0.093932       0.94336
  36     2.964        0.0005        0.0018        0.0539        0.0557       0.055224       0.48589
  35     3.853        0.0003        0.0013        0.0295        0.0308       0.030502       0.23462
  34     5.035        0.0002        0.0010        0.0154        0.0164       0.016181       0.10230
  33     6.613        0.0001        0.0007        0.0073        0.0080       0.007912       0.04420
  32     8.786        0.0000        0.0004        0.0030        0.0034       0.003390       0.01756
  31     11.80        0.0000        0.0003        0.0010        0.0012       0.001199       0.00613
  30     15.07        0.0000        0.0001        0.0003        0.0005       0.000463       0.00190
  29     18.79        0.0000        0.0001        0.0001        0.0002       0.000182       0.00064
  28     23.16        0.0000        0.0000        0.0000        0.0001       0.000071       0.00022
  27     28.12        0.0000        0.0000        0.0000        0.0000       0.000028       0.00007
  26     33.73        0.0000        0.0000        0.0000        0.0000       0.000011       0.00002
  25     40.54        0.0000        0.0000        0.0000        0.0000       0.000005       0.00001
  24     48.69        0.0000        0.0000        0.0000        0.0000       0.000002       0.00000
  23     57.69        0.0000        0.0000        0.0000        0.0000       0.000001       0.00000
  22     68.43        0.0000        0.0000        0.0000        0.0000       0.000000       0.00000
  21     81.20        0.0000        0.0000        0.0000        0.0000       0.000000       0.00000
  20     96.49        0.0000        0.0000        0.0000        0.0000       0.000000       0.00000
  19     114.6        0.0000        0.0000        0.0000        0.0000       0.000000       0.00000
  18     136.5        0.0000        0.0000        0.0000        0.0000       0.000000       0.00000
  17     162.9        0.0000        0.0000        0.0000        0.0000       0.000000       0.00000
  16     196.4        0.0000        0.0000        0.0000        0.0000       0.000000       0.00000
  15     218.7        0.0000        0.0000        0.0000        0.0000       0.000000       0.00000
  14     243.0        0.0000        0.0000        0.0000        0.0000       0.000000       0.00000
  13     269.0        0.0000        0.0000        0.0000        0.0000       0.000000       0.00000
  12     297.5        0.0000        0.0000        0.0000        0.0000       0.000000       0.00000
  11     328.5        0.0000        0.0000        0.0000        0.0000       0.000000       0.00000
  10     361.9        0.0000        0.0000        0.0000        0.0000       0.000000       0.00000
   9     398.1        0.0000        0.0000        0.0000        0.0000       0.000000       0.00000
   8     437.6        0.0000        0.0000        0.0000        0.0000       0.000000       0.00000
   7     480.5        0.0000        0.0000        0.0000        0.0000       0.000000       0.00000
   6     533.0        0.0000        0.0000        0.0000        0.0000       0.000000       0.00000
   5     589.8        0.0000        0.0000        0.0000        0.0000       0.000000       0.00000
   4     651.6        0.0000        0.0000        0.0000        0.0000       0.000000       0.00000
   3     718.7        0.0000        0.0000        0.0000        0.0000       0.000000       0.00000
   2     792.3        0.0000        0.0000        0.0000        0.0000       0.000000       0.00000
   1     891.5        0.0000        0.0000        0.0000        0.0000       0.000000       0.00000
   0    1013.0        0.0000        0.0000        0.0000        0.0000       0.000000       0.00000



 Wavenumbers:   820. -  2600. cm-1, ATM      1
 LEVEL PRESSURE   UPWARD FLUX   DIFDOWN FLUX  DIRDOWN FLUX  DOWNWARD FLUX   NET FLUX    HEATING RATE
          mb          W/m2          W/m2          W/m2        W/m2          W/m2       degree/day
  51    .06700        0.4588        0.0000        3.8670        3.8670       3.408245       0.00000
  50    .07753        0.4588        0.0000        3.8643        3.8643       3.405528       2.17770
  49    .09103        0.4588        0.0000        3.8635        3.8635       3.404718       0.50638
  48    0.1069        0.4588        0.0000        3.8626        3.8626       3.403827       0.47415
  47    0.1255        0.4588        0.0000        3.8616        3.8616       3.402866       0.43560
  46    0.1487        0.4588        0.0000        3.8605        3.8605       3.401757       0.40438
  45    0.1794        0.4588        0.0000        3.8592        3.8592       3.400422       0.36648
  44    0.2165        0.4588        0.0000        3.8578        3.8578       3.399044       0.31346
  43    0.2613        0.4588        0.0000        3.8564        3.8564       3.397584       0.27522
  42    0.3336        0.4588        0.0000        3.8541        3.8541       3.395353       0.26013
  41    0.4307        0.4588        0.0000        3.8512        3.8512       3.392470       0.25063
  40    0.5894        0.4588        0.0000        3.8465        3.8465       3.387744       0.25134
  39     1.339        0.4588        0.0000        3.8251        3.8251       3.366368       0.24065
  38     1.782        0.4588        0.0000        3.8133        3.8133       3.354555       0.22490
  37     2.292        0.4588        0.0000        3.8003        3.8003       3.341494       0.21633
  36     2.964        0.4588        0.0000        3.7841        3.7841       3.325365       0.20247
  35     3.853        0.4588        0.0000        3.7642        3.7642       3.305450       0.18900
  34     5.035        0.4588        0.0000        3.7395        3.7395       3.280758       0.17639
  33     6.613        0.4588        0.0000        3.7090        3.7090       3.250221       0.16325
  32     8.786        0.4588        0.0000        3.6726        3.6726       3.213827       0.14134
  31     11.80        0.4588        0.0000        3.6320        3.6320       3.173230       0.11366
  30     15.07        0.4588        0.0000        3.6016        3.6016       3.142844       0.07845
  29     18.79        0.4588        0.0000        3.5777        3.5777       3.118944       0.05419
  28     23.16        0.4588        0.0000        3.5564        3.5564       3.097588       0.04130
  27     28.12        0.4588        0.0000        3.5348        3.5348       3.076038       0.03663
  26     33.73        0.4588        0.0000        3.5118        3.5118       3.053001       0.03464
  25     40.54        0.4588        0.0000        3.4849        3.4849       3.026108       0.03336
  24     48.69        0.4588        0.0000        3.4537        3.4537       2.994850       0.03235
  23     57.69        0.4588        0.0000        3.4210        3.4210       2.962169       0.03063
  22     68.43        0.4589        0.0000        3.3844        3.3844       2.925575       0.02877
  21     81.20        0.4589        0.0000        3.3441        3.3441       2.885266       0.02664
  20     96.49        0.4589        0.0000        3.2998        3.2998       2.840888       0.02449
  19     114.6        0.4589        0.0000        3.2506        3.2506       2.791724       0.02296
  18     136.5        0.4590        0.0000        3.1936        3.1936       2.734650       0.02195
  17     162.9        0.4590        0.0000        3.1181        3.1181       2.659105       0.02415
  16     196.4        0.4591        0.0000        3.0090        3.0090       2.549836       0.02750
  15     218.7        0.4592        0.0000        2.9420        2.9420       2.482770       0.02546
  14     243.0        0.4594        0.0000        2.8605        2.8605       2.401114       0.02832
  13     269.0        0.4596        0.0000        2.7419        2.7420       2.282371       0.03852
  12     297.5        0.4600        0.0000        2.5729        2.5729       2.112891       0.05027
  11     328.5        0.4606        0.0000        2.3602        2.3602       1.899556       0.05801
  10     361.9        0.4617        0.0000        2.1524        2.1524       1.690776       0.05282
   9     398.1        0.4631        0.0000        1.9974        1.9974       1.534296       0.03646
   8     437.6        0.4652        0.0000        1.8835        1.8835       1.418290       0.02480
   7     480.5        0.4683        0.0000        1.7734        1.7734       1.305133       0.02222
   6     533.0        0.4735        0.0000        1.6397        1.6398       1.166293       0.02234
   5     589.8        0.4809        0.0000        1.5068        1.5069       1.025922       0.02084
   4     651.6        0.4921        0.0000        1.3807        1.3807       0.888648       0.01877
   3     718.7        0.5069        0.0000        1.2680        1.2681       0.761179       0.01602
   2     792.3        0.5251        0.0000        1.1659        1.1660       0.640922       0.01379
   1     891.5        0.5557        0.0000        1.0372        1.0373       0.481623       0.01356
   0    1013.0        0.6112        0.0000        0.8716        0.8717       0.260455       0.01536

  Modules and versions used in this calculation:

       rrtmg_sw.1col.f90:  $Revision$                    rrtmg_sw_init.f90:  $Revision$        
     rrtmgsw_cldprop.f90:  $Revision$                  rrtmgsw_cldprmc.f90:  NOT USED          
     rrtmg_sw_reftra.f90:  $Revision$                  rrtmg_sw_spcvrt.f90:  NOT USED          
     rrtmg_sw_spcvmc.f90:  NOT USED                    rrtmgsw_setcoef.f90:  NOT USED          
     rrtmg_sw_taumol.f90:  $Revision$                  rrtmg_sw_vrtqdr.f90:  NOT USED          
                rrtatm.f:  NOT USED                             util_xxx.f:  NOT USED          
                 extra.f:  NOT USED                       rrtmg_sw_k_g.f90:  $Revision$        

