

 Wavenumbers:   820. - 50000. cm-1, ATM      1
 LEVEL PRESSURE   UPWARD FLUX   DIFDOWN FLUX  DIRDOWN FLUX  DOWNWARD FLUX   NET FLUX    HEATING RATE
          mb          W/m2          W/m2          W/m2        W/m2          W/m2       degree/day
  51    .06700      217.5460        0.0000      397.8738      397.8738     180.327822       0.00000
  50    .07753      217.5454        0.0012      397.8577      397.8589     180.313533      11.45320
  49    .09103      217.5446        0.0027      397.8418      397.8445     180.299847       8.55421
  48    0.1069      217.5438        0.0043      397.8230      397.8273     180.283502       8.70051
  47    0.1255      217.5429        0.0063      397.7997      397.8060     180.263063       9.26602
  46    0.1487      217.5418        0.0088      397.7676      397.7764     180.234610      10.37111
  45    0.1794      217.5403        0.0121      397.7205      397.7326     180.192327      11.60793
  44    0.2165      217.5386        0.0160      397.6602      397.6763     180.137689      12.42907
  43    0.2613      217.5367        0.0207      397.5829      397.6036     180.066907      13.34221
  42    0.3336      217.5338        0.0284      397.4449      397.4733     179.939495      14.85498
  41    0.4307      217.5301        0.0384      397.2524      397.2908     179.760665      15.54879
  40    0.5894      217.5248        0.0546      396.9253      396.9799     179.455023      16.25370
  39     1.339      217.5114        0.1268      395.4254      395.5522     178.040807      15.92149
  38     1.782      217.5111        0.1673      394.7288      394.8961     177.384987      12.48576
  37     2.292      217.5176        0.2135      394.0572      394.2706     176.753023      10.46697
  36     2.964      217.5361        0.2734      393.3007      393.5740     176.037898       8.97698
  35     3.853      217.5746        0.3516      392.4318      392.7835     175.208889       7.86745
  34     5.035      217.6394        0.4547      391.4441      391.8987     174.259357       6.78306
  33     6.613      217.7336        0.5912      390.3268      390.9179     173.184332       5.74708
  32     8.786      217.8550        0.7737      389.0624      389.8361     171.981134       4.67279
  31     11.80      218.0052        1.0328      387.5500      388.5828     170.577599       3.92946
  30     15.07      218.1391        1.3088      386.1556      387.4644     169.325313       3.23316
  29     18.79      218.2659        1.6181      384.7502      386.3683     168.102424       2.77266
  28     23.16      218.3858        1.9765      383.2686      385.2451     166.859345       2.40371
  27     28.12      218.4900        2.3831      381.7329      384.1160     165.625949       2.09669
  26     33.73      218.5584        2.8348      380.1982      383.0330     164.474556       1.73115
  25     40.54      218.5851        3.3766      378.5384      381.9150     163.329820       1.42017
  24     48.69      218.5639        4.0241      376.7214      380.7455     162.181638       1.18819
  23     57.69      218.4892        4.7287      374.8959      379.6246     161.135390       0.98070
  22     68.43      218.3452        5.5595      372.8999      378.4594     160.114184       0.80280
  21     81.20      218.0978        6.5389      370.7496      377.2886     159.190792       0.61016
  20     96.49      217.7343        7.6914      368.4056      376.0970     158.362682       0.45706
  19     114.6      217.2816        9.0380      365.7513      374.7892     157.507686       0.39922
  18     136.5      216.7302       10.6023      362.7231      373.3254     156.595207       0.35087
  17     162.9      216.0661       12.4215      359.1748      371.5963     155.530120       0.34044
  16     196.4      215.1776       14.7162      354.5718      369.2880     154.110441       0.35735
  15     218.7      214.5900       16.1845      351.4437      367.6282     153.038201       0.40709
  14     243.0      213.9560       17.7469      347.7111      365.4580     151.501979       0.53281
  13     269.0      213.2762       19.4016      342.9441      362.3457     149.069448       0.78910
  12     297.5      212.5523       21.1465      337.4137      358.5602     146.007906       0.90802
  11     328.5      211.7893       22.9835      331.1302      354.1137     142.324475       1.00151
  10     361.9      210.9919       24.9072      324.1219      349.0291     138.037196       1.08472
   9     398.1      210.1637       26.9171      316.6066      343.5237     133.359968       1.08969
   8     437.6      209.3138       29.0088      308.5895      337.5983     128.284509       1.08516
   7     480.5      208.4571       31.1768      299.9349      331.1117     122.654583       1.10570
   6     533.0      207.4856       33.7469      289.7021      323.4490     115.963431       1.07639
   5     589.8      206.5487       36.4023      279.3388      315.7411     109.192318       1.00506
   4     651.6      205.6880       39.1311      268.7786      307.9097     102.221690       0.95325
   3     718.7      204.9277       41.9246      258.2837      300.2082      95.280509       0.87231
   2     792.3      204.2941       44.7687      248.0774      292.8461      88.551956       0.77169
   1     891.5      203.7897       48.3823      235.5216      283.9039      80.114217       0.71801
   0    1013.0      203.9795       52.4023      221.4731      273.8754      69.895873       0.70951



 Wavenumbers:  2600. -  3250. cm-1, ATM      1
 LEVEL PRESSURE   UPWARD FLUX   DIFDOWN FLUX  DIRDOWN FLUX  DOWNWARD FLUX   NET FLUX    HEATING RATE
          mb          W/m2          W/m2          W/m2        W/m2          W/m2       degree/day
  51    .06700        0.4728        0.0000        3.5066        3.5066       3.033862       0.00000
  50    .07753        0.4728        0.0000        3.5066        3.5066       3.033854       0.00640
  49    .09103        0.4728        0.0000        3.5066        3.5066       3.033844       0.00627
  48    0.1069        0.4728        0.0000        3.5066        3.5066       3.033832       0.00613
  47    0.1255        0.4728        0.0000        3.5066        3.5066       3.033819       0.00599
  46    0.1487        0.4728        0.0000        3.5066        3.5066       3.033802       0.00607
  45    0.1794        0.4728        0.0000        3.5065        3.5065       3.033780       0.00624
  44    0.2165        0.4728        0.0000        3.5065        3.5065       3.033753       0.00611
  43    0.2613        0.4728        0.0000        3.5065        3.5065       3.033721       0.00598
  42    0.3336        0.4728        0.0000        3.5064        3.5064       3.033668       0.00615
  41    0.4307        0.4728        0.0000        3.5064        3.5064       3.033597       0.00618
  40    0.5894        0.4728        0.0000        3.5062        3.5062       3.033478       0.00633
  39     1.339        0.4728        0.0000        3.5055        3.5055       3.032779       0.00787
  38     1.782        0.4728        0.0000        3.5050        3.5050       3.032249       0.01011
  37     2.292        0.4728        0.0000        3.5043        3.5043       3.031556       0.01147
  36     2.964        0.4728        0.0000        3.5033        3.5033       3.030565       0.01245
  35     3.853        0.4728        0.0000        3.5019        3.5019       3.029188       0.01307
  34     5.035        0.4728        0.0000        3.5001        3.5001       3.027327       0.01329
  33     6.613        0.4728        0.0000        3.4977        3.4977       3.024917       0.01288
  32     8.786        0.4728        0.0000        3.4947        3.4947       3.021946       0.01154
  31     11.80        0.4728        0.0000        3.4911        3.4911       3.018311       0.01018
  30     15.07        0.4728        0.0000        3.4878        3.4878       3.015090       0.00832
  29     18.79        0.4728        0.0000        3.4848        3.4848       3.012026       0.00695
  28     23.16        0.4728        0.0000        3.4816        3.4816       3.008806       0.00623
  27     28.12        0.4728        0.0000        3.4779        3.4779       3.005187       0.00615
  26     33.73        0.4728        0.0000        3.4735        3.4735       3.000720       0.00672
  25     40.54        0.4728        0.0000        3.4671        3.4671       2.994393       0.00785
  24     48.69        0.4728        0.0000        3.4582        3.4583       2.985497       0.00921
  23     57.69        0.4728        0.0000        3.4472        3.4472       2.974447       0.01036
  22     68.43        0.4728        0.0000        3.4329        3.4329       2.960184       0.01121
  21     81.20        0.4728        0.0000        3.4152        3.4152       2.942450       0.01172
  20     96.49        0.4728        0.0000        3.3940        3.3941       2.921299       0.01167
  19     114.6        0.4728        0.0000        3.3692        3.3692       2.896399       0.01163
  18     136.5        0.4728        0.0001        3.3419        3.3420       2.869167       0.01047
  17     162.9        0.4729        0.0001        3.3129        3.3129       2.840068       0.00930
  16     196.4        0.4730        0.0001        3.2793        3.2794       2.806449       0.00846
  15     218.7        0.4731        0.0001        3.2578        3.2578       2.784785       0.00822
  14     243.0        0.4732        0.0001        3.2320        3.2321       2.758836       0.00900
  13     269.0        0.4735        0.0001        3.1968        3.1969       2.723463       0.01147
  12     297.5        0.4739        0.0001        3.1489        3.1491       2.675190       0.01432
  11     328.5        0.4745        0.0001        3.0821        3.0822       2.607721       0.01834
  10     361.9        0.4753        0.0001        2.9902        2.9904       2.515041       0.02345
   9     398.1        0.4765        0.0001        2.8715        2.8716       2.395072       0.02795
   8     437.6        0.4783        0.0001        2.7276        2.7278       2.249504       0.03112
   7     480.5        0.4808        0.0001        2.5595        2.5597       2.078828       0.03352
   6     533.0        0.4851        0.0002        2.3617        2.3619       1.876839       0.03249
   5     589.8        0.4911        0.0002        2.1649        2.1651       1.673969       0.03011
   4     651.6        0.4998        0.0002        1.9608        1.9609       1.461090       0.02911
   3     718.7        0.5117        0.0002        1.7593        1.7595       1.247772       0.02681
   2     792.3        0.5272        0.0002        1.5761        1.5762       1.049010       0.02280
   1     891.5        0.5539        0.0002        1.3714        1.3716       0.817732       0.01968
   0    1013.0        0.6020        0.0002        1.1584        1.1586       0.556577       0.01813



 Wavenumbers:  3250. -  4000. cm-1, ATM      1
 LEVEL PRESSURE   UPWARD FLUX   DIFDOWN FLUX  DIRDOWN FLUX  DOWNWARD FLUX   NET FLUX    HEATING RATE
          mb          W/m2          W/m2          W/m2        W/m2          W/m2       degree/day
  51    .06700        0.0004        0.0000        5.9117        5.9117       5.911230       0.00000
  50    .07753        0.0004        0.0000        5.9075        5.9075       5.907040       3.35808
  49    .09103        0.0004        0.0000        5.9050        5.9050       5.904597       1.52677
  48    0.1069        0.0004        0.0000        5.9032        5.9032       5.902731       0.99346
  47    0.1255        0.0004        0.0000        5.9014        5.9014       5.900973       0.79708
  46    0.1487        0.0004        0.0000        5.8995        5.8995       5.899084       0.68848
  45    0.1794        0.0004        0.0000        5.8974        5.8974       5.896935       0.58983
  44    0.2165        0.0004        0.0000        5.8952        5.8952       5.894818       0.48155
  43    0.2613        0.0004        0.0000        5.8931        5.8931       5.892659       0.40696
  42    0.3336        0.0004        0.0000        5.8899        5.8899       5.889501       0.36820
  41    0.4307        0.0004        0.0000        5.8861        5.8861       5.885664       0.33365
  40    0.5894        0.0004        0.0000        5.8803        5.8803       5.879862       0.30857
  39     1.339        0.0004        0.0000        5.8597        5.8597       5.859264       0.23189
  38     1.782        0.0004        0.0000        5.8513        5.8513       5.850840       0.16039
  37     2.292        0.0004        0.0000        5.8431        5.8431       5.842668       0.13533
  36     2.964        0.0004        0.0000        5.8334        5.8334       5.833029       0.12100
  35     3.853        0.0004        0.0000        5.8213        5.8213       5.820853       0.11555
  34     5.035        0.0004        0.0000        5.8052        5.8052       5.804758       0.11498
  33     6.613        0.0004        0.0000        5.7833        5.7834       5.782937       0.11666
  32     8.786        0.0004        0.0000        5.7531        5.7531       5.752735       0.11729
  31     11.80        0.0004        0.0000        5.7090        5.7090       5.708567       0.12366
  30     15.07        0.0004        0.0000        5.6615        5.6615       5.661102       0.12254
  29     18.79        0.0004        0.0000        5.6093        5.6094       5.608966       0.11821
  28     23.16        0.0004        0.0000        5.5524        5.5524       5.552041       0.11008
  27     28.12        0.0004        0.0000        5.4935        5.4935       5.493161       0.10009
  26     33.73        0.0004        0.0000        5.4348        5.4349       5.434473       0.08824
  25     40.54        0.0004        0.0001        5.3707        5.3708       5.370411       0.07948
  24     48.69        0.0004        0.0001        5.2985        5.2985       5.298178       0.07475
  23     57.69        0.0003        0.0001        5.2215        5.2216       5.221239       0.07212
  22     68.43        0.0003        0.0001        5.1318        5.1319       5.131579       0.07048
  21     81.20        0.0003        0.0001        5.0284        5.0285       5.028150       0.06834
  20     96.49        0.0003        0.0001        4.9122        4.9123       4.912015       0.06410
  19     114.6        0.0003        0.0001        4.7780        4.7782       4.777904       0.06262
  18     136.5        0.0003        0.0002        4.6285        4.6287       4.628426       0.05748
  17     162.9        0.0002        0.0002        4.4406        4.4407       4.440514       0.06006
  16     196.4        0.0002        0.0002        4.1548        4.1550       4.154840       0.07191
  15     218.7        0.0002        0.0002        3.9564        3.9566       3.956460       0.07532
  14     243.0        0.0002        0.0002        3.7055        3.7058       3.705625       0.08700
  13     269.0        0.0001        0.0002        3.3399        3.3401       3.339986       0.11861
  12     297.5        0.0001        0.0002        2.8954        2.8956       2.895497       0.13183
  11     328.5        0.0001        0.0002        2.4388        2.4390       2.438956       0.12413
  10     361.9        0.0001        0.0002        2.0269        2.0271       2.027017       0.10422
   9     398.1        0.0001        0.0002        1.6753        1.6755       1.675429       0.08191
   8     437.6        0.0001        0.0002        1.3592        1.3594       1.359311       0.06759
   7     480.5        0.0000        0.0002        1.0616        1.0618       1.061728       0.05844
   6     533.0        0.0000        0.0001        0.7543        0.7544       0.754394       0.04944
   5     589.8        0.0000        0.0001        0.4951        0.4952       0.495201       0.03847
   4     651.6        0.0000        0.0001        0.2943        0.2943       0.294303       0.02747
   3     718.7        0.0000        0.0001        0.1528        0.1529       0.152807       0.01778
   2     792.3        0.0001        0.0000        0.0658        0.0658       0.065771       0.00998
   1     891.5        0.0002        0.0000        0.0157        0.0157       0.015501       0.00428
   0    1013.0        0.0007        0.0000        0.0013        0.0013       0.000646       0.00103



 Wavenumbers:  4000. -  4650. cm-1, ATM      1
 LEVEL PRESSURE   UPWARD FLUX   DIFDOWN FLUX  DIRDOWN FLUX  DOWNWARD FLUX   NET FLUX    HEATING RATE
          mb          W/m2          W/m2          W/m2        W/m2          W/m2       degree/day
  51    .06700        2.0281        0.0000        6.9421        6.9421       4.913937       0.00000
  50    .07753        2.0281        0.0000        6.9421        6.9421       4.913936       0.00079
  49    .09103        2.0281        0.0000        6.9421        6.9421       4.913935       0.00078
  48    0.1069        2.0281        0.0000        6.9421        6.9421       4.913933       0.00076
  47    0.1255        2.0281        0.0000        6.9421        6.9421       4.913931       0.00074
  46    0.1487        2.0281        0.0000        6.9421        6.9421       4.913929       0.00075
  45    0.1794        2.0281        0.0000        6.9421        6.9421       4.913927       0.00077
  44    0.2165        2.0281        0.0000        6.9421        6.9421       4.913923       0.00076
  43    0.2613        2.0281        0.0000        6.9420        6.9420       4.913919       0.00074
  42    0.3336        2.0281        0.0000        6.9420        6.9420       4.913913       0.00076
  41    0.4307        2.0281        0.0000        6.9420        6.9420       4.913904       0.00077
  40    0.5894        2.0281        0.0000        6.9420        6.9420       4.913889       0.00079
  39     1.339        2.0281        0.0000        6.9419        6.9419       4.913800       0.00100
  38     1.782        2.0281        0.0000        6.9418        6.9419       4.913731       0.00132
  37     2.292        2.0281        0.0000        6.9418        6.9418       4.913637       0.00155
  36     2.964        2.0281        0.0000        6.9416        6.9416       4.913498       0.00175
  35     3.853        2.0281        0.0000        6.9414        6.9414       4.913291       0.00196
  34     5.035        2.0281        0.0000        6.9411        6.9411       4.912987       0.00218
  33     6.613        2.0281        0.0000        6.9406        6.9407       4.912539       0.00239
  32     8.786        2.0281        0.0000        6.9399        6.9400       4.911879       0.00256
  31     11.80        2.0281        0.0000        6.9389        6.9389       4.910844       0.00290
  30     15.07        2.0281        0.0001        6.9377        6.9377       4.909634       0.00312
  29     18.79        2.0281        0.0001        6.9362        6.9363       4.908176       0.00331
  28     23.16        2.0281        0.0001        6.9343        6.9344       4.906372       0.00349
  27     28.12        2.0281        0.0001        6.9321        6.9323       4.904199       0.00370
  26     33.73        2.0280        0.0001        6.9294        6.9296       4.901532       0.00401
  25     40.54        2.0280        0.0002        6.9258        6.9260       4.897936       0.00446
  24     48.69        2.0280        0.0002        6.9210        6.9212       4.893176       0.00493
  23     57.69        2.0280        0.0002        6.9154        6.9156       4.887576       0.00525
  22     68.43        2.0280        0.0003        6.9083        6.9086       4.880615       0.00547
  21     81.20        2.0280        0.0003        6.8998        6.9001       4.872103       0.00562
  20     96.49        2.0280        0.0004        6.8894        6.8898       4.861822       0.00567
  19     114.6        2.0280        0.0005        6.8765        6.8770       4.848951       0.00601
  18     136.5        2.0281        0.0005        6.8610        6.8615       4.833423       0.00597
  17     162.9        2.0282        0.0006        6.8417        6.8423       4.814102       0.00618
  16     196.4        2.0284        0.0008        6.8147        6.8154       4.786991       0.00682
  15     218.7        2.0287        0.0009        6.7948        6.7957       4.767014       0.00758
  14     243.0        2.0291        0.0009        6.7698        6.7707       4.741666       0.00879
  13     269.0        2.0297        0.0010        6.7349        6.7359       4.706194       0.01151
  12     297.5        2.0307        0.0012        6.6869        6.6880       4.657306       0.01450
  11     328.5        2.0321        0.0013        6.6194        6.6206       4.588493       0.01871
  10     361.9        2.0340        0.0014        6.5295        6.5308       4.496796       0.02320
   9     398.1        2.0365        0.0015        6.4202        6.4217       4.385175       0.02601
   8     437.6        2.0398        0.0016        6.2962        6.2978       4.257976       0.02720
   7     480.5        2.0442        0.0017        6.1555        6.1572       4.112991       0.02847
   6     533.0        2.0513        0.0019        5.9675        5.9694       3.918102       0.03135
   5     589.8        2.0615        0.0020        5.7368        5.7388       3.677295       0.03574
   4     651.6        2.0762        0.0022        5.4662        5.4684       3.392217       0.03899
   3     718.7        2.0962        0.0023        5.1912        5.1935       3.097283       0.03707
   2     792.3        2.1220        0.0025        4.9395        4.9419       2.819911       0.03181
   1     891.5        2.1661        0.0026        4.6486        4.6513       2.485122       0.02849
   0    1013.0        2.2451        0.0028        4.3179        4.3207       2.075621       0.02843



 Wavenumbers:  4650. -  5150. cm-1, ATM      1
 LEVEL PRESSURE   UPWARD FLUX   DIFDOWN FLUX  DIRDOWN FLUX  DOWNWARD FLUX   NET FLUX    HEATING RATE
          mb          W/m2          W/m2          W/m2        W/m2          W/m2       degree/day
  51    .06700        1.3692        0.0000        6.5710        6.5710       5.201822       0.00000
  50    .07753        1.3692        0.0000        6.5708        6.5708       5.201587       0.18887
  49    .09103        1.3692        0.0000        6.5705        6.5705       5.201293       0.18362
  48    0.1069        1.3692        0.0000        6.5701        6.5701       5.200958       0.17806
  47    0.1255        1.3692        0.0000        6.5697        6.5697       5.200578       0.17238
  46    0.1487        1.3692        0.0000        6.5693        6.5693       5.200104       0.17268
  45    0.1794        1.3692        0.0000        6.5686        6.5686       5.199468       0.17473
  44    0.2165        1.3692        0.0000        6.5679        6.5679       5.198730       0.16788
  43    0.2613        1.3692        0.0000        6.5670        6.5670       5.197877       0.16078
  42    0.3336        1.3692        0.0000        6.5657        6.5657       5.196514       0.15894
  41    0.4307        1.3692        0.0000        6.5640        6.5640       5.194792       0.14971
  40    0.5894        1.3692        0.0000        6.5613        6.5613       5.192176       0.13913
  39     1.339        1.3692        0.0000        6.5516        6.5516       5.182398       0.11008
  38     1.782        1.3692        0.0000        6.5473        6.5473       5.178182       0.08026
  37     2.292        1.3692        0.0000        6.5434        6.5435       5.174295       0.06438
  36     2.964        1.3692        0.0000        6.5395        6.5395       5.170341       0.04964
  35     3.853        1.3692        0.0000        6.5355        6.5356       5.166398       0.03742
  34     5.035        1.3691        0.0000        6.5315        6.5315       5.162396       0.02859
  33     6.613        1.3691        0.0000        6.5271        6.5271       5.158001       0.02349
  32     8.786        1.3691        0.0001        6.5216        6.5216       5.152505       0.02134
  31     11.80        1.3691        0.0001        6.5135        6.5135       5.144426       0.02262
  30     15.07        1.3691        0.0001        6.5041        6.5042       5.135056       0.02419
  29     18.79        1.3691        0.0001        6.4925        6.4926       5.123538       0.02611
  28     23.16        1.3691        0.0001        6.4779        6.4780       5.108943       0.02822
  27     28.12        1.3691        0.0002        6.4599        6.4600       5.090964       0.03056
  26     33.73        1.3691        0.0002        6.4384        6.4386       5.069528       0.03223
  25     40.54        1.3691        0.0002        6.4112        6.4115       5.042396       0.03366
  24     48.69        1.3691        0.0003        6.3775        6.3778       5.008750       0.03482
  23     57.69        1.3691        0.0003        6.3404        6.3407       4.971647       0.03478
  22     68.43        1.3691        0.0004        6.2971        6.2975       4.928442       0.03397
  21     81.20        1.3691        0.0005        6.2483        6.2487       4.879606       0.03227
  20     96.49        1.3692        0.0006        6.1948        6.1954       4.826207       0.02947
  19     114.6        1.3693        0.0007        6.1381        6.1388       4.769534       0.02646
  18     136.5        1.3694        0.0008        6.0790        6.0798       4.710371       0.02275
  17     162.9        1.3696        0.0009        6.0160        6.0170       4.647336       0.02015
  16     196.4        1.3700        0.0011        5.9399        5.9410       4.570972       0.01922
  15     218.7        1.3703        0.0012        5.8896        5.8908       4.520535       0.01915
  14     243.0        1.3707        0.0013        5.8322        5.8335       4.462767       0.02004
  13     269.0        1.3714        0.0015        5.7624        5.7639       4.392438       0.02281
  12     297.5        1.3724        0.0016        5.6767        5.6783       4.305899       0.02567
  11     328.5        1.3738        0.0017        5.5726        5.5743       4.200497       0.02866
  10     361.9        1.3758        0.0019        5.4473        5.4492       4.073446       0.03215
   9     398.1        1.3784        0.0020        5.2995        5.3015       3.923136       0.03502
   8     437.6        1.3819        0.0022        5.1275        5.1296       3.747747       0.03750
   7     480.5        1.3867        0.0023        4.9290        4.9313       3.544600       0.03990
   6     533.0        1.3942        0.0025        4.6794        4.6819       3.287607       0.04134
   5     589.8        1.4047        0.0026        4.4188        4.4214       3.016670       0.04022
   4     651.6        1.4194        0.0028        4.1521        4.1548       2.735448       0.03846
   3     718.7        1.4389        0.0029        3.8929        3.8958       2.456912       0.03500
   2     792.3        1.4642        0.0030        3.6469        3.6499       2.185736       0.03110
   1     891.5        1.5071        0.0032        3.3535        3.3567       1.849576       0.02861
   0    1013.0        1.5805        0.0034        3.0383        3.0417       1.461174       0.02697



 Wavenumbers:  5150. -  6150. cm-1, ATM      1
 LEVEL PRESSURE   UPWARD FLUX   DIFDOWN FLUX  DIRDOWN FLUX  DOWNWARD FLUX   NET FLUX    HEATING RATE
          mb          W/m2          W/m2          W/m2        W/m2          W/m2       degree/day
  51    .06700        3.6964        0.0000       16.4735       16.4735      12.777085       0.00000
  50    .07753        3.6964        0.0000       16.4735       16.4735      12.777050       0.02762
  49    .09103        3.6964        0.0000       16.4734       16.4734      12.777005       0.02811
  48    0.1069        3.6964        0.0000       16.4734       16.4734      12.776952       0.02860
  47    0.1255        3.6964        0.0000       16.4733       16.4733      12.776888       0.02905
  46    0.1487        3.6964        0.0000       16.4732       16.4732      12.776804       0.03060
  45    0.1794        3.6964        0.0000       16.4731       16.4731      12.776685       0.03270
  44    0.2165        3.6964        0.0000       16.4730       16.4730      12.776538       0.03332
  43    0.2613        3.6964        0.0000       16.4728       16.4728      12.776359       0.03377
  42    0.3336        3.6964        0.0000       16.4725       16.4725      12.776053       0.03565
  41    0.4307        3.6964        0.0000       16.4720       16.4720      12.775634       0.03646
  40    0.5894        3.6964        0.0000       16.4713       16.4713      12.774933       0.03730
  39     1.339        3.6964        0.0000       16.4679       16.4679      12.771523       0.03839
  38     1.782        3.6964        0.0000       16.4659       16.4659      12.769523       0.03808
  37     2.292        3.6964        0.0001       16.4635       16.4636      12.767230       0.03797
  36     2.964        3.6964        0.0001       16.4605       16.4606      12.764259       0.03730
  35     3.853        3.6964        0.0001       16.4567       16.4568      12.760403       0.03659
  34     5.035        3.6963        0.0001       16.4516       16.4517      12.755403       0.03572
  33     6.613        3.6963        0.0002       16.4451       16.4452      12.748937       0.03457
  32     8.786        3.6963        0.0002       16.4367       16.4369      12.740618       0.03231
  31     11.80        3.6962        0.0003       16.4254       16.4257      12.729455       0.03125
  30     15.07        3.6962        0.0004       16.4141       16.4145      12.718353       0.02866
  29     18.79        3.6961        0.0005       16.4024       16.4029      12.706815       0.02616
  28     23.16        3.6961        0.0006       16.3900       16.3906      12.694532       0.02375
  27     28.12        3.6960        0.0008       16.3771       16.3779      12.681842       0.02157
  26     33.73        3.6959        0.0009       16.3641       16.3650      12.669083       0.01918
  25     40.54        3.6959        0.0011       16.3502       16.3513      12.655399       0.01698
  24     48.69        3.6958        0.0013       16.3354       16.3367      12.640866       0.01504
  23     57.69        3.6957        0.0016       16.3211       16.3226      12.626896       0.01310
  22     68.43        3.6957        0.0018       16.3062       16.3081      12.612419       0.01138
  21     81.20        3.6956        0.0022       16.2903       16.2925      12.596915       0.01024
  20     96.49        3.6955        0.0026       16.2726       16.2752      12.579705       0.00950
  19     114.6        3.6954        0.0031       16.2521       16.2552      12.559724       0.00933
  18     136.5        3.6954        0.0037       16.2245       16.2282      12.532858       0.01033
  17     162.9        3.6953        0.0044       16.1747       16.1791      12.483819       0.01567
  16     196.4        3.6952        0.0052       16.0518       16.0571      12.361868       0.03070
  15     218.7        3.6952        0.0058       15.8984       15.9042      12.208981       0.05805
  14     243.0        3.6952        0.0064       15.6153       15.6216      11.926400       0.09801
  13     269.0        3.6953        0.0069       15.1390       15.1459      11.450546       0.15436
  12     297.5        3.6956        0.0074       14.5779       14.5853      10.889689       0.16634
  11     328.5        3.6961        0.0079       13.8780       13.8859      10.189801       0.19030
  10     361.9        3.6969        0.0083       13.0814       13.0897       9.392828       0.20164
   9     398.1        3.6982        0.0087       12.2728       12.2815       8.583366       0.18859
   8     437.6        3.7000        0.0090       11.4776       11.4866       7.786567       0.17036
   7     480.5        3.7029        0.0093       10.7300       10.7393       7.036429       0.14732
   6     533.0        3.7079        0.0097       10.0326       10.0423       6.334491       0.11292
   5     589.8        3.7155        0.0102        9.5050        9.5153       5.799799       0.07937
   4     651.6        3.7271        0.0108        9.0814        9.0922       5.365110       0.05944
   3     718.7        3.7437        0.0115        8.7024        8.7140       4.970225       0.04963
   2     792.3        3.7663        0.0123        8.3379        8.3503       4.583982       0.04430
   1     891.5        3.8075        0.0133        7.9064        7.9196       4.112179       0.04015
   0    1013.0        3.8913        0.0144        7.4741        7.4885       3.597225       0.03576



 Wavenumbers:  6150. -  7700. cm-1, ATM      1
 LEVEL PRESSURE   UPWARD FLUX   DIFDOWN FLUX  DIRDOWN FLUX  DOWNWARD FLUX   NET FLUX    HEATING RATE
          mb          W/m2          W/m2          W/m2        W/m2          W/m2       degree/day
  51    .06700        5.4224        0.0000       30.4684       30.4684      25.045946       0.00000
  50    .07753        5.4224        0.0000       30.4683       30.4683      25.045895       0.04144
  49    .09103        5.4224        0.0000       30.4683       30.4683      25.045828       0.04174
  48    0.1069        5.4224        0.0000       30.4682       30.4682      25.045749       0.04202
  47    0.1255        5.4224        0.0000       30.4681       30.4681      25.045656       0.04227
  46    0.1487        5.4224        0.0000       30.4680       30.4680      25.045535       0.04411
  45    0.1794        5.4224        0.0000       30.4678       30.4678      25.045365       0.04669
  44    0.2165        5.4224        0.0000       30.4676       30.4676      25.045158       0.04715
  43    0.2613        5.4224        0.0000       30.4673       30.4673      25.044906       0.04744
  42    0.3336        5.4224        0.0000       30.4669       30.4669      25.044479       0.04974
  41    0.4307        5.4224        0.0000       30.4663       30.4663      25.043898       0.05052
  40    0.5894        5.4224        0.0001       30.4653       30.4653      25.042931       0.05146
  39     1.339        5.4223        0.0001       30.4604       30.4606      25.038247       0.05273
  38     1.782        5.4223        0.0002       30.4576       30.4578      25.035497       0.05235
  37     2.292        5.4222        0.0003       30.4543       30.4546      25.032339       0.05231
  36     2.964        5.4222        0.0003       30.4501       30.4504      25.028231       0.05156
  35     3.853        5.4221        0.0004       30.4445       30.4449      25.022874       0.05084
  34     5.035        5.4220        0.0006       30.4373       30.4378      25.015874       0.05000
  33     6.613        5.4218        0.0007       30.4278       30.4285      25.006727       0.04890
  32     8.786        5.4216        0.0010       30.4154       30.4164      24.994774       0.04642
  31     11.80        5.4213        0.0013       30.3984       30.3997      24.978389       0.04587
  30     15.07        5.4210        0.0017       30.3810       30.3827      24.961675       0.04315
  29     18.79        5.4206        0.0021       30.3623       30.3644      24.943774       0.04059
  28     23.16        5.4202        0.0026       30.3417       30.3443      24.924091       0.03806
  27     28.12        5.4197        0.0032       30.3196       30.3227      24.902991       0.03587
  26     33.73        5.4192        0.0038       30.2965       30.3003      24.881072       0.03296
  25     40.54        5.4186        0.0046       30.2708       30.2753      24.856735       0.03019
  24     48.69        5.4178        0.0055       30.2423       30.2477      24.829958       0.02771
  23     57.69        5.4169        0.0065       30.2139       30.2203      24.803391       0.02490
  22     68.43        5.4159        0.0077       30.1834       30.1910      24.775116       0.02223
  21     81.20        5.4147        0.0091       30.1500       30.1591      24.744386       0.02031
  20     96.49        5.4133        0.0108       30.1126       30.1234      24.710166       0.01889
  19     114.6        5.4115        0.0128       30.0695       30.0823      24.670779       0.01839
  18     136.5        5.4095        0.0152       30.0139       30.0291      24.619621       0.01967
  17     162.9        5.4071        0.0181       29.9225       29.9405      24.533434       0.02755
  16     196.4        5.4040        0.0217       29.7333       29.7550      24.351028       0.04591
  15     218.7        5.4020        0.0240       29.5259       29.5499      24.147879       0.07713
  14     243.0        5.3999        0.0265       29.1375       29.1639      23.764014       0.13314
  13     269.0        5.3979        0.0288       28.3800       28.4088      23.010948       0.24429
  12     297.5        5.3960        0.0310       27.3895       27.4206      22.024594       0.29254
  11     328.5        5.3944        0.0331       26.2257       26.2588      20.864409       0.31545
  10     361.9        5.3935        0.0351       24.8453       24.8804      19.486894       0.34853
   9     398.1        5.3935        0.0368       23.3471       23.3838      17.990271       0.34868
   8     437.6        5.3951        0.0382       21.7966       21.8348      16.439691       0.33152
   7     480.5        5.3994        0.0394       20.1977       20.2371      14.837635       0.31464
   6     533.0        5.4092        0.0405       18.4969       18.5375      13.128274       0.27498
   5     589.8        5.4265        0.0417       16.9754       17.0171      11.590560       0.22825
   4     651.6        5.4556        0.0429       15.6022       15.6451      10.189501       0.19160
   3     718.7        5.4991        0.0443       14.4232       14.4675       8.968391       0.15346
   2     792.3        5.5594        0.0459       13.4386       13.4845       7.925052       0.11966
   1     891.5        5.6710        0.0481       12.3736       12.4217       6.750657       0.09994
   0    1013.0        5.8940        0.0506       11.2911       11.3417       5.447726       0.09047



 Wavenumbers:  7700. -  8050. cm-1, ATM      1
 LEVEL PRESSURE   UPWARD FLUX   DIFDOWN FLUX  DIRDOWN FLUX  DOWNWARD FLUX   NET FLUX    HEATING RATE
          mb          W/m2          W/m2          W/m2        W/m2          W/m2       degree/day
  51    .06700        2.8152        0.0000        7.2006        7.2006       4.385374       0.00000
  50    .07753        2.8152        0.0000        7.2006        7.2006       4.385355       0.01565
  49    .09103        2.8152        0.0000        7.2005        7.2005       4.385330       0.01534
  48    0.1069        2.8152        0.0000        7.2005        7.2005       4.385302       0.01501
  47    0.1255        2.8152        0.0000        7.2005        7.2005       4.385270       0.01469
  46    0.1487        2.8152        0.0000        7.2004        7.2005       4.385229       0.01491
  45    0.1794        2.8152        0.0000        7.2004        7.2004       4.385173       0.01534
  44    0.2165        2.8152        0.0000        7.2003        7.2003       4.385107       0.01505
  43    0.2613        2.8152        0.0000        7.2003        7.2003       4.385028       0.01476
  42    0.3336        2.8152        0.0000        7.2001        7.2001       4.384899       0.01511
  41    0.4307        2.8153        0.0000        7.2000        7.2000       4.384727       0.01494
  40    0.5894        2.8153        0.0000        7.1997        7.1997       4.384446       0.01492
  39     1.339        2.8154        0.0001        7.1984        7.1985       4.383119       0.01494
  38     1.782        2.8154        0.0001        7.1977        7.1978       4.382340       0.01484
  37     2.292        2.8155        0.0001        7.1968        7.1969       4.381438       0.01494
  36     2.964        2.8156        0.0001        7.1957        7.1958       4.380254       0.01486
  35     3.853        2.8157        0.0002        7.1942        7.1944       4.378691       0.01483
  34     5.035        2.8159        0.0002        7.1922        7.1925       4.376616       0.01482
  33     6.613        2.8161        0.0003        7.1896        7.1899       4.373847       0.01480
  32     8.786        2.8163        0.0004        7.1860        7.1865       4.370120       0.01447
  31     11.80        2.8167        0.0006        7.1810        7.1815       4.364801       0.01489
  30     15.07        2.8172        0.0007        7.1755        7.1763       4.359104       0.01471
  29     18.79        2.8176        0.0009        7.1694        7.1703       4.352689       0.01455
  28     23.16        2.8182        0.0011        7.1623        7.1634       4.345222       0.01444
  27     28.12        2.8189        0.0013        7.1542        7.1556       4.336719       0.01445
  26     33.73        2.8196        0.0016        7.1452        7.1468       4.327250       0.01424
  25     40.54        2.8205        0.0019        7.1344        7.1364       4.315876       0.01411
  24     48.69        2.8216        0.0023        7.1215        7.1238       4.302258       0.01409
  23     57.69        2.8227        0.0027        7.1074        7.1102       4.287420       0.01391
  22     68.43        2.8242        0.0032        7.0909        7.0941       4.269910       0.01377
  21     81.20        2.8259        0.0038        7.0713        7.0752       4.249276       0.01363
  20     96.49        2.8279        0.0045        7.0484        7.0529       4.225003       0.01340
  19     114.6        2.8304        0.0054        7.0217        7.0270       4.196614       0.01326
  18     136.5        2.8334        0.0063        6.9906        6.9969       4.163544       0.01272
  17     162.9        2.8370        0.0075        6.9544        6.9619       4.124933       0.01234
  16     196.4        2.8417        0.0090        6.9087        6.9178       4.076042       0.01231
  15     218.7        2.8449        0.0100        6.8794        6.8894       4.044545       0.01196
  14     243.0        2.8484        0.0111        6.8481        6.8592       4.010802       0.01170
  13     269.0        2.8523        0.0123        6.8147        6.8270       3.974679       0.01172
  12     297.5        2.8566        0.0135        6.7791        6.7926       3.935972       0.01148
  11     328.5        2.8614        0.0149        6.7409        6.7558       3.894364       0.01131
  10     361.9        2.8669        0.0163        6.7002        6.7165       3.849590       0.01133
   9     398.1        2.8730        0.0179        6.6563        6.6741       3.801112       0.01129
   8     437.6        2.8800        0.0195        6.6089        6.6284       3.748361       0.01128
   7     480.5        2.8881        0.0213        6.5570        6.5783       3.690170       0.01143
   6     533.0        2.8990        0.0235        6.4915        6.5149       3.615925       0.01194
   5     589.8        2.9121        0.0258        6.4182        6.4440       3.531965       0.01246
   4     651.6        2.9278        0.0282        6.3359        6.3641       3.436353       0.01308
   3     718.7        2.9466        0.0309        6.2441        6.2750       3.328440       0.01356
   2     792.3        2.9686        0.0336        6.1437        6.1773       3.208726       0.01373
   1     891.5        3.0018        0.0372        6.0042        6.0414       3.039628       0.01439
   0    1013.0        3.0489        0.0415        5.8249        5.8664       2.817506       0.01542



 Wavenumbers:  8050. - 12850. cm-1, ATM      1
 LEVEL PRESSURE   UPWARD FLUX   DIFDOWN FLUX  DIRDOWN FLUX  DOWNWARD FLUX   NET FLUX    HEATING RATE
          mb          W/m2          W/m2          W/m2        W/m2          W/m2       degree/day
  51    .06700       35.9045        0.0000      100.8135      100.8135      64.909025       0.00000
  50    .07753       35.9045        0.0000      100.8135      100.8135      64.909025       0.00000
  49    .09103       35.9044        0.0001      100.8134      100.8135      64.909025       0.00000
  48    0.1069       35.9044        0.0001      100.8134      100.8134      64.909025      -0.00000
  47    0.1255       35.9044        0.0001      100.8133      100.8134      64.909025       0.00000
  46    0.1487       35.9044        0.0002      100.8132      100.8134      64.909025      -0.00000
  45    0.1794       35.9043        0.0003      100.8131      100.8133      64.909025      -0.00000
  44    0.2165       35.9042        0.0003      100.8129      100.8133      64.909025       0.00000
  43    0.2613       35.9042        0.0004      100.8127      100.8132      64.909025       0.00000
  42    0.3336       35.9041        0.0006      100.8125      100.8131      64.909025      -0.00000
  41    0.4307       35.9039        0.0008      100.8121      100.8129      64.909025       0.00000
  40    0.5894       35.9036        0.0012      100.8115      100.8127      64.909025      -0.00000
  39     1.339       35.9024        0.0029      100.8085      100.8114      64.909025       0.00000
  38     1.782       35.9017        0.0039      100.8068      100.8107      64.909025      -0.00000
  37     2.292       35.9008        0.0051      100.8047      100.8099      64.909025       0.00000
  36     2.964       35.8997        0.0067      100.8021      100.8088      64.909025       0.00000
  35     3.853       35.8983        0.0087      100.7986      100.8073      64.909025       0.00000
  34     5.035       35.8964        0.0114      100.7940      100.8054      64.909025      -0.00000
  33     6.613       35.8938        0.0150      100.7878      100.8028      64.909025       0.00000
  32     8.786       35.8903        0.0199      100.7794      100.7993      64.909025       0.00000
  31     11.80       35.8853        0.0269      100.7674      100.7944      64.909025       0.00000
  30     15.07       35.8800        0.0344      100.7546      100.7890      64.909025       0.00000
  29     18.79       35.8739        0.0430      100.7400      100.7830      64.909025      -0.00000
  28     23.16       35.8668        0.0529      100.7230      100.7759      64.909025      -0.00000
  27     28.12       35.8587        0.0643      100.7035      100.7678      64.909025       0.00000
  26     33.73       35.8497        0.0770      100.6817      100.7587      64.909025      -0.00000
  25     40.54       35.8387        0.0925      100.6552      100.7477      64.909025      -0.00000
  24     48.69       35.8254        0.1111      100.6234      100.7344      64.909025       0.00000
  23     57.69       35.8108        0.1316      100.5883      100.7199      64.909025       0.00000
  22     68.43       35.7934        0.1560      100.5464      100.7024      64.909025       0.00000
  21     81.20       35.7727        0.1851      100.4965      100.6817      64.909025      -0.00000
  20     96.49       35.7479        0.2199      100.4370      100.6569      64.909025       0.00000
  19     114.6       35.7185        0.2613      100.3585      100.6198      64.901310       0.00360
  18     136.5       35.6835        0.3104      100.2634      100.5738      64.890208       0.00427
  17     162.9       35.6419        0.3690      100.1407      100.5096      64.867690       0.00720
  16     196.4       35.5879        0.4450       99.9505      100.3955      64.807576       0.01513
  15     218.7       35.5524        0.4950       99.7889      100.2839      64.731481       0.02889
  14     243.0       35.5140        0.5492       99.5472      100.0964      64.582421       0.05170
  13     269.0       35.4729        0.6077       99.1452       99.7529      64.279987       0.09811
  12     297.5       35.4297        0.6704       98.5975       99.2678      63.838186       0.13103
  11     328.5       35.3849        0.7375       97.8659       98.6034      63.218486       0.16849
  10     361.9       35.3399        0.8089       96.8848       97.6936      62.353762       0.21878
   9     398.1       35.2961        0.8842       95.6330       96.5171      61.221023       0.26390
   8     437.6       35.2566        0.9630       94.0655       95.0285      59.771846       0.30984
   7     480.5       35.2272        1.0444       92.0807       93.1251      57.897920       0.36803
   6     533.0       35.2128        1.1405       89.4449       90.5854      55.372536       0.40625
   5     589.8       35.2296        1.2397       86.5544       87.7941      52.564555       0.41680
   4     651.6       35.2952        1.3416       83.4174       84.7589      49.463736       0.42405
   3     718.7       35.4207        1.4467       80.2037       81.6504      46.229784       0.40642
   2     792.3       35.6157        1.5559       77.0811       78.6370      43.021314       0.36798
   1     891.5       36.0079        1.6969       73.2645       74.9614      38.953542       0.34615
   0    1013.0       36.8168        1.8540       68.9425       70.7965      33.979664       0.34536



 Wavenumbers: 12850. - 16000. cm-1, ATM      1
 LEVEL PRESSURE   UPWARD FLUX   DIFDOWN FLUX  DIRDOWN FLUX  DOWNWARD FLUX   NET FLUX    HEATING RATE
          mb          W/m2          W/m2          W/m2        W/m2          W/m2       degree/day
  51    .06700       39.6824        0.0000       63.1686       63.1686      23.486218       0.00000
  50    .07753       39.6823        0.0001       63.1677       63.1678      23.485437       0.62556
  49    .09103       39.6823        0.0001       63.1666       63.1668      23.484464       0.60806
  48    0.1069       39.6823        0.0002       63.1654       63.1656      23.483356       0.58978
  47    0.1255       39.6822        0.0003       63.1640       63.1643      23.482096       0.57145
  46    0.1487       39.6822        0.0004       63.1623       63.1627      23.480523       0.57322
  45    0.1794       39.6822        0.0006       63.1600       63.1606      23.478414       0.57911
  44    0.2165       39.6821        0.0008       63.1573       63.1581      23.475973       0.55516
  43    0.2613       39.6821        0.0010       63.1542       63.1552      23.473157       0.53088
  42    0.3336       39.6820        0.0014       63.1493       63.1507      23.468667       0.52350
  41    0.4307       39.6820        0.0019       63.1431       63.1451      23.463047       0.48865
  40    0.5894       39.6821        0.0028       63.1338       63.1366      23.454523       0.45325
  39     1.339       39.6837        0.0067       63.0956       63.1023      23.418573       0.40474
  38     1.782       39.6858        0.0091       63.0740       63.0831      23.397325       0.40453
  37     2.292       39.6891        0.0118       63.0477       63.0594      23.370328       0.44714
  36     2.964       39.6950        0.0153       63.0095       63.0248      23.329853       0.50808
  35     3.853       39.7048        0.0200       62.9533       62.9732      23.268378       0.58341
  34     5.035       39.7200        0.0262       62.8725       62.8987      23.178622       0.64118
  33     6.613       39.7414        0.0344       62.7621       62.7965      23.055082       0.66045
  32     8.786       39.7691        0.0455       62.6182       62.6638      22.894706       0.62284
  31     11.80       39.8045        0.0614       62.4284       62.4898      22.685206       0.58654
  30     15.07       39.8378        0.0784       62.2426       62.3210      22.483148       0.52167
  29     18.79       39.8712        0.0975       62.0493       62.1468      22.275682       0.47039
  28     23.16       39.9051        0.1199       61.8424       61.9623      22.057213       0.42245
  27     28.12       39.9381        0.1453       61.6278       61.7731      21.835032       0.37769
  26     33.73       39.9668        0.1738       61.4177       61.5914      21.624681       0.31627
  25     40.54       39.9918        0.2081       61.1983       61.4064      21.414601       0.26063
  24     48.69       40.0126        0.2494       60.9680       61.2174      21.204749       0.21716
  23     57.69       40.0265        0.2947       60.7478       61.0425      21.016023       0.17690
  22     68.43       40.0332        0.3486       60.5202       60.8688      20.835614       0.14183
  21     81.20       40.0278        0.4129       60.2938       60.7067      20.678857       0.10358
  20     96.49       40.0090        0.4893       60.0643       60.5536      20.544602       0.07410
  19     114.6       39.9879        0.5808       59.8078       60.3886      20.400622       0.06723
  18     136.5       39.9572        0.6889       59.5157       60.2047      20.247470       0.05889
  17     162.9       39.9153        0.8174       59.1770       59.9945      20.079158       0.05380
  16     196.4       39.8498        0.9837       58.7604       59.7441      19.894259       0.04654
  15     218.7       39.8028        1.0926       58.4948       59.5874      19.784543       0.04166
  14     243.0       39.7500        1.2107       58.2089       59.4196      19.669641       0.03985
  13     269.0       39.6911        1.3385       57.9006       59.2390      19.547899       0.03949
  12     297.5       39.6265        1.4762       57.5668       59.0430      19.416557       0.03895
  11     328.5       39.5570        1.6247       57.2005       58.8252      19.268264       0.04032
  10     361.9       39.4834        1.7842       56.7963       58.5805      19.097168       0.04329
   9     398.1       39.4064        1.9553       56.3475       58.3028      18.896333       0.04679
   8     437.6       39.3281        2.1382       55.8422       57.9804      18.652292       0.05218
   7     480.5       39.2519        2.3331       55.2625       57.5956      18.343721       0.06060
   6     533.0       39.1712        2.5711       54.4972       57.0682      17.897024       0.07186
   5     589.8       39.1006        2.8243       53.6307       56.4550      17.354438       0.08054
   4     651.6       39.0470        3.0920       52.6606       55.7526      16.705541       0.08874
   3     718.7       39.0141        3.3745       51.6100       54.9845      15.970368       0.09239
   2     792.3       39.0066        3.6716       50.5019       54.1735      15.166883       0.09215
   1     891.5       39.0523        4.0634       49.0197       53.0831      14.030821       0.09667
   0    1013.0       39.2209        4.5182       47.2289       51.7471      12.526159       0.10448



 Wavenumbers: 16000. - 22650. cm-1, ATM      1
 LEVEL PRESSURE   UPWARD FLUX   DIFDOWN FLUX  DIRDOWN FLUX  DOWNWARD FLUX   NET FLUX    HEATING RATE
          mb          W/m2          W/m2          W/m2        W/m2          W/m2       degree/day
  51    .06700       84.4393        0.0000      100.7153      100.7153      16.275992       0.00000
  50    .07753       84.4392        0.0003      100.7147      100.7151      16.275871       0.09708
  49    .09103       84.4391        0.0008      100.7140      100.7148      16.275695       0.11011
  48    0.1069       84.4389        0.0012      100.7131      100.7144      16.275459       0.12556
  47    0.1255       84.4388        0.0018      100.7121      100.7139      16.275144       0.14312
  46    0.1487       84.4386        0.0025      100.7108      100.7133      16.274678       0.16959
  45    0.1794       84.4384        0.0035      100.7089      100.7123      16.273951       0.19968
  44    0.2165       84.4382        0.0046      100.7066      100.7112      16.272964       0.22442
  43    0.2613       84.4380        0.0059      100.7037      100.7096      16.271626       0.25229
  42    0.3336       84.4378        0.0082      100.6987      100.7069      16.269081       0.29669
  41    0.4307       84.4377        0.0111      100.6918      100.7029      16.265246       0.33350
  40    0.5894       84.4378        0.0160      100.6797      100.6957      16.257931       0.38900
  39     1.339       84.4444        0.0388      100.6095      100.6483      16.203896       0.60833
  38     1.782       84.4528        0.0522      100.5585      100.6107      16.157879       0.87610
  37     2.292       84.4667        0.0677      100.4903      100.5580      16.091287       1.10293
  36     2.964       84.4914        0.0881      100.3868      100.4749      15.983455       1.35362
  35     3.853       84.5331        0.1150      100.2306      100.3456      15.812465       1.62272
  34     5.035       84.5975        0.1506      100.0045      100.1551      15.557618       1.82052
  33     6.613       84.6880        0.1981       99.6939       99.8920      15.203957       1.89067
  32     8.786       84.8054        0.2620       99.2881       99.5501      14.744635       1.78384
  31     11.80       84.9559        0.3531       98.7496       99.1027      14.146829       1.67367
  30     15.07       85.0971        0.4506       98.2198       98.6704      13.573361       1.48058
  29     18.79       85.2382        0.5603       97.6651       98.2255      12.987258       1.32888
  28     23.16       85.3820        0.6881       97.0671       97.7552      12.373232       1.18733
  27     28.12       85.5217        0.8336       96.4406       97.2742      11.752437       1.05531
  26     33.73       85.6427        0.9960       95.8179       96.8139      11.171135       0.87400
  25     40.54       85.7480        1.1915       95.1548       96.3463      10.598390       0.71055
  24     48.69       85.8351        1.4264       94.4420       95.8683      10.033201       0.58488
  23     57.69       85.8926        1.6833       93.7416       95.4249       9.532312       0.46951
  22     68.43       85.9199        1.9882       92.9954       94.9835       9.063607       0.36847
  21     81.20       85.8961        2.3501       92.2231       94.5732       8.677111       0.25539
  20     96.49       85.8156        2.7794       91.4110       94.1904       8.374754       0.16688
  19     114.6       85.6945        3.2858       90.5070       93.7928       8.098362       0.12906
  18     136.5       85.5341        3.8812       89.4803       93.3615       7.827398       0.10419
  17     162.9       85.3286        4.5834       88.3022       92.8856       7.557006       0.08643
  16     196.4       85.0298        5.4840       86.8606       92.3447       7.314856       0.06095
  15     218.7       84.8225        6.0693       85.9492       92.0185       7.196019       0.04512
  14     243.0       84.5930        6.7000       84.9789       91.6790       7.085972       0.03817
  13     269.0       84.3401        7.3771       83.9493       91.3264       6.986281       0.03234
  12     297.5       84.0634        8.1015       82.8589       90.9605       6.897087       0.02645
  11     328.5       83.7645        8.8758       81.6982       90.5741       6.809529       0.02381
  10     361.9       83.4437        9.6999       80.4669       90.1668       6.723081       0.02187
   9     398.1       83.1003       10.5757       79.1611       89.7368       6.636507       0.02017
   8     437.6       82.7351       11.5037       77.7777       89.2815       6.546405       0.01926
   7     480.5       82.3485       12.4844       76.3136       88.7981       6.449584       0.01902
   6     533.0       81.8806       13.6718       74.5359       88.2077       6.327084       0.01971
   5     589.8       81.3878       14.9278       72.6469       87.5747       6.186891       0.02081
   4     651.6       80.8729       16.2504       70.6456       86.8960       6.023124       0.02240
   3     718.7       80.3366       17.6378       68.5367       86.1745       5.837846       0.02328
   2     792.3       79.7823       19.0847       66.3287       85.4134       5.631027       0.02372
   1     891.5       79.0704       20.9750       63.4246       84.3996       5.329211       0.02568
   0    1013.0       78.2746       23.1504       60.0483       83.1988       4.924207       0.02812



 Wavenumbers: 22650. - 29000. cm-1, ATM      1
 LEVEL PRESSURE   UPWARD FLUX   DIFDOWN FLUX  DIRDOWN FLUX  DOWNWARD FLUX   NET FLUX    HEATING RATE
          mb          W/m2          W/m2          W/m2        W/m2          W/m2       degree/day
  51    .06700       36.1779        0.0000       38.0063       38.0063       1.828423       0.00000
  50    .07753       36.1777        0.0004       38.0057       38.0061       1.828423       0.00000
  49    .09103       36.1775        0.0009       38.0050       38.0059       1.828423      -0.00000
  48    0.1069       36.1773        0.0014       38.0042       38.0057       1.828423      -0.00000
  47    0.1255       36.1770        0.0021       38.0033       38.0054       1.828423       0.00000
  46    0.1487       36.1767        0.0029       38.0022       38.0051       1.828423       0.00000
  45    0.1794       36.1762        0.0040       38.0006       38.0046       1.828423      -0.00000
  44    0.2165       36.1757        0.0054       37.9987       38.0041       1.828423       0.00000
  43    0.2613       36.1750        0.0069       37.9965       38.0034       1.828423       0.00000
  42    0.3336       36.1740        0.0095       37.9928       38.0024       1.828423       0.00000
  41    0.4307       36.1725        0.0130       37.9880       38.0010       1.828423       0.00000
  40    0.5894       36.1702        0.0186       37.9800       37.9986       1.828423      -0.00000
  39     1.339       36.1593        0.0452       37.9425       37.9877       1.828423       0.00000
  38     1.782       36.1529        0.0609       37.9204       37.9813       1.828423       0.00000
  37     2.292       36.1454        0.0789       37.8949       37.9739       1.828423       0.00000
  36     2.964       36.1357        0.1027       37.8614       37.9641       1.828423      -0.00000
  35     3.853       36.1228        0.1340       37.8172       37.9512       1.828423       0.00000
  34     5.035       36.1057        0.1756       37.7586       37.9342       1.828423       0.00000
  33     6.613       36.0829        0.2310       37.6803       37.9114       1.828423       0.00000
  32     8.786       36.0523        0.3056       37.5750       37.8807       1.828423      -0.00000
  31     11.80       36.0085        0.4121       37.4249       37.8369       1.828423       0.00000
  30     15.07       35.9617        0.5260       37.2642       37.7901       1.828423       0.00000
  29     18.79       35.9090        0.6541       37.0833       37.7374       1.828423      -0.00000
  28     23.16       35.8477        0.8031       36.8730       37.6761       1.828423       0.00000
  27     28.12       35.7779        0.9726       36.6338       37.6064       1.828423       0.00000
  26     33.73       35.7003        1.1611       36.3677       37.5287       1.828423       0.00000
  25     40.54       35.6072        1.3871       36.0486       37.4356       1.828423      -0.00000
  24     48.69       35.4959        1.6571       35.6672       37.3243       1.828423       0.00000
  23     57.69       35.3749        1.9506       35.2527       37.2033       1.828423      -0.00000
  22     68.43       35.2324        2.2959       34.7649       37.0608       1.828423       0.00000
  21     81.20       35.0649        2.7011       34.1922       36.8934       1.828423      -0.00000
  20     96.49       34.8688        3.1755       33.5217       36.6972       1.828423       0.00000
  19     114.6       34.6405        3.7266       32.7424       36.4689       1.828423      -0.00000
  18     136.5       34.3764        4.3632       31.8416       36.2048       1.828423       0.00000
  17     162.9       34.0708        5.0984       30.8008       35.8992       1.828423       0.00000
  16     196.4       33.6883        6.0161       29.5007       35.5167       1.828423       0.00000
  15     218.7       33.4455        6.5972       28.6767       35.2739       1.828423       0.00000
  14     243.0       33.1887        7.2104       27.8068       35.0171       1.828423      -0.00000
  13     269.0       32.9186        7.8537       26.8933       34.7470       1.828423       0.00000
  12     297.5       32.6360        8.5251       25.9393       34.4644       1.828423      -0.00000
  11     328.5       32.3408        9.2241       24.9451       34.1692       1.828423       0.00000
  10     361.9       32.0345        9.9469       23.9160       33.8629       1.828423       0.00000
   9     398.1       31.7176       10.6919       22.8541       33.5460       1.828423       0.00000
   8     437.6       31.3914       11.4553       21.7645       33.2198       1.828423      -0.00000
   7     480.5       31.0572       12.2335       20.6521       32.8856       1.828423      -0.00000
   6     533.0       30.6664       13.1379       19.3569       32.4948       1.828423       0.00000
   5     589.8       30.2689       14.0506       18.0467       32.0974       1.828423       0.00000
   4     651.6       29.8676       14.9644       16.7316       31.6960       1.828423       0.00000
   3     718.7       29.4649       15.8719       15.4214       31.2933       1.828423       0.00000
   2     792.3       29.0640       16.7648       14.1276       30.8924       1.828423      -0.00000
   1     891.5       28.5684       17.8509       12.5459       30.3969       1.828423       0.00000
   0    1013.0       28.0356       18.9923       10.8717       29.8640       1.828423       0.00000



 Wavenumbers: 29000. - 38000. cm-1, ATM      1
 LEVEL PRESSURE   UPWARD FLUX   DIFDOWN FLUX  DIRDOWN FLUX  DOWNWARD FLUX   NET FLUX    HEATING RATE
          mb          W/m2          W/m2          W/m2        W/m2          W/m2       degree/day
  51    .06700        5.1923        0.0000       13.4026       13.4026       8.210334       0.00000
  50    .07753        5.1920        0.0003       13.3983       13.3986       8.206535       3.04467
  49    .09103        5.1918        0.0007       13.3921       13.3928       8.201015       3.44999
  48    0.1069        5.1915        0.0011       13.3840       13.3851       8.193638       3.92714
  47    0.1255        5.1911        0.0016       13.3733       13.3749       8.183792       4.46361
  46    0.1487        5.1907        0.0022       13.3579       13.3601       8.169348       5.26490
  45    0.1794        5.1901        0.0030       13.3340       13.3371       8.146946       6.14989
  44    0.2165        5.1895        0.0040       13.3024       13.3064       8.116924       6.82948
  43    0.2613        5.1887        0.0052       13.2604       13.2656       8.076866       7.55092
  42    0.3336        5.1875        0.0071       13.1833       13.1904       8.002851       8.62940
  41    0.4307        5.1860        0.0096       13.0729       13.0825       7.896466       9.24992
  40    0.5894        5.1837        0.0135       12.8796       12.8931       7.709398       9.94805
  39     1.339        5.1755        0.0299       11.9165       11.9464       6.770870      10.56612
  38     1.782        5.1725        0.0383       11.4399       11.4782       6.305729       8.85553
  37     2.292        5.1703        0.0472       10.9796       11.0268       5.856569       7.43926
  36     2.964        5.1693        0.0583       10.4786       10.5369       5.367575       6.13836
  35     3.853        5.1706        0.0719        9.9429       10.0148       4.844146       4.96743
  34     5.035        5.1750        0.0889        9.4007        9.4896       4.314567       3.78309
  33     6.613        5.1827        0.1105        8.8752        8.9858       3.803005       2.73482
  32     8.786        5.1932        0.1384        8.3786        8.5170       3.323747       1.86126
  31     11.80        5.2063        0.1767        7.8897        8.0664       2.860091       1.29809
  30     15.07        5.2178        0.2163        7.5108        7.7271       2.509227       0.90586
  29     18.79        5.2288        0.2593        7.1776        7.4370       2.208119       0.68271
  28     23.16        5.2394        0.3079        6.8664        7.1744       1.934977       0.52817
  27     28.12        5.2486        0.3617        6.5780        6.9397       1.691090       0.41459
  26     33.73        5.2539        0.4202        6.3195        6.7397       1.485808       0.30865
  25     40.54        5.2543        0.4894        6.0663        6.5557       1.301307       0.22889
  24     48.69        5.2494        0.5704        5.8128        6.3833       1.133887       0.17325
  23     57.69        5.2387        0.6570        5.5777        6.2347       0.995999       0.12925
  22     68.43        5.2203        0.7573        5.3379        6.0952       0.874852       0.09524
  21     81.20        5.1898        0.8737        5.0965        5.9702       0.780394       0.06242
  20     96.49        5.1460        1.0083        4.8476        5.8559       0.709936       0.03889
  19     114.6        5.0923        1.1610        4.5799        5.7408       0.648497       0.02869
  18     136.5        5.0301        1.3318        4.2891        5.6209       0.590796       0.02219
  17     162.9        4.9590        1.5215        3.9732        5.4947       0.535660       0.01762
  16     196.4        4.8689        1.7493        3.6080        5.3573       0.488398       0.01190
  15     218.7        4.8121        1.8882        3.3898        5.2780       0.465840       0.00856
  14     243.0        4.7533        2.0300        3.1686        5.1986       0.445335       0.00711
  13     269.0        4.6927        2.1738        2.9461        5.1199       0.427208       0.00588
  12     297.5        4.6307        2.3182        2.7239        5.0422       0.411488       0.00466
  11     328.5        4.5682        2.4620        2.5029        4.9649       0.396682       0.00403
  10     361.9        4.5058        2.6040        2.2846        4.8886       0.382816       0.00351
   9     398.1        4.4438        2.7429        2.0708        4.8137       0.369885       0.00301
   8     437.6        4.3827        2.8777        1.8626        4.7403       0.357615       0.00262
   7     480.5        4.3230        3.0071        1.6621        4.6692       0.346140       0.00225
   6     533.0        4.2570        3.1471        1.4437        4.5908       0.333822       0.00198
   5     589.8        4.1940        3.2771        1.2390        4.5161       0.322081       0.00174
   4     651.6        4.1347        3.3955        1.0500        4.4455       0.310756       0.00155
   3     718.7        4.0795        3.5015        0.8778        4.3793       0.299809       0.00138
   2     792.3        4.0287        3.5942        0.7237        4.3179       0.289219       0.00121
   1     891.5        3.9714        3.6914        0.5563        4.2477       0.276296       0.00110
   0    1013.0        3.9163        3.7745        0.4039        4.1785       0.262194       0.00098



 Wavenumbers: 38000. - 50000. cm-1, ATM      1
 LEVEL PRESSURE   UPWARD FLUX   DIFDOWN FLUX  DIRDOWN FLUX  DOWNWARD FLUX   NET FLUX    HEATING RATE
          mb          W/m2          W/m2          W/m2        W/m2          W/m2       degree/day
  51    .06700        0.0051        0.0000        0.8267        0.8267       0.821528       0.00000
  50    .07753        0.0051        0.0001        0.8242        0.8243       0.819196       1.86936
  49    .09103        0.0050        0.0002        0.8207        0.8209       0.815872       2.07705
  48    0.1069        0.0049        0.0002        0.8162        0.8164       0.811514       2.31984
  47    0.1255        0.0048        0.0004        0.8103        0.8106       0.805801       2.59006
  46    0.1487        0.0047        0.0005        0.8018        0.8023       0.797567       3.00143
  45    0.1794        0.0045        0.0007        0.7889        0.7896       0.785013       3.44648
  44    0.2165        0.0044        0.0009        0.7720        0.7729       0.768507       3.75474
  43    0.2613        0.0042        0.0011        0.7500        0.7511       0.746955       4.06246
  42    0.3336        0.0039        0.0015        0.7106        0.7121       0.708267       4.51071
  41    0.4307        0.0035        0.0019        0.6566        0.6584       0.654972       4.63387
  40    0.5894        0.0029        0.0024        0.5680        0.5704       0.567464       4.65357
  39     1.339        0.0015        0.0030        0.2422        0.2452       0.243720       3.64476
  38     1.782        0.0010        0.0026        0.1493        0.1519       0.150889       1.76735
  37     2.292        0.0007        0.0022        0.0924        0.0946       0.093932       0.94336
  36     2.964        0.0005        0.0018        0.0539        0.0557       0.055224       0.48589
  35     3.853        0.0003        0.0013        0.0295        0.0308       0.030502       0.23462
  34     5.035        0.0002        0.0010        0.0154        0.0164       0.016181       0.10230
  33     6.613        0.0001        0.0007        0.0073        0.0080       0.007912       0.04420
  32     8.786        0.0000        0.0004        0.0030        0.0034       0.003390       0.01756
  31     11.80        0.0000        0.0003        0.0010        0.0012       0.001199       0.00613
  30     15.07        0.0000        0.0001        0.0003        0.0005       0.000463       0.00190
  29     18.79        0.0000        0.0001        0.0001        0.0002       0.000182       0.00064
  28     23.16        0.0000        0.0000        0.0000        0.0001       0.000071       0.00022
  27     28.12        0.0000        0.0000        0.0000        0.0000       0.000028       0.00007
  26     33.73        0.0000        0.0000        0.0000        0.0000       0.000011       0.00002
  25     40.54        0.0000        0.0000        0.0000        0.0000       0.000005       0.00001
  24     48.69        0.0000        0.0000        0.0000        0.0000       0.000002       0.00000
  23     57.69        0.0000        0.0000        0.0000        0.0000       0.000001       0.00000
  22     68.43        0.0000        0.0000        0.0000        0.0000       0.000000       0.00000
  21     81.20        0.0000        0.0000        0.0000        0.0000       0.000000       0.00000
  20     96.49        0.0000        0.0000        0.0000        0.0000       0.000000       0.00000
  19     114.6        0.0000        0.0000        0.0000        0.0000       0.000000       0.00000
  18     136.5        0.0000        0.0000        0.0000        0.0000       0.000000       0.00000
  17     162.9        0.0000        0.0000        0.0000        0.0000       0.000000       0.00000
  16     196.4        0.0000        0.0000        0.0000        0.0000       0.000000       0.00000
  15     218.7        0.0000        0.0000        0.0000        0.0000       0.000000       0.00000
  14     243.0        0.0000        0.0000        0.0000        0.0000       0.000000       0.00000
  13     269.0        0.0000        0.0000        0.0000        0.0000       0.000000       0.00000
  12     297.5        0.0000        0.0000        0.0000        0.0000       0.000000       0.00000
  11     328.5        0.0000        0.0000        0.0000        0.0000       0.000000       0.00000
  10     361.9        0.0000        0.0000        0.0000        0.0000       0.000000       0.00000
   9     398.1        0.0000        0.0000        0.0000        0.0000       0.000000       0.00000
   8     437.6        0.0000        0.0000        0.0000        0.0000       0.000000       0.00000
   7     480.5        0.0000        0.0000        0.0000        0.0000       0.000000       0.00000
   6     533.0        0.0000        0.0000        0.0000        0.0000       0.000000       0.00000
   5     589.8        0.0000        0.0000        0.0000        0.0000       0.000000       0.00000
   4     651.6        0.0000        0.0000        0.0000        0.0000       0.000000       0.00000
   3     718.7        0.0000        0.0000        0.0000        0.0000       0.000000       0.00000
   2     792.3        0.0000        0.0000        0.0000        0.0000       0.000000       0.00000
   1     891.5        0.0000        0.0000        0.0000        0.0000       0.000000       0.00000
   0    1013.0        0.0000        0.0000        0.0000        0.0000       0.000000       0.00000



 Wavenumbers:   820. -  2600. cm-1, ATM      1
 LEVEL PRESSURE   UPWARD FLUX   DIFDOWN FLUX  DIRDOWN FLUX  DOWNWARD FLUX   NET FLUX    HEATING RATE
          mb          W/m2          W/m2          W/m2        W/m2          W/m2       degree/day
  51    .06700        0.3400        0.0000        3.8670        3.8670       3.527046       0.00000
  50    .07753        0.3400        0.0000        3.8643        3.8643       3.524329       2.17770
  49    .09103        0.3400        0.0000        3.8635        3.8635       3.523519       0.50638
  48    0.1069        0.3400        0.0000        3.8626        3.8626       3.522628       0.47415
  47    0.1255        0.3400        0.0000        3.8616        3.8616       3.521667       0.43559
  46    0.1487        0.3400        0.0000        3.8605        3.8605       3.520558       0.40437
  45    0.1794        0.3400        0.0000        3.8592        3.8592       3.519223       0.36648
  44    0.2165        0.3400        0.0000        3.8578        3.8578       3.517845       0.31346
  43    0.2613        0.3400        0.0000        3.8564        3.8564       3.516385       0.27522
  42    0.3336        0.3400        0.0000        3.8541        3.8541       3.514154       0.26013
  41    0.4307        0.3400        0.0000        3.8512        3.8512       3.511271       0.25063
  40    0.5894        0.3400        0.0000        3.8465        3.8465       3.506545       0.25134
  39     1.339        0.3400        0.0000        3.8251        3.8251       3.485169       0.24065
  38     1.782        0.3400        0.0000        3.8133        3.8133       3.473357       0.22490
  37     2.292        0.3400        0.0000        3.8003        3.8003       3.460295       0.21633
  36     2.964        0.3400        0.0000        3.7841        3.7841       3.444166       0.20247
  35     3.853        0.3400        0.0000        3.7642        3.7642       3.424251       0.18899
  34     5.035        0.3400        0.0000        3.7395        3.7395       3.399560       0.17638
  33     6.613        0.3400        0.0000        3.7090        3.7090       3.369024       0.16325
  32     8.786        0.3400        0.0000        3.6726        3.6726       3.332630       0.14134
  31     11.80        0.3400        0.0000        3.6320        3.6320       3.292035       0.11365
  30     15.07        0.3400        0.0000        3.6016        3.6016       3.261650       0.07845
  29     18.79        0.3400        0.0000        3.5777        3.5777       3.237751       0.05419
  28     23.16        0.3400        0.0000        3.5564        3.5564       3.216396       0.04129
  27     28.12        0.3400        0.0000        3.5348        3.5348       3.194848       0.03663
  26     33.73        0.3400        0.0000        3.5118        3.5118       3.171813       0.03463
  25     40.54        0.3400        0.0000        3.4849        3.4849       3.144923       0.03336
  24     48.69        0.3400        0.0000        3.4537        3.4537       3.113668       0.03234
  23     57.69        0.3400        0.0000        3.4210        3.4210       3.080991       0.03063
  22     68.43        0.3400        0.0000        3.3844        3.3844       3.044400       0.02876
  21     81.20        0.3400        0.0000        3.3441        3.3441       3.004096       0.02663
  20     96.49        0.3401        0.0000        3.2998        3.2998       2.959724       0.02449
  19     114.6        0.3401        0.0000        3.2506        3.2506       2.910567       0.02295
  18     136.5        0.3401        0.0000        3.1936        3.1936       2.853503       0.02194
  17     162.9        0.3402        0.0000        3.1181        3.1181       2.777975       0.02414
  16     196.4        0.3402        0.0000        3.0090        3.0090       2.668738       0.02750
  15     218.7        0.3403        0.0000        2.9420        2.9420       2.601695       0.02545
  14     243.0        0.3404        0.0000        2.8605        2.8605       2.520076       0.02831
  13     269.0        0.3406        0.0000        2.7419        2.7420       2.401394       0.03850
  12     297.5        0.3409        0.0000        2.5729        2.5729       2.232018       0.05024
  11     328.5        0.3414        0.0000        2.3602        2.3602       2.018850       0.05796
  10     361.9        0.3421        0.0000        2.1524        2.1524       1.810334       0.05276
   9     398.1        0.3432        0.0000        1.9974        1.9974       1.654236       0.03637
   8     437.6        0.3447        0.0000        1.8835        1.8835       1.538773       0.02469
   7     480.5        0.3470        0.0000        1.7734        1.7734       1.426414       0.02207
   6     533.0        0.3509        0.0000        1.6397        1.6398       1.288911       0.02212
   5     589.8        0.3564        0.0000        1.5068        1.5069       1.150472       0.02055
   4     651.6        0.3646        0.0000        1.3807        1.3807       1.016087       0.01838
   3     718.7        0.3756        0.0000        1.2680        1.2681       0.892449       0.01554
   2     792.3        0.3891        0.0000        1.1659        1.1660       0.776904       0.01325
   1     891.5        0.4117        0.0000        1.0372        1.0373       0.625527       0.01288
   0    1013.0        0.4529        0.0000        0.8716        0.8717       0.418752       0.01436

  Modules and versions used in this calculation:

       rrtmg_sw.1col.f90:  $Revision$                    rrtmg_sw_init.f90:  $Revision$        
     rrtmgsw_cldprop.f90:  $Revision$                  rrtmgsw_cldprmc.f90:  NOT USED          
     rrtmg_sw_reftra.f90:  $Revision$                  rrtmg_sw_spcvrt.f90:  NOT USED          
     rrtmg_sw_spcvmc.f90:  NOT USED                    rrtmgsw_setcoef.f90:  NOT USED          
     rrtmg_sw_taumol.f90:  $Revision$                  rrtmg_sw_vrtqdr.f90:  NOT USED          
                rrtatm.f:  NOT USED                             util_xxx.f:  NOT USED          
                 extra.f:  NOT USED                       rrtmg_sw_k_g.f90:  $Revision$        

