

 Wavenumbers:   820. - 50000. cm-1, ATM      1
 LEVEL PRESSURE   UPWARD FLUX   DIFDOWN FLUX  DIRDOWN FLUX  DOWNWARD FLUX   NET FLUX    HEATING RATE
          mb          W/m2          W/m2          W/m2        W/m2          W/m2       degree/day
  51    .06700       84.5318        0.0000      397.8738      397.8738     313.341938       0.00000
  50    .07753       84.5311        0.0010      397.8577      397.8588     313.327682      11.42616
  49    .09103       84.5301        0.0024      397.8418      397.8442     313.314045       8.52365
  48    0.1069       84.5291        0.0039      397.8230      397.8268     313.297765       8.66578
  47    0.1255       84.5278        0.0056      397.7997      397.8052     313.277413       9.22654
  46    0.1487       84.5263        0.0078      397.7676      397.7754     313.249089      10.32443
  45    0.1794       84.5242        0.0107      397.7205      397.7312     313.207005      11.55304
  44    0.2165       84.5218        0.0142      397.6602      397.6745     313.152639      12.36742
  43    0.2613       84.5190        0.0183      397.5829      397.6012     313.082224      13.27294
  42    0.3336       84.5145        0.0251      397.4449      397.4700     312.955511      14.77352
  41    0.4307       84.5086        0.0340      397.2524      397.2864     312.777735      15.45719
  40    0.5894       84.4994        0.0482      396.9253      396.9735     312.474102      16.14679
  39     1.339       84.4620        0.1114      395.4254      395.5367     311.074734      15.75435
  38     1.782       84.4438        0.1465      394.7288      394.8753     310.431536      12.24545
  37     2.292       84.4258        0.1864      394.0572      394.2436     309.817807      10.16495
  36     2.964       84.4067        0.2382      393.3007      393.5389     309.132180       8.60669
  35     3.853       84.3876        0.3057      392.4318      392.7375     308.349949       7.42352
  34     5.035       84.3683        0.3945      391.4441      391.8385     307.470228       6.28436
  33     6.613       84.3463        0.5119      390.3268      390.8386     306.492364       5.22767
  32     8.786       84.3151        0.6687      389.0624      389.7311     305.415948       4.18041
  31     11.80       84.2623        0.8909      387.5500      388.4409     304.178539       3.46435
  30     15.07       84.1958        1.1271      386.1556      387.2827     303.086920       2.81835
  29     18.79       84.1121        1.3915      384.7502      386.1417     302.029629       2.39720
  28     23.16       84.0043        1.6974      383.2686      384.9660     300.961644       2.06514
  27     28.12       83.8695        2.0436      381.7329      383.7765     299.907059       1.79272
  26     33.73       83.7010        2.4277      380.1982      382.6259     298.924884       1.47673
  25     40.54       83.4772        2.8875      378.5384      381.4259     297.948722       1.21104
  24     48.69       83.1884        3.4358      376.7214      380.1573     296.968851       1.01401
  23     57.69       82.8535        4.0311      374.8959      378.9270     296.073575       0.83919
  22     68.43       82.4358        4.7313      372.8999      377.6312     295.195406       0.69036
  21     81.20       81.9123        5.5544      370.7496      376.3040     294.391704       0.53107
  20     96.49       81.2664        6.5198      368.4056      374.9253     293.658913       0.40445
  19     114.6       80.4961        7.6429      365.7513      373.3942     292.898134       0.35523
  18     136.5       79.5850        8.9415      362.7231      371.6646     292.079650       0.31473
  17     162.9       78.5075       10.4430      359.1748      369.6178     291.110282       0.30985
  16     196.4       77.1159       12.3236      354.5718      366.8954     289.779508       0.33497
  15     218.7       76.2097       13.5187      351.4437      364.9623     288.752662       0.38986
  14     243.0       75.2341       14.7829      347.7111      362.4941     287.260022       0.51770
  13     269.0       74.1881       16.1133      342.9441      359.0575     284.869358       0.77552
  12     297.5       73.0713       17.5063      337.4137      354.9200     281.848673       0.89590
  11     328.5       71.8819       18.9612      331.1302      350.0914     278.209496       0.98948
  10     361.9       70.6213       20.4712      324.1219      344.5931     273.971800       1.07218
   9     398.1       69.2878       22.0335      316.6066      338.6401     269.352287       1.07624
   8     437.6       67.8829       23.6415      308.5895      332.2310     264.348070       1.06993
   7     480.5       66.4100       25.2872      299.9349      325.2221     258.812040       1.08726
   6     533.0       64.6438       27.2091      289.7021      316.9112     252.267437       1.05282
   5     589.8       62.7981       29.1593      279.3388      308.4980     245.699923       0.97483
   4     651.6       60.8848       31.1224      268.7786      299.9010     239.016126       0.91403
   3     718.7       58.9094       33.0856      258.2837      291.3693     232.459863       0.82394
   2     792.3       56.8804       35.0322      248.0774      283.1096     226.229257       0.71458
   1     891.5       54.2946       37.4206      235.5216      272.9422     218.647518       0.64517
   0    1013.0       51.4971       39.9469      221.4731      261.4200     209.922919       0.60579



 Wavenumbers:  2600. -  3250. cm-1, ATM      1
 LEVEL PRESSURE   UPWARD FLUX   DIFDOWN FLUX  DIRDOWN FLUX  DOWNWARD FLUX   NET FLUX    HEATING RATE
          mb          W/m2          W/m2          W/m2        W/m2          W/m2       degree/day
  51    .06700        0.2237        0.0000        3.5066        3.5066       3.282877       0.00000
  50    .07753        0.2237        0.0000        3.5066        3.5066       3.282869       0.00640
  49    .09103        0.2237        0.0000        3.5066        3.5066       3.282859       0.00627
  48    0.1069        0.2237        0.0000        3.5066        3.5066       3.282847       0.00613
  47    0.1255        0.2237        0.0000        3.5066        3.5066       3.282834       0.00599
  46    0.1487        0.2237        0.0000        3.5066        3.5066       3.282818       0.00607
  45    0.1794        0.2237        0.0000        3.5065        3.5065       3.282795       0.00624
  44    0.2165        0.2237        0.0000        3.5065        3.5065       3.282768       0.00611
  43    0.2613        0.2237        0.0000        3.5065        3.5065       3.282736       0.00598
  42    0.3336        0.2237        0.0000        3.5064        3.5064       3.282683       0.00615
  41    0.4307        0.2237        0.0000        3.5064        3.5064       3.282612       0.00618
  40    0.5894        0.2237        0.0000        3.5062        3.5062       3.282493       0.00633
  39     1.339        0.2237        0.0000        3.5055        3.5055       3.281795       0.00787
  38     1.782        0.2237        0.0000        3.5050        3.5050       3.281264       0.01011
  37     2.292        0.2237        0.0000        3.5043        3.5043       3.280571       0.01147
  36     2.964        0.2237        0.0000        3.5033        3.5033       3.279580       0.01245
  35     3.853        0.2237        0.0000        3.5019        3.5019       3.278203       0.01307
  34     5.035        0.2237        0.0000        3.5001        3.5001       3.276342       0.01329
  33     6.613        0.2237        0.0000        3.4977        3.4977       3.273932       0.01288
  32     8.786        0.2237        0.0000        3.4947        3.4947       3.270961       0.01154
  31     11.80        0.2237        0.0000        3.4911        3.4911       3.267326       0.01018
  30     15.07        0.2237        0.0000        3.4878        3.4878       3.264105       0.00832
  29     18.79        0.2237        0.0000        3.4848        3.4848       3.261042       0.00695
  28     23.16        0.2237        0.0000        3.4816        3.4816       3.257822       0.00623
  27     28.12        0.2237        0.0000        3.4779        3.4779       3.254204       0.00615
  26     33.73        0.2237        0.0000        3.4735        3.4735       3.249738       0.00671
  25     40.54        0.2237        0.0000        3.4671        3.4671       3.243413       0.00785
  24     48.69        0.2237        0.0000        3.4582        3.4583       3.234518       0.00920
  23     57.69        0.2237        0.0000        3.4472        3.4472       3.223471       0.01036
  22     68.43        0.2237        0.0000        3.4329        3.4329       3.209212       0.01121
  21     81.20        0.2237        0.0000        3.4152        3.4152       3.191485       0.01171
  20     96.49        0.2237        0.0000        3.3940        3.3941       3.170343       0.01167
  19     114.6        0.2237        0.0000        3.3692        3.3692       3.145456       0.01162
  18     136.5        0.2238        0.0001        3.3419        3.3420       3.118242       0.01046
  17     162.9        0.2238        0.0001        3.3129        3.3129       3.089172       0.00929
  16     196.4        0.2238        0.0001        3.2793        3.2794       3.055606       0.00845
  15     218.7        0.2238        0.0001        3.2578        3.2578       3.033995       0.00820
  14     243.0        0.2239        0.0001        3.2320        3.2320       3.008132       0.00897
  13     269.0        0.2240        0.0001        3.1968        3.1969       2.972897       0.01143
  12     297.5        0.2242        0.0001        3.1489        3.1490       2.924835       0.01425
  11     328.5        0.2245        0.0001        3.0821        3.0822       2.857683       0.01826
  10     361.9        0.2249        0.0001        2.9902        2.9904       2.765463       0.02333
   9     398.1        0.2255        0.0001        2.8715        2.8716       2.646147       0.02780
   8     437.6        0.2263        0.0001        2.7276        2.7278       2.501501       0.03093
   7     480.5        0.2275        0.0001        2.5595        2.5597       2.332175       0.03326
   6     533.0        0.2295        0.0001        2.3617        2.3619       2.132414       0.03214
   5     589.8        0.2323        0.0002        2.1649        2.1651       1.932744       0.02964
   4     651.6        0.2365        0.0002        1.9608        1.9609       1.724465       0.02848
   3     718.7        0.2421        0.0002        1.7593        1.7595       1.517416       0.02602
   2     792.3        0.2494        0.0002        1.5761        1.5762       1.326822       0.02186
   1     891.5        0.2620        0.0002        1.3714        1.3716       1.109607       0.01848
   0    1013.0        0.2847        0.0002        1.1584        1.1586       0.873817       0.01637



 Wavenumbers:  3250. -  4000. cm-1, ATM      1
 LEVEL PRESSURE   UPWARD FLUX   DIFDOWN FLUX  DIRDOWN FLUX  DOWNWARD FLUX   NET FLUX    HEATING RATE
          mb          W/m2          W/m2          W/m2        W/m2          W/m2       degree/day
  51    .06700        0.0004        0.0000        5.9117        5.9117       5.911216       0.00000
  50    .07753        0.0004        0.0000        5.9075        5.9075       5.907026       3.35808
  49    .09103        0.0004        0.0000        5.9050        5.9050       5.904584       1.52677
  48    0.1069        0.0004        0.0000        5.9032        5.9032       5.902717       0.99346
  47    0.1255        0.0004        0.0000        5.9014        5.9014       5.900959       0.79708
  46    0.1487        0.0004        0.0000        5.8995        5.8995       5.899070       0.68848
  45    0.1794        0.0004        0.0000        5.8974        5.8974       5.896922       0.58983
  44    0.2165        0.0004        0.0000        5.8952        5.8952       5.894805       0.48155
  43    0.2613        0.0004        0.0000        5.8931        5.8931       5.892646       0.40696
  42    0.3336        0.0004        0.0000        5.8899        5.8899       5.889488       0.36820
  41    0.4307        0.0004        0.0000        5.8861        5.8861       5.885651       0.33365
  40    0.5894        0.0004        0.0000        5.8803        5.8803       5.879848       0.30857
  39     1.339        0.0004        0.0000        5.8597        5.8597       5.859251       0.23189
  38     1.782        0.0004        0.0000        5.8513        5.8513       5.850826       0.16039
  37     2.292        0.0004        0.0000        5.8431        5.8431       5.842655       0.13533
  36     2.964        0.0004        0.0000        5.8334        5.8334       5.833015       0.12100
  35     3.853        0.0004        0.0000        5.8213        5.8213       5.820840       0.11555
  34     5.035        0.0004        0.0000        5.8052        5.8052       5.804745       0.11498
  33     6.613        0.0004        0.0000        5.7833        5.7834       5.782923       0.11666
  32     8.786        0.0004        0.0000        5.7531        5.7531       5.752722       0.11729
  31     11.80        0.0004        0.0000        5.7090        5.7090       5.708553       0.12366
  30     15.07        0.0004        0.0000        5.6615        5.6615       5.661088       0.12254
  29     18.79        0.0004        0.0000        5.6093        5.6094       5.608953       0.11821
  28     23.16        0.0004        0.0000        5.5524        5.5524       5.552027       0.11008
  27     28.12        0.0004        0.0000        5.4935        5.4935       5.493148       0.10009
  26     33.73        0.0004        0.0000        5.4348        5.4349       5.434459       0.08824
  25     40.54        0.0004        0.0001        5.3707        5.3708       5.370398       0.07948
  24     48.69        0.0004        0.0001        5.2985        5.2985       5.298165       0.07475
  23     57.69        0.0004        0.0001        5.2215        5.2216       5.221226       0.07212
  22     68.43        0.0003        0.0001        5.1318        5.1319       5.131566       0.07048
  21     81.20        0.0003        0.0001        5.0284        5.0285       5.028136       0.06834
  20     96.49        0.0003        0.0001        4.9122        4.9123       4.912002       0.06410
  19     114.6        0.0003        0.0001        4.7780        4.7782       4.777891       0.06262
  18     136.5        0.0003        0.0002        4.6285        4.6287       4.628413       0.05748
  17     162.9        0.0002        0.0002        4.4406        4.4407       4.440500       0.06006
  16     196.4        0.0002        0.0002        4.1548        4.1550       4.154827       0.07191
  15     218.7        0.0002        0.0002        3.9564        3.9566       3.956446       0.07532
  14     243.0        0.0002        0.0002        3.7055        3.7058       3.705612       0.08700
  13     269.0        0.0001        0.0002        3.3399        3.3401       3.339973       0.11861
  12     297.5        0.0001        0.0002        2.8954        2.8956       2.895483       0.13183
  11     328.5        0.0001        0.0002        2.4388        2.4390       2.438942       0.12413
  10     361.9        0.0001        0.0002        2.0269        2.0271       2.027003       0.10422
   9     398.1        0.0001        0.0002        1.6753        1.6755       1.675415       0.08191
   8     437.6        0.0001        0.0002        1.3592        1.3594       1.359296       0.06759
   7     480.5        0.0001        0.0002        1.0616        1.0618       1.061713       0.05844
   6     533.0        0.0001        0.0001        0.7543        0.7544       0.754377       0.04944
   5     589.8        0.0001        0.0001        0.4951        0.4952       0.495181       0.03847
   4     651.6        0.0001        0.0001        0.2943        0.2943       0.294278       0.02747
   3     718.7        0.0001        0.0001        0.1528        0.1529       0.152770       0.01778
   2     792.3        0.0001        0.0000        0.0658        0.0658       0.065710       0.00998
   1     891.5        0.0003        0.0000        0.0157        0.0157       0.015360       0.00428
   0    1013.0        0.0013        0.0000        0.0013        0.0013       0.000051       0.00106



 Wavenumbers:  4000. -  4650. cm-1, ATM      1
 LEVEL PRESSURE   UPWARD FLUX   DIFDOWN FLUX  DIRDOWN FLUX  DOWNWARD FLUX   NET FLUX    HEATING RATE
          mb          W/m2          W/m2          W/m2        W/m2          W/m2       degree/day
  51    .06700        0.6286        0.0000        6.9421        6.9421       6.313499       0.00000
  50    .07753        0.6286        0.0000        6.9421        6.9421       6.313498       0.00079
  49    .09103        0.6286        0.0000        6.9421        6.9421       6.313497       0.00078
  48    0.1069        0.6286        0.0000        6.9421        6.9421       6.313496       0.00076
  47    0.1255        0.6286        0.0000        6.9421        6.9421       6.313494       0.00074
  46    0.1487        0.6286        0.0000        6.9421        6.9421       6.313492       0.00075
  45    0.1794        0.6286        0.0000        6.9421        6.9421       6.313489       0.00077
  44    0.2165        0.6286        0.0000        6.9421        6.9421       6.313486       0.00076
  43    0.2613        0.6286        0.0000        6.9420        6.9420       6.313482       0.00074
  42    0.3336        0.6286        0.0000        6.9420        6.9420       6.313475       0.00076
  41    0.4307        0.6286        0.0000        6.9420        6.9420       6.313466       0.00077
  40    0.5894        0.6286        0.0000        6.9420        6.9420       6.313452       0.00079
  39     1.339        0.6286        0.0000        6.9419        6.9419       6.313363       0.00100
  38     1.782        0.6286        0.0000        6.9418        6.9419       6.313293       0.00132
  37     2.292        0.6286        0.0000        6.9418        6.9418       6.313200       0.00155
  36     2.964        0.6286        0.0000        6.9416        6.9416       6.313061       0.00175
  35     3.853        0.6286        0.0000        6.9414        6.9414       6.312854       0.00196
  34     5.035        0.6286        0.0000        6.9411        6.9411       6.312550       0.00218
  33     6.613        0.6285        0.0000        6.9406        6.9406       6.312102       0.00239
  32     8.786        0.6285        0.0000        6.9399        6.9400       6.311442       0.00256
  31     11.80        0.6285        0.0000        6.9389        6.9389       6.310408       0.00290
  30     15.07        0.6285        0.0001        6.9377        6.9377       6.309199       0.00312
  29     18.79        0.6285        0.0001        6.9362        6.9362       6.307741       0.00330
  28     23.16        0.6285        0.0001        6.9343        6.9344       6.305939       0.00348
  27     28.12        0.6285        0.0001        6.9321        6.9322       6.303768       0.00369
  26     33.73        0.6285        0.0001        6.9294        6.9296       6.301104       0.00400
  25     40.54        0.6284        0.0001        6.9258        6.9260       6.297513       0.00445
  24     48.69        0.6284        0.0002        6.9210        6.9212       6.292762       0.00492
  23     57.69        0.6284        0.0002        6.9154        6.9156       6.287174       0.00524
  22     68.43        0.6284        0.0002        6.9083        6.9086       6.280230       0.00546
  21     81.20        0.6283        0.0003        6.8998        6.9001       6.271744       0.00561
  20     96.49        0.6283        0.0004        6.8894        6.8898       6.261500       0.00565
  19     114.6        0.6283        0.0004        6.8765        6.8770       6.248687       0.00598
  18     136.5        0.6282        0.0005        6.8610        6.8615       6.233243       0.00594
  17     162.9        0.6282        0.0006        6.8417        6.8423       6.214056       0.00613
  16     196.4        0.6282        0.0007        6.8147        6.8154       6.187179       0.00677
  15     218.7        0.6282        0.0008        6.7948        6.7956       6.167411       0.00751
  14     243.0        0.6283        0.0009        6.7698        6.7707       6.142371       0.00868
  13     269.0        0.6284        0.0010        6.7349        6.7358       6.107395       0.01135
  12     297.5        0.6287        0.0011        6.6869        6.6879       6.059251       0.01428
  11     328.5        0.6290        0.0012        6.6194        6.6205       5.991491       0.01842
  10     361.9        0.6295        0.0013        6.5295        6.5307       5.901173       0.02285
   9     398.1        0.6302        0.0014        6.4202        6.4216       5.791341       0.02559
   8     437.6        0.6312        0.0015        6.2962        6.2977       5.666483       0.02670
   7     480.5        0.6325        0.0016        6.1555        6.1571       5.524637       0.02786
   6     533.0        0.6345        0.0017        5.9675        5.9693       5.334726       0.03055
   5     589.8        0.6376        0.0019        5.7368        5.7386       5.101042       0.03469
   4     651.6        0.6420        0.0020        5.4662        5.4682       4.826213       0.03758
   3     718.7        0.6481        0.0021        5.1912        5.1933       4.545217       0.03531
   2     792.3        0.6559        0.0022        4.9395        4.9417       4.285778       0.02975
   1     891.5        0.6694        0.0024        4.6486        4.6510       3.981608       0.02588
   0    1013.0        0.6936        0.0025        4.3179        4.3204       3.626815       0.02464



 Wavenumbers:  4650. -  5150. cm-1, ATM      1
 LEVEL PRESSURE   UPWARD FLUX   DIFDOWN FLUX  DIRDOWN FLUX  DOWNWARD FLUX   NET FLUX    HEATING RATE
          mb          W/m2          W/m2          W/m2        W/m2          W/m2       degree/day
  51    .06700        0.4410        0.0000        6.5710        6.5710       6.130037       0.00000
  50    .07753        0.4410        0.0000        6.5708        6.5708       6.129801       0.18887
  49    .09103        0.4410        0.0000        6.5705        6.5705       6.129507       0.18362
  48    0.1069        0.4410        0.0000        6.5701        6.5701       6.129173       0.17806
  47    0.1255        0.4410        0.0000        6.5697        6.5697       6.128792       0.17238
  46    0.1487        0.4410        0.0000        6.5693        6.5693       6.128319       0.17268
  45    0.1794        0.4410        0.0000        6.5686        6.5686       6.127682       0.17473
  44    0.2165        0.4410        0.0000        6.5679        6.5679       6.126944       0.16788
  43    0.2613        0.4410        0.0000        6.5670        6.5670       6.126091       0.16078
  42    0.3336        0.4410        0.0000        6.5657        6.5657       6.124728       0.15894
  41    0.4307        0.4410        0.0000        6.5640        6.5640       6.123006       0.14971
  40    0.5894        0.4410        0.0000        6.5613        6.5613       6.120390       0.13913
  39     1.339        0.4410        0.0000        6.5516        6.5516       6.110612       0.11008
  38     1.782        0.4409        0.0000        6.5473        6.5473       6.106397       0.08026
  37     2.292        0.4409        0.0000        6.5434        6.5435       6.102510       0.06438
  36     2.964        0.4409        0.0000        6.5395        6.5395       6.098555       0.04964
  35     3.853        0.4409        0.0000        6.5355        6.5356       6.094613       0.03742
  34     5.035        0.4409        0.0000        6.5315        6.5315       6.090611       0.02859
  33     6.613        0.4409        0.0000        6.5271        6.5271       6.086217       0.02349
  32     8.786        0.4409        0.0000        6.5216        6.5216       6.080723       0.02134
  31     11.80        0.4409        0.0001        6.5135        6.5135       6.072646       0.02261
  30     15.07        0.4409        0.0001        6.5041        6.5042       6.063279       0.02418
  29     18.79        0.4409        0.0001        6.4925        6.4926       6.051766       0.02610
  28     23.16        0.4408        0.0001        6.4779        6.4780       6.037178       0.02821
  27     28.12        0.4408        0.0002        6.4599        6.4600       6.019208       0.03055
  26     33.73        0.4408        0.0002        6.4384        6.4386       5.997785       0.03221
  25     40.54        0.4408        0.0002        6.4112        6.4114       5.970670       0.03364
  24     48.69        0.4407        0.0003        6.3775        6.3778       5.937049       0.03479
  23     57.69        0.4407        0.0003        6.3404        6.3407       5.899978       0.03475
  22     68.43        0.4407        0.0004        6.2971        6.2975       5.856816       0.03393
  21     81.20        0.4407        0.0004        6.2483        6.2487       5.808042       0.03223
  20     96.49        0.4406        0.0005        6.1948        6.1953       5.754727       0.02943
  19     114.6        0.4406        0.0006        6.1381        6.1388       5.698169       0.02641
  18     136.5        0.4406        0.0007        6.0790        6.0797       5.639167       0.02269
  17     162.9        0.4405        0.0009        6.0160        6.0169       5.576355       0.02008
  16     196.4        0.4406        0.0010        5.9399        5.9409       5.500339       0.01913
  15     218.7        0.4406        0.0011        5.8896        5.8908       5.450180       0.01904
  14     243.0        0.4406        0.0012        5.8322        5.8334       5.392779       0.01991
  13     269.0        0.4408        0.0014        5.7624        5.7638       5.322983       0.02264
  12     297.5        0.4410        0.0015        5.6767        5.6782       5.237207       0.02544
  11     328.5        0.4414        0.0016        5.5726        5.5742       5.132843       0.02838
  10     361.9        0.4419        0.0018        5.4473        5.4491       5.007190       0.03179
   9     398.1        0.4426        0.0019        5.2995        5.3014       4.858745       0.03458
   8     437.6        0.4437        0.0020        5.1275        5.1295       4.685839       0.03697
   7     480.5        0.4451        0.0022        4.9290        4.9311       4.486047       0.03924
   6     533.0        0.4474        0.0023        4.6794        4.6817       4.234304       0.04050
   5     589.8        0.4506        0.0024        4.4188        4.4212       3.970610       0.03914
   4     651.6        0.4552        0.0025        4.1521        4.1546       3.699472       0.03708
   3     718.7        0.4613        0.0027        3.8929        3.8956       3.434332       0.03332
   2     792.3        0.4692        0.0028        3.6469        3.6496       3.180439       0.02912
   1     891.5        0.4828        0.0029        3.3535        3.3564       2.873610       0.02611
   0    1013.0        0.5061        0.0030        3.0383        3.0414       2.535312       0.02349



 Wavenumbers:  5150. -  6150. cm-1, ATM      1
 LEVEL PRESSURE   UPWARD FLUX   DIFDOWN FLUX  DIRDOWN FLUX  DOWNWARD FLUX   NET FLUX    HEATING RATE
          mb          W/m2          W/m2          W/m2        W/m2          W/m2       degree/day
  51    .06700        1.2347        0.0000       16.4735       16.4735      15.238852       0.00000
  50    .07753        1.2347        0.0000       16.4735       16.4735      15.238817       0.02761
  49    .09103        1.2347        0.0000       16.4734       16.4734      15.238772       0.02810
  48    0.1069        1.2347        0.0000       16.4734       16.4734      15.238718       0.02859
  47    0.1255        1.2347        0.0000       16.4733       16.4733      15.238654       0.02904
  46    0.1487        1.2347        0.0000       16.4732       16.4732      15.238570       0.03059
  45    0.1794        1.2347        0.0000       16.4731       16.4731      15.238451       0.03269
  44    0.2165        1.2347        0.0000       16.4730       16.4730      15.238305       0.03331
  43    0.2613        1.2347        0.0000       16.4728       16.4728      15.238126       0.03376
  42    0.3336        1.2346        0.0000       16.4725       16.4725      15.237820       0.03564
  41    0.4307        1.2346        0.0000       16.4720       16.4720      15.237401       0.03645
  40    0.5894        1.2346        0.0000       16.4713       16.4713      15.236700       0.03728
  39     1.339        1.2346        0.0000       16.4679       16.4679      15.233291       0.03837
  38     1.782        1.2346        0.0000       16.4659       16.4659      15.231292       0.03806
  37     2.292        1.2346        0.0001       16.4635       16.4636      15.229001       0.03795
  36     2.964        1.2346        0.0001       16.4605       16.4606      15.226032       0.03727
  35     3.853        1.2346        0.0001       16.4567       16.4567      15.222179       0.03656
  34     5.035        1.2345        0.0001       16.4516       16.4517      15.217183       0.03569
  33     6.613        1.2345        0.0002       16.4451       16.4452      15.210724       0.03453
  32     8.786        1.2345        0.0002       16.4367       16.4369      15.202413       0.03227
  31     11.80        1.2344        0.0003       16.4254       16.4257      15.191265       0.03121
  30     15.07        1.2343        0.0004       16.4141       16.4145      15.180181       0.02862
  29     18.79        1.2342        0.0005       16.4024       16.4029      15.168664       0.02611
  28     23.16        1.2342        0.0006       16.3900       16.3906      15.156408       0.02370
  27     28.12        1.2341        0.0007       16.3771       16.3778      15.143749       0.02152
  26     33.73        1.2339        0.0009       16.3641       16.3650      15.131030       0.01912
  25     40.54        1.2338        0.0010       16.3502       16.3512      15.117400       0.01691
  24     48.69        1.2337        0.0012       16.3354       16.3366      15.102941       0.01496
  23     57.69        1.2335        0.0015       16.3211       16.3225      15.089058       0.01301
  22     68.43        1.2333        0.0017       16.3062       16.3080      15.074693       0.01129
  21     81.20        1.2331        0.0021       16.2903       16.2924      15.059328       0.01015
  20     96.49        1.2328        0.0024       16.2726       16.2751      15.042290       0.00940
  19     114.6        1.2325        0.0029       16.2521       16.2550      15.022520       0.00923
  18     136.5        1.2321        0.0034       16.2245       16.2280      14.995912       0.01023
  17     162.9        1.2316        0.0041       16.1747       16.1788      14.947194       0.01557
  16     196.4        1.2311        0.0049       16.0518       16.0568      14.825680       0.03059
  15     218.7        1.2307        0.0054       15.8984       15.9038      14.673093       0.05793
  14     243.0        1.2303        0.0060       15.6153       15.6212      14.390861       0.09789
  13     269.0        1.2300        0.0064       15.1390       15.1454      13.915436       0.15423
  12     297.5        1.2297        0.0069       14.5779       14.5848      13.355121       0.16618
  11     328.5        1.2294        0.0073       13.8780       13.8854      12.655937       0.19011
  10     361.9        1.2293        0.0077       13.0814       13.0892      11.859888       0.20141
   9     398.1        1.2293        0.0080       12.2728       12.2809      11.051636       0.18830
   8     437.6        1.2294        0.0083       11.4776       11.4859      10.256462       0.17001
   7     480.5        1.2299        0.0086       10.7300       10.7385       9.508606       0.14688
   6     533.0        1.2311        0.0089       10.0326       10.0415       8.810421       0.11232
   5     589.8        1.2331        0.0093        9.5050        9.5143       8.281257       0.07855
   4     651.6        1.2364        0.0098        9.0814        9.0912       7.854805       0.05832
   3     718.7        1.2413        0.0104        8.7024        8.7128       7.471519       0.04817
   2     792.3        1.2482        0.0110        8.3379        8.3490       7.100829       0.04251
   1     891.5        1.2610        0.0119        7.9064        7.9182       6.657224       0.03775
   0    1013.0        1.2878        0.0128        7.4741        7.4869       6.199077       0.03181



 Wavenumbers:  6150. -  7700. cm-1, ATM      1
 LEVEL PRESSURE   UPWARD FLUX   DIFDOWN FLUX  DIRDOWN FLUX  DOWNWARD FLUX   NET FLUX    HEATING RATE
          mb          W/m2          W/m2          W/m2        W/m2          W/m2       degree/day
  51    .06700        1.8558        0.0000       30.4684       30.4684      28.612629       0.00000
  50    .07753        1.8558        0.0000       30.4683       30.4683      28.612577       0.04144
  49    .09103        1.8558        0.0000       30.4683       30.4683      28.612510       0.04174
  48    0.1069        1.8558        0.0000       30.4682       30.4682      28.612431       0.04202
  47    0.1255        1.8557        0.0000       30.4681       30.4681      28.612338       0.04227
  46    0.1487        1.8557        0.0000       30.4680       30.4680      28.612217       0.04411
  45    0.1794        1.8557        0.0000       30.4678       30.4678      28.612047       0.04669
  44    0.2165        1.8557        0.0000       30.4676       30.4676      28.611840       0.04715
  43    0.2613        1.8557        0.0000       30.4673       30.4673      28.611588       0.04744
  42    0.3336        1.8557        0.0000       30.4669       30.4669      28.611161       0.04974
  41    0.4307        1.8557        0.0000       30.4663       30.4663      28.610580       0.05052
  40    0.5894        1.8557        0.0001       30.4653       30.4653      28.609613       0.05146
  39     1.339        1.8556        0.0001       30.4604       30.4606      28.604929       0.05273
  38     1.782        1.8556        0.0002       30.4576       30.4578      28.602179       0.05235
  37     2.292        1.8555        0.0002       30.4543       30.4545      28.599021       0.05231
  36     2.964        1.8555        0.0003       30.4501       30.4504      28.594913       0.05156
  35     3.853        1.8554        0.0004       30.4445       30.4449      28.589556       0.05084
  34     5.035        1.8552        0.0005       30.4373       30.4378      28.582557       0.05000
  33     6.613        1.8551        0.0007       30.4278       30.4285      28.573409       0.04890
  32     8.786        1.8549        0.0009       30.4154       30.4163      28.561456       0.04642
  31     11.80        1.8546        0.0013       30.3984       30.3996      28.545071       0.04587
  30     15.07        1.8542        0.0016       30.3810       30.3826      28.528358       0.04315
  29     18.79        1.8539        0.0020       30.3623       30.3643      28.510457       0.04059
  28     23.16        1.8534        0.0025       30.3417       30.3442      28.490774       0.03806
  27     28.12        1.8529        0.0030       30.3196       30.3226      28.469675       0.03587
  26     33.73        1.8523        0.0036       30.2965       30.3001      28.447756       0.03295
  25     40.54        1.8517        0.0043       30.2708       30.2751      28.423420       0.03019
  24     48.69        1.8508        0.0052       30.2423       30.2475      28.396644       0.02771
  23     57.69        1.8499        0.0062       30.2139       30.2200      28.370079       0.02490
  22     68.43        1.8489        0.0073       30.1834       30.1907      28.341805       0.02223
  21     81.20        1.8476        0.0087       30.1500       30.1587      28.311077       0.02030
  20     96.49        1.8460        0.0103       30.1126       30.1229      28.276861       0.01888
  19     114.6        1.8442        0.0122       30.0695       30.0817      28.237479       0.01839
  18     136.5        1.8421        0.0145       30.0139       30.0284      28.186329       0.01967
  17     162.9        1.8395        0.0172       29.9225       29.9397      28.100160       0.02754
  16     196.4        1.8362        0.0206       29.7333       29.7540      27.917792       0.04590
  15     218.7        1.8340        0.0229       29.5259       29.5487      27.714683       0.07711
  14     243.0        1.8318        0.0252       29.1375       29.1626      27.330892       0.13311
  13     269.0        1.8294        0.0274       28.3800       28.4074      26.577991       0.24424
  12     297.5        1.8270        0.0294       27.3895       27.4190      25.591960       0.29245
  11     328.5        1.8247        0.0314       26.2257       26.2571      24.432374       0.31529
  10     361.9        1.8226        0.0331       24.8453       24.8785      23.055894       0.34826
   9     398.1        1.8207        0.0346       23.3471       23.3817      21.560959       0.34829
   8     437.6        1.8194        0.0359       21.7966       21.8325      20.013102       0.33094
   7     480.5        1.8190        0.0368       20.1977       20.2345      18.415544       0.31375
   6     533.0        1.8201        0.0377       18.4969       18.5346      16.714519       0.27364
   5     589.8        1.8238        0.0386       16.9754       17.0140      15.190177       0.22626
   4     651.6        1.8314        0.0394       15.6022       15.6416      13.810237       0.18871
   3     718.7        1.8438        0.0405       14.4232       14.4637      12.619894       0.14959
   2     792.3        1.8618        0.0417       13.4386       13.4803      11.618576       0.11484
   1     891.5        1.8962        0.0435       12.3736       12.4171      10.520842       0.09341
   0    1013.0        1.9674        0.0454       11.2911       11.3365       9.369131       0.07997



 Wavenumbers:  7700. -  8050. cm-1, ATM      1
 LEVEL PRESSURE   UPWARD FLUX   DIFDOWN FLUX  DIRDOWN FLUX  DOWNWARD FLUX   NET FLUX    HEATING RATE
          mb          W/m2          W/m2          W/m2        W/m2          W/m2       degree/day
  51    .06700        0.9717        0.0000        7.2006        7.2006       6.228890       0.00000
  50    .07753        0.9717        0.0000        7.2006        7.2006       6.228871       0.01471
  49    .09103        0.9717        0.0000        7.2005        7.2005       6.228848       0.01441
  48    0.1069        0.9717        0.0000        7.2005        7.2005       6.228822       0.01411
  47    0.1255        0.9717        0.0000        7.2005        7.2005       6.228791       0.01381
  46    0.1487        0.9717        0.0000        7.2004        7.2005       6.228753       0.01401
  45    0.1794        0.9717        0.0000        7.2004        7.2004       6.228700       0.01442
  44    0.2165        0.9717        0.0000        7.2003        7.2003       6.228638       0.01414
  43    0.2613        0.9717        0.0000        7.2003        7.2003       6.228565       0.01388
  42    0.3336        0.9717        0.0000        7.2001        7.2001       6.228443       0.01420
  41    0.4307        0.9717        0.0000        7.2000        7.2000       6.228281       0.01404
  40    0.5894        0.9717        0.0000        7.1997        7.1997       6.228018       0.01403
  39     1.339        0.9717        0.0001        7.1984        7.1985       6.226770       0.01404
  38     1.782        0.9717        0.0001        7.1977        7.1978       6.226038       0.01394
  37     2.292        0.9717        0.0001        7.1968        7.1969       6.225190       0.01404
  36     2.964        0.9717        0.0001        7.1957        7.1958       6.224078       0.01396
  35     3.853        0.9718        0.0002        7.1942        7.1944       6.222609       0.01394
  34     5.035        0.9718        0.0002        7.1922        7.1924       6.220660       0.01393
  33     6.613        0.9718        0.0003        7.1896        7.1899       6.218059       0.01391
  32     8.786        0.9719        0.0004        7.1860        7.1864       6.214559       0.01359
  31     11.80        0.9719        0.0005        7.1810        7.1815       6.209565       0.01398
  30     15.07        0.9720        0.0006        7.1755        7.1762       6.204218       0.01380
  29     18.79        0.9720        0.0008        7.1694        7.1702       6.198199       0.01365
  28     23.16        0.9721        0.0010        7.1623        7.1633       6.191197       0.01354
  27     28.12        0.9722        0.0012        7.1542        7.1554       6.183227       0.01355
  26     33.73        0.9723        0.0014        7.1452        7.1467       6.174356       0.01334
  25     40.54        0.9725        0.0017        7.1344        7.1362       6.163707       0.01321
  24     48.69        0.9726        0.0021        7.1215        7.1236       6.150969       0.01318
  23     57.69        0.9728        0.0025        7.1074        7.1099       6.137101       0.01300
  22     68.43        0.9730        0.0029        7.0909        7.0938       6.120753       0.01285
  21     81.20        0.9733        0.0034        7.0713        7.0748       6.101513       0.01271
  20     96.49        0.9736        0.0041        7.0484        7.0525       6.078915       0.01247
  19     114.6        0.9740        0.0048        7.0217        7.0265       6.052531       0.01232
  18     136.5        0.9744        0.0057        6.9906        6.9963       6.021864       0.01179
  17     162.9        0.9750        0.0068        6.9544        6.9612       5.986150       0.01142
  16     196.4        0.9758        0.0081        6.9087        6.9169       5.941075       0.01135
  15     218.7        0.9763        0.0090        6.8794        6.8885       5.912123       0.01099
  14     243.0        0.9769        0.0100        6.8481        6.8581       5.881183       0.01073
  13     269.0        0.9776        0.0110        6.8147        6.8258       5.848153       0.01071
  12     297.5        0.9784        0.0122        6.7791        6.7912       5.812866       0.01047
  11     328.5        0.9793        0.0134        6.7409        6.7543       5.775061       0.01028
  10     361.9        0.9803        0.0147        6.7002        6.7148       5.734539       0.01025
   9     398.1        0.9815        0.0161        6.6563        6.6723       5.690834       0.01018
   8     437.6        0.9829        0.0175        6.6089        6.6264       5.643469       0.01013
   7     480.5        0.9847        0.0191        6.5570        6.5761       5.591452       0.01022
   6     533.0        0.9871        0.0211        6.4915        6.5125       5.525415       0.01062
   5     589.8        0.9902        0.0231        6.4182        6.4414       5.451161       0.01102
   4     651.6        0.9941        0.0253        6.3359        6.3612       5.367112       0.01149
   3     718.7        0.9989        0.0276        6.2441        6.2718       5.272881       0.01184
   2     792.3        1.0047        0.0300        6.1437        6.1738       5.169102       0.01190
   1     891.5        1.0136        0.0332        6.0042        6.0374       5.023777       0.01237
   0    1013.0        1.0268        0.0369        5.8249        5.8618       4.834986       0.01311



 Wavenumbers:  8050. - 12850. cm-1, ATM      1
 LEVEL PRESSURE   UPWARD FLUX   DIFDOWN FLUX  DIRDOWN FLUX  DOWNWARD FLUX   NET FLUX    HEATING RATE
          mb          W/m2          W/m2          W/m2        W/m2          W/m2       degree/day
  51    .06700       13.2016        0.0000      100.8135      100.8135      87.611888       0.00000
  50    .07753       13.2016        0.0000      100.8135      100.8135      87.611888       0.00000
  49    .09103       13.2016        0.0001      100.8134      100.8135      87.611888       0.00000
  48    0.1069       13.2016        0.0001      100.8134      100.8134      87.611888      -0.00000
  47    0.1255       13.2015        0.0001      100.8133      100.8134      87.611888       0.00000
  46    0.1487       13.2015        0.0002      100.8132      100.8134      87.611888       0.00000
  45    0.1794       13.2014        0.0002      100.8131      100.8133      87.611888       0.00000
  44    0.2165       13.2013        0.0003      100.8129      100.8132      87.611888       0.00000
  43    0.2613       13.2013        0.0004      100.8127      100.8132      87.611888       0.00000
  42    0.3336       13.2011        0.0006      100.8125      100.8130      87.611888       0.00000
  41    0.4307       13.2010        0.0008      100.8121      100.8128      87.611888       0.00000
  40    0.5894       13.2007        0.0011      100.8115      100.8125      87.611888      -0.00000
  39     1.339       13.1993        0.0027      100.8085      100.8112      87.611888       0.00000
  38     1.782       13.1985        0.0036      100.8068      100.8103      87.611888       0.00000
  37     2.292       13.1975        0.0047      100.8047      100.8094      87.611888       0.00000
  36     2.964       13.1963        0.0061      100.8021      100.8082      87.611888      -0.00000
  35     3.853       13.1946        0.0079      100.7986      100.8065      87.611888       0.00000
  34     5.035       13.1925        0.0104      100.7940      100.8043      87.611888      -0.00000
  33     6.613       13.1895        0.0137      100.7878      100.8014      87.611888       0.00000
  32     8.786       13.1856        0.0181      100.7794      100.7975      87.611888      -0.00000
  31     11.80       13.1800        0.0245      100.7674      100.7919      87.611888       0.00000
  30     15.07       13.1740        0.0313      100.7546      100.7859      87.611888       0.00000
  29     18.79       13.1671        0.0390      100.7400      100.7790      87.611888      -0.00000
  28     23.16       13.1591        0.0481      100.7230      100.7710      87.611888      -0.00000
  27     28.12       13.1500        0.0584      100.7035      100.7619      87.611888       0.00000
  26     33.73       13.1398        0.0700      100.6817      100.7516      87.611888       0.00000
  25     40.54       13.1274        0.0840      100.6552      100.7392      87.611888       0.00000
  24     48.69       13.1124        0.1009      100.6234      100.7243      87.611888       0.00000
  23     57.69       13.0959        0.1195      100.5883      100.7078      87.611888      -0.00000
  22     68.43       13.0763        0.1417      100.5464      100.6882      87.611888       0.00000
  21     81.20       13.0528        0.1682      100.4965      100.6647      87.611888      -0.00000
  20     96.49       13.0248        0.1998      100.4370      100.6367      87.611888       0.00000
  19     114.6       12.9916        0.2373      100.3585      100.5958      87.604226       0.00358
  18     136.5       12.9521        0.2819      100.2634      100.5453      87.593196       0.00424
  17     162.9       12.9050        0.3351      100.1407      100.4758      87.570798       0.00716
  16     196.4       12.8437        0.4041       99.9505      100.3546      87.510900       0.01508
  15     218.7       12.8035        0.4495       99.7889      100.2384      87.434953       0.02883
  14     243.0       12.7597        0.4987       99.5472      100.0459      87.286153       0.05161
  13     269.0       12.7125        0.5516       99.1452       99.6969      86.984338       0.09791
  12     297.5       12.6620        0.6084       98.5975       99.2059      86.543842       0.13065
  11     328.5       12.6083        0.6691       97.8659       98.5350      85.926687       0.16780
  10     361.9       12.5517        0.7334       96.8848       97.6182      85.066540       0.21763
   9     398.1       12.4927        0.8012       95.6330       96.4342      83.941489       0.26211
   8     437.6       12.4323        0.8719       94.0655       94.9374      82.505035       0.30712
   7     480.5       12.3727        0.9446       92.0807       93.0253      80.652618       0.36381
   6     533.0       12.3076        1.0299       89.4449       90.4747      78.167134       0.39984
   5     589.8       12.2495        1.1174       86.5544       87.6718      75.422352       0.40742
   4     651.6       12.2043        1.2067       83.4174       84.6241      72.419759       0.41061
   3     718.7       12.1756        1.2984       80.2037       81.5021      69.326477       0.38874
   2     792.3       12.1663        1.3931       77.0811       78.4741      66.307794       0.34621
   1     891.5       12.1987        1.5145       73.2645       74.7790      62.580365       0.31719
   0    1013.0       12.3524        1.6482       68.9425       70.5907      58.238238       0.30150



 Wavenumbers: 12850. - 16000. cm-1, ATM      1
 LEVEL PRESSURE   UPWARD FLUX   DIFDOWN FLUX  DIRDOWN FLUX  DOWNWARD FLUX   NET FLUX    HEATING RATE
          mb          W/m2          W/m2          W/m2        W/m2          W/m2       degree/day
  51    .06700       11.8126        0.0000       63.1686       63.1686      51.355980       0.00000
  50    .07753       11.8126        0.0000       63.1677       63.1678      51.355206       0.62064
  49    .09103       11.8125        0.0001       63.1666       63.1667      51.354242       0.60249
  48    0.1069       11.8125        0.0002       63.1654       63.1656      51.353146       0.58343
  47    0.1255       11.8124        0.0003       63.1640       63.1643      51.351901       0.56420
  46    0.1487       11.8123        0.0004       63.1623       63.1627      51.350352       0.56463
  45    0.1794       11.8122        0.0005       63.1600       63.1605      51.348279       0.56900
  44    0.2165       11.8121        0.0007       63.1573       63.1580      51.345889       0.54380
  43    0.2613       11.8119        0.0009       63.1542       63.1551      51.343140       0.51810
  42    0.3336       11.8117        0.0012       63.1493       63.1505      51.338779       0.50848
  41    0.4307       11.8114        0.0016       63.1431       63.1448      51.333353       0.47175
  40    0.5894       11.8110        0.0024       63.1338       63.1362      51.325201       0.43353
  39     1.339       11.8093        0.0057       63.0956       63.1013      51.291992       0.37387
  38     1.782       11.8087        0.0077       63.0740       63.0818      51.273081       0.36004
  37     2.292       11.8082        0.0100       63.0477       63.0577      51.249467       0.39111
  36     2.964       11.8081        0.0130       63.0095       63.0226      51.214474       0.43926
  35     3.853       11.8086        0.0170       62.9533       62.9703      51.161704       0.50080
  34     5.035       11.8099        0.0223       62.8725       62.8948      51.084952       0.54829
  33     6.613       11.8119        0.0293       62.7621       62.7914      50.979518       0.56365
  32     8.786       11.8143        0.0388       62.6182       62.6571      50.842767       0.53109
  31     11.80       11.8165        0.0523       62.4284       62.4807      50.664207       0.49991
  30     15.07       11.8173        0.0668       62.2426       62.3094      50.492043       0.44449
  29     18.79       11.8170        0.0830       62.0493       62.1323      50.315351       0.40062
  28     23.16       11.8151        0.1020       61.8424       61.9445      50.129373       0.35962
  27     28.12       11.8111        0.1236       61.6278       61.7514      49.940311       0.32139
  26     33.73       11.8042        0.1477       61.4177       61.5654      49.761246       0.26923
  25     40.54       11.7929        0.1768       61.1983       61.3751      49.582270       0.22204
  24     48.69       11.7764        0.2118       60.9680       61.1798      49.403398       0.18510
  23     57.69       11.7556        0.2501       60.7478       60.9979      49.242374       0.15094
  22     68.43       11.7278        0.2957       60.5202       60.8159      49.088086       0.12129
  21     81.20       11.6908        0.3500       60.2938       60.6438      48.953031       0.08924
  20     96.49       11.6429        0.4145       60.0643       60.4788      48.835904       0.06465
  19     114.6       11.5860        0.4913       59.8078       60.2991      48.713063       0.05736
  18     136.5       11.5170        0.5821       59.5157       60.0978      48.580803       0.05086
  17     162.9       11.4333        0.6898       59.1770       59.8668      48.433509       0.04708
  16     196.4       11.3216        0.8289       58.7604       59.5894      48.267722       0.04173
  15     218.7       11.2472        0.9199       58.4948       59.4147      48.167584       0.03802
  14     243.0       11.1657        1.0186       58.2089       59.2275      48.061778       0.03670
  13     269.0       11.0770        1.1251       57.9006       59.0257      47.948709       0.03668
  12     297.5       10.9807        1.2398       57.5668       58.8066      47.825835       0.03644
  11     328.5       10.8768        1.3632       57.2005       58.5637      47.686890       0.03778
  10     361.9       10.7651        1.4954       56.7963       58.2917      47.526632       0.04055
   9     398.1       10.6454        1.6369       56.3475       57.9844      47.338987       0.04372
   8     437.6       10.5179        1.7878       55.8422       57.6300      47.112103       0.04851
   7     480.5       10.3830        1.9479       55.2625       57.2105      46.827490       0.05590
   6     533.0       10.2200        2.1426       54.4972       56.6398      46.419776       0.06559
   5     589.8       10.0483        2.3488       53.6307       55.9795      45.931162       0.07253
   4     651.6        9.8694        2.5657       52.6606       55.2262      45.356868       0.07854
   3     718.7        9.6833        2.7932       51.6100       54.4033      44.719928       0.08005
   2     792.3        9.4910        3.0312       50.5019       53.5331      44.042081       0.07774
   1     891.5        9.2449        3.3428       49.0197       52.3625      43.117580       0.07867
   0    1013.0        8.9759        3.7007       47.2289       50.9296      41.953692       0.08081



 Wavenumbers: 16000. - 22650. cm-1, ATM      1
 LEVEL PRESSURE   UPWARD FLUX   DIFDOWN FLUX  DIRDOWN FLUX  DOWNWARD FLUX   NET FLUX    HEATING RATE
          mb          W/m2          W/m2          W/m2        W/m2          W/m2       degree/day
  51    .06700       31.9859        0.0000      100.7153      100.7153      68.729436       0.00000
  50    .07753       31.9857        0.0003      100.7147      100.7150      68.729340       0.07762
  49    .09103       31.9854        0.0006      100.7140      100.7146      68.729199       0.08804
  48    0.1069       31.9852        0.0010      100.7131      100.7142      68.729010       0.10039
  47    0.1255       31.9849        0.0015      100.7121      100.7136      68.728758       0.11443
  46    0.1487       31.9845        0.0021      100.7108      100.7129      68.728386       0.13560
  45    0.1794       31.9840        0.0029      100.7089      100.7118      68.727804       0.15966
  44    0.2165       31.9834        0.0038      100.7066      100.7104      68.727015       0.17944
  43    0.2613       31.9827        0.0049      100.7037      100.7086      68.725945       0.20173
  42    0.3336       31.9816        0.0068      100.6987      100.7055      68.723911       0.23722
  41    0.4307       31.9802        0.0093      100.6918      100.7010      68.720844       0.26665
  40    0.5894       31.9780        0.0133      100.6797      100.6930      68.714995       0.31102
  39     1.339       31.9700        0.0323      100.6095      100.6418      68.671799       0.48631
  38     1.782       31.9669        0.0434      100.5585      100.6019      68.635018       0.70024
  37     2.292       31.9648        0.0564      100.4903      100.5466      68.581804       0.88137
  36     2.964       31.9644        0.0733      100.3868      100.4600      68.495659       1.08138
  35     3.853       31.9671        0.0956      100.2306      100.3262      68.359121       1.29577
  34     5.035       31.9739        0.1252      100.0045      100.1297      68.155762       1.45272
  33     6.613       31.9848        0.1647       99.6939       99.8586      67.873827       1.50722
  32     8.786       31.9976        0.2177       99.2881       99.5058      67.508142       1.42019
  31     11.80       32.0099        0.2933       98.7496       99.0429      67.033029       1.33017
  30     15.07       32.0157        0.3740       98.2198       98.5938      66.578153       1.17440
  29     18.79       32.0158        0.4648       97.6651       98.1300      66.114180       1.05197
  28     23.16       32.0084        0.5704       97.0671       97.6375      65.629131       0.93793
  27     28.12       31.9913        0.6905       96.4406       97.1311      65.139833       0.83177
  26     33.73       31.9595        0.8243       95.8179       96.6422      64.682702       0.68731
  25     40.54       31.9068        0.9853       95.1548       96.1401      64.233335       0.55749
  24     48.69       31.8293        1.1783       94.4420       95.6202      63.790964       0.45778
  23     57.69       31.7308        1.3891       93.7416       95.1307      63.399870       0.36659
  22     68.43       31.5993        1.6388       92.9954       94.6341      63.034786       0.28700
  21     81.20       31.4232        1.9346       92.2231       94.1577      62.734468       0.19845
  20     96.49       31.1957        2.2848       91.4110       93.6958      62.500089       0.12936
  19     114.6       30.9174        2.6970       90.5070       93.2040      62.286553       0.09971
  18     136.5       30.5827        3.1802       89.4803       92.6605      62.077777       0.08028
  17     162.9       30.1805        3.7484       88.3022       92.0506      61.870085       0.06639
  16     196.4       29.6500        4.4741       86.8606       91.3347      61.684762       0.04665
  15     218.7       29.2991        4.9441       85.9492       90.8932      61.594102       0.03442
  14     243.0       28.9175        5.4489       84.9789       90.4278      61.510346       0.02905
  13     269.0       28.5037        5.9890       83.9493       89.9383      61.434613       0.02457
  12     297.5       28.0568        6.5648       82.8589       89.4238      61.366936       0.02007
  11     328.5       27.5755        7.1778       81.6982       88.8761      61.300531       0.01806
  10     361.9       27.0593        7.8273       80.4669       88.2942      61.234937       0.01660
   9     398.1       26.5062        8.5142       79.1611       87.6753      61.169152       0.01533
   8     437.6       25.9154        9.2382       77.7777       87.0159      61.100522       0.01467
   7     480.5       25.2858        9.9986       76.3136       86.3123      61.026462       0.01455
   6     533.0       24.5162       10.9128       74.5359       85.4487      60.932502       0.01512
   5     589.8       23.6934       11.8715       72.6469       84.5184      60.825001       0.01596
   4     651.6       22.8169       12.8712       70.6456       83.5168      60.699933       0.01710
   3     718.7       21.8855       13.9085       68.5367       82.4452      60.559692       0.01762
   2     792.3       20.9002       14.9769       66.3287       81.3056      60.405402       0.01770
   1     891.5       19.5903       16.3504       63.4246       79.7750      60.184699       0.01878
   0    1013.0       18.0475       17.8957       60.0483       77.9440      59.896543       0.02001



 Wavenumbers: 22650. - 29000. cm-1, ATM      1
 LEVEL PRESSURE   UPWARD FLUX   DIFDOWN FLUX  DIRDOWN FLUX  DOWNWARD FLUX   NET FLUX    HEATING RATE
          mb          W/m2          W/m2          W/m2        W/m2          W/m2       degree/day
  51    .06700       18.7275        0.0000       38.0063       38.0063      19.278763       0.00000
  50    .07753       18.7273        0.0003       38.0057       38.0061      19.278763       0.00000
  49    .09103       18.7270        0.0008       38.0050       38.0058      19.278763       0.00000
  48    0.1069       18.7267        0.0012       38.0042       38.0055      19.278763      -0.00000
  47    0.1255       18.7264        0.0018       38.0033       38.0051      19.278763       0.00000
  46    0.1487       18.7259        0.0025       38.0022       38.0047      19.278763       0.00000
  45    0.1794       18.7253        0.0035       38.0006       38.0041      19.278763      -0.00000
  44    0.2165       18.7246        0.0046       37.9987       38.0033      19.278763       0.00000
  43    0.2613       18.7237        0.0060       37.9965       38.0025      19.278763      -0.00000
  42    0.3336       18.7223        0.0082       37.9928       38.0011      19.278763       0.00000
  41    0.4307       18.7204        0.0112       37.9880       37.9992      19.278763       0.00000
  40    0.5894       18.7173        0.0160       37.9800       37.9961      19.278763       0.00000
  39     1.339       18.7027        0.0389       37.9425       37.9814      19.278763       0.00000
  38     1.782       18.6941        0.0524       37.9204       37.9728      19.278763      -0.00000
  37     2.292       18.6841        0.0680       37.8949       37.9629      19.278763       0.00000
  36     2.964       18.6711        0.0884       37.8614       37.9498      19.278763       0.00000
  35     3.853       18.6538        0.1154       37.8172       37.9326      19.278763      -0.00000
  34     5.035       18.6309        0.1511       37.7586       37.9097      19.278763       0.00000
  33     6.613       18.6004        0.1988       37.6803       37.8791      19.278763       0.00000
  32     8.786       18.5592        0.2630       37.5750       37.8380      19.278763       0.00000
  31     11.80       18.5005        0.3544       37.4249       37.7793      19.278763      -0.00000
  30     15.07       18.4376        0.4522       37.2642       37.7163      19.278763       0.00000
  29     18.79       18.3666        0.5621       37.0833       37.6454      19.278763      -0.00000
  28     23.16       18.2840        0.6898       36.8730       37.5628      19.278763       0.00000
  27     28.12       18.1899        0.8348       36.6338       37.4686      19.278763       0.00000
  26     33.73       18.0849        0.9960       36.3677       37.3637      19.278763      -0.00000
  25     40.54       17.9587        1.1889       36.0486       37.2375      19.278763       0.00000
  24     48.69       17.8075        1.4190       35.6672       37.0862      19.278763      -0.00000
  23     57.69       17.6424        1.6685       35.2527       36.9212      19.278763       0.00000
  22     68.43       17.4475        1.9613       34.7649       36.7262      19.278763       0.00000
  21     81.20       17.2174        2.3039       34.1922       36.4962      19.278763       0.00000
  20     96.49       16.9464        2.7034       33.5217       36.2252      19.278763      -0.00000
  19     114.6       16.6292        3.1656       32.7424       35.9079      19.278763       0.00000
  18     136.5       16.2592        3.6964       31.8416       35.5380      19.278763      -0.00000
  17     162.9       15.8272        4.3052       30.8008       35.1060      19.278763       0.00000
  16     196.4       15.2802        5.0583       29.5007       34.5590      19.278763      -0.00000
  15     218.7       14.9290        5.5311       28.6767       34.2078      19.278763       0.00000
  14     243.0       14.5540        6.0260       27.8068       33.8328      19.278763       0.00000
  13     269.0       14.1554        6.5408       26.8933       33.4342      19.278763       0.00000
  12     297.5       13.7333        7.0728       25.9393       33.0121      19.278763       0.00000
  11     328.5       13.2869        7.6205       24.9451       32.5656      19.278763       0.00000
  10     361.9       12.8169        8.1797       23.9160       32.0957      19.278763       0.00000
   9     398.1       12.3230        8.7476       22.8541       31.6017      19.278763       0.00000
   8     437.6       11.8055        9.3198       21.7645       31.0843      19.278763       0.00000
   7     480.5       11.2650        9.8916       20.6521       30.5437      19.278763       0.00000
   6     533.0       10.6182       10.5400       19.3569       29.8969      19.278763       0.00000
   5     589.8        9.9422       11.1743       18.0467       29.2210      19.278763       0.00000
   4     651.6        9.2384       11.7855       16.7316       28.5171      19.278763      -0.00000
   3     718.7        8.5076       12.3650       15.4214       27.7864      19.278763       0.00000
   2     792.3        7.7519       12.9031       14.1276       27.0307      19.278763       0.00000
   1     891.5        6.7717       13.5046       12.5459       26.0505      19.278763       0.00000
   0    1013.0        5.6475       14.0545       10.8717       24.9263      19.278763       0.00000



 Wavenumbers: 29000. - 38000. cm-1, ATM      1
 LEVEL PRESSURE   UPWARD FLUX   DIFDOWN FLUX  DIRDOWN FLUX  DOWNWARD FLUX   NET FLUX    HEATING RATE
          mb          W/m2          W/m2          W/m2        W/m2          W/m2       degree/day
  51    .06700        3.3159        0.0000       13.4026       13.4026      10.086686       0.00000
  50    .07753        3.3157        0.0003       13.3983       13.3986      10.082890       3.04294
  49    .09103        3.3154        0.0006       13.3921       13.3928      10.077373       3.44801
  48    0.1069        3.3151        0.0010       13.3840       13.3851      10.070000       3.92484
  47    0.1255        3.3147        0.0015       13.3733       13.3749      10.060160       4.46095
  46    0.1487        3.3142        0.0021       13.3579       13.3600      10.045725       5.26170
  45    0.1794        3.3136        0.0029       13.3340       13.3370      10.023337       6.14605
  44    0.2165        3.3129        0.0039       13.3024       13.3062       9.993334       6.82509
  43    0.2613        3.3121        0.0050       13.2604       13.2654       9.953302       7.54589
  42    0.3336        3.3107        0.0068       13.1833       13.1901       9.879339       8.62336
  41    0.4307        3.3090        0.0092       13.0729       13.0821       9.773034       9.24298
  40    0.5894        3.3064        0.0129       12.8796       12.8925       9.586122       9.93976
  39     1.339        3.2962        0.0285       11.9165       11.9450       8.648779      10.55278
  38     1.782        3.2917        0.0364       11.4399       11.4763       8.184639       8.83648
  37     2.292        3.2875        0.0448       10.9796       11.0244       7.736898       7.41576
  36     2.964        3.2836        0.0551       10.4786       10.5337       7.250158       6.11006
  35     3.853        3.2804        0.0678        9.9429       10.0107       6.730251       4.93401
  34     5.035        3.2783        0.0835        9.4007        9.4842       6.205862       3.74602
  33     6.613        3.2772        0.1034        8.8752        8.9786       5.701450       2.69659
  32     8.786        3.2761        0.1290        8.3786        8.5076       5.231474       1.82522
  31     11.80        3.2736        0.1640        7.8897        8.0536       4.779966       1.26408
  30     15.07        3.2698        0.1999        7.5108        7.7107       4.440910       0.87538
  29     18.79        3.2645        0.2389        7.1776        7.4166       4.152068       0.65489
  28     23.16        3.2571        0.2828        6.8664        7.1492       3.892051       0.50279
  27     28.12        3.2472        0.3310        6.5780        6.9090       3.661779       0.39145
  26     33.73        3.2333        0.3834        6.3195        6.7029       3.469598       0.28895
  25     40.54        3.2128        0.4449        6.0663        6.5112       3.298381       0.21241
  24     48.69        3.1852        0.5168        5.8128        6.3296       3.144479       0.15926
  23     57.69        3.1519        0.5932        5.5777        6.1709       3.018955       0.11766
  22     68.43        3.1092        0.6811        5.3379        6.0190       2.909752       0.08585
  21     81.20        3.0537        0.7827        5.0965        5.8792       2.825468       0.05569
  20     96.49        2.9838        0.8994        4.8476        5.7470       2.763231       0.03435
  19     114.6        2.9009        1.0306        4.5799        5.6105       2.709540       0.02507
  18     136.5        2.8051        1.1758        4.2891        5.4649       2.659734       0.01915
  17     162.9        2.6952        1.3348        3.9732        5.3080       2.612829       0.01499
  16     196.4        2.5570        1.5223        3.6080        5.1303       2.573334       0.00994
  15     218.7        2.4695        1.6346        3.3898        5.0243       2.554796       0.00704
  14     243.0        2.3777        1.7473        3.1686        4.9158       2.538177       0.00576
  13     269.0        2.2816        1.8592        2.9461        4.8053       2.523704       0.00469
  12     297.5        2.1816        1.9691        2.7239        4.6930       2.511362       0.00366
  11     328.5        2.0782        2.0753        2.5029        4.5782       2.499950       0.00310
  10     361.9        1.9716        2.1765        2.2846        4.4611       2.489478       0.00265
   9     398.1        1.8621        2.2712        2.0708        4.3420       2.479932       0.00222
   8     437.6        1.7498        2.3583        1.8626        4.2209       2.471100       0.00189
   7     480.5        1.6350        2.4359        1.6621        4.0981       2.463069       0.00158
   6     533.0        1.5007        2.5118        1.4437        3.9555       2.454732       0.00134
   5     589.8        1.3636        2.5717        1.2390        3.8107       2.447098       0.00113
   4     651.6        1.2238        2.6139        1.0500        3.6639       2.440060       0.00096
   3     718.7        1.0813        2.6371        0.8778        3.5149       2.433598       0.00081
   2     792.3        0.9360        2.6400        0.7237        3.3637       2.427698       0.00068
   1     891.5        0.7495        2.6142        0.5563        3.1705       2.421018       0.00057
   0    1013.0        0.5364        2.5469        0.4039        2.9508       2.414443       0.00046



 Wavenumbers: 38000. - 50000. cm-1, ATM      1
 LEVEL PRESSURE   UPWARD FLUX   DIFDOWN FLUX  DIRDOWN FLUX  DOWNWARD FLUX   NET FLUX    HEATING RATE
          mb          W/m2          W/m2          W/m2        W/m2          W/m2       degree/day
  51    .06700        0.0051        0.0000        0.8267        0.8267       0.821528       0.00000
  50    .07753        0.0051        0.0001        0.8242        0.8243       0.819196       1.86936
  49    .09103        0.0050        0.0002        0.8207        0.8209       0.815872       2.07705
  48    0.1069        0.0049        0.0002        0.8162        0.8164       0.811514       2.31984
  47    0.1255        0.0048        0.0004        0.8103        0.8106       0.805801       2.59006
  46    0.1487        0.0047        0.0005        0.8018        0.8023       0.797567       3.00143
  45    0.1794        0.0045        0.0007        0.7889        0.7896       0.785013       3.44648
  44    0.2165        0.0044        0.0009        0.7720        0.7729       0.768507       3.75474
  43    0.2613        0.0042        0.0011        0.7500        0.7511       0.746955       4.06246
  42    0.3336        0.0039        0.0015        0.7106        0.7121       0.708267       4.51071
  41    0.4307        0.0035        0.0019        0.6566        0.6584       0.654972       4.63387
  40    0.5894        0.0029        0.0024        0.5680        0.5704       0.567464       4.65357
  39     1.339        0.0015        0.0030        0.2422        0.2452       0.243720       3.64476
  38     1.782        0.0010        0.0026        0.1493        0.1519       0.150889       1.76735
  37     2.292        0.0007        0.0022        0.0924        0.0946       0.093932       0.94336
  36     2.964        0.0005        0.0018        0.0539        0.0557       0.055224       0.48589
  35     3.853        0.0003        0.0013        0.0295        0.0308       0.030502       0.23462
  34     5.035        0.0002        0.0010        0.0154        0.0164       0.016181       0.10230
  33     6.613        0.0001        0.0007        0.0073        0.0080       0.007912       0.04420
  32     8.786        0.0000        0.0004        0.0030        0.0034       0.003390       0.01756
  31     11.80        0.0000        0.0003        0.0010        0.0012       0.001199       0.00613
  30     15.07        0.0000        0.0001        0.0003        0.0005       0.000463       0.00190
  29     18.79        0.0000        0.0001        0.0001        0.0002       0.000182       0.00064
  28     23.16        0.0000        0.0000        0.0000        0.0001       0.000071       0.00022
  27     28.12        0.0000        0.0000        0.0000        0.0000       0.000028       0.00007
  26     33.73        0.0000        0.0000        0.0000        0.0000       0.000011       0.00002
  25     40.54        0.0000        0.0000        0.0000        0.0000       0.000005       0.00001
  24     48.69        0.0000        0.0000        0.0000        0.0000       0.000002       0.00000
  23     57.69        0.0000        0.0000        0.0000        0.0000       0.000001       0.00000
  22     68.43        0.0000        0.0000        0.0000        0.0000       0.000000       0.00000
  21     81.20        0.0000        0.0000        0.0000        0.0000       0.000000       0.00000
  20     96.49        0.0000        0.0000        0.0000        0.0000       0.000000       0.00000
  19     114.6        0.0000        0.0000        0.0000        0.0000       0.000000       0.00000
  18     136.5        0.0000        0.0000        0.0000        0.0000       0.000000       0.00000
  17     162.9        0.0000        0.0000        0.0000        0.0000       0.000000       0.00000
  16     196.4        0.0000        0.0000        0.0000        0.0000       0.000000       0.00000
  15     218.7        0.0000        0.0000        0.0000        0.0000       0.000000       0.00000
  14     243.0        0.0000        0.0000        0.0000        0.0000       0.000000       0.00000
  13     269.0        0.0000        0.0000        0.0000        0.0000       0.000000       0.00000
  12     297.5        0.0000        0.0000        0.0000        0.0000       0.000000       0.00000
  11     328.5        0.0000        0.0000        0.0000        0.0000       0.000000       0.00000
  10     361.9        0.0000        0.0000        0.0000        0.0000       0.000000       0.00000
   9     398.1        0.0000        0.0000        0.0000        0.0000       0.000000       0.00000
   8     437.6        0.0000        0.0000        0.0000        0.0000       0.000000       0.00000
   7     480.5        0.0000        0.0000        0.0000        0.0000       0.000000       0.00000
   6     533.0        0.0000        0.0000        0.0000        0.0000       0.000000       0.00000
   5     589.8        0.0000        0.0000        0.0000        0.0000       0.000000       0.00000
   4     651.6        0.0000        0.0000        0.0000        0.0000       0.000000       0.00000
   3     718.7        0.0000        0.0000        0.0000        0.0000       0.000000       0.00000
   2     792.3        0.0000        0.0000        0.0000        0.0000       0.000000       0.00000
   1     891.5        0.0000        0.0000        0.0000        0.0000       0.000000       0.00000
   0    1013.0        0.0000        0.0000        0.0000        0.0000       0.000000       0.00000



 Wavenumbers:   820. -  2600. cm-1, ATM      1
 LEVEL PRESSURE   UPWARD FLUX   DIFDOWN FLUX  DIRDOWN FLUX  DOWNWARD FLUX   NET FLUX    HEATING RATE
          mb          W/m2          W/m2          W/m2        W/m2          W/m2       degree/day
  51    .06700        0.1274        0.0000        3.8670        3.8670       3.739658       0.00000
  50    .07753        0.1274        0.0000        3.8643        3.8643       3.736941       2.17769
  49    .09103        0.1274        0.0000        3.8635        3.8635       3.736131       0.50638
  48    0.1069        0.1274        0.0000        3.8626        3.8626       3.735240       0.47415
  47    0.1255        0.1274        0.0000        3.8616        3.8616       3.734279       0.43559
  46    0.1487        0.1274        0.0000        3.8605        3.8605       3.733170       0.40437
  45    0.1794        0.1274        0.0000        3.8592        3.8592       3.731835       0.36647
  44    0.2165        0.1274        0.0000        3.8578        3.8578       3.730457       0.31346
  43    0.2613        0.1274        0.0000        3.8564        3.8564       3.728997       0.27522
  42    0.3336        0.1274        0.0000        3.8541        3.8541       3.726766       0.26012
  41    0.4307        0.1274        0.0000        3.8512        3.8512       3.723883       0.25063
  40    0.5894        0.1274        0.0000        3.8465        3.8465       3.719157       0.25133
  39     1.339        0.1274        0.0000        3.8251        3.8251       3.697782       0.24064
  38     1.782        0.1274        0.0000        3.8133        3.8133       3.685969       0.22489
  37     2.292        0.1274        0.0000        3.8003        3.8003       3.672908       0.21632
  36     2.964        0.1274        0.0000        3.7841        3.7841       3.656780       0.20246
  35     3.853        0.1274        0.0000        3.7642        3.7642       3.636865       0.18899
  34     5.035        0.1274        0.0000        3.7395        3.7395       3.612175       0.17638
  33     6.613        0.1274        0.0000        3.7090        3.7090       3.581640       0.16324
  32     8.786        0.1274        0.0000        3.6726        3.6726       3.545247       0.14133
  31     11.80        0.1274        0.0000        3.6320        3.6320       3.504654       0.11365
  30     15.07        0.1274        0.0000        3.6016        3.6016       3.474271       0.07844
  29     18.79        0.1274        0.0000        3.5777        3.5777       3.450374       0.05418
  28     23.16        0.1274        0.0000        3.5564        3.5564       3.429022       0.04129
  27     28.12        0.1274        0.0000        3.5348        3.5348       3.407477       0.03662
  26     33.73        0.1274        0.0000        3.5118        3.5118       3.384446       0.03463
  25     40.54        0.1274        0.0000        3.4849        3.4849       3.357560       0.03335
  24     48.69        0.1274        0.0000        3.4537        3.4537       3.326311       0.03234
  23     57.69        0.1274        0.0000        3.4210        3.4210       3.293640       0.03062
  22     68.43        0.1274        0.0000        3.3844        3.3844       3.257057       0.02876
  21     81.20        0.1274        0.0000        3.3441        3.3441       3.216761       0.02663
  20     96.49        0.1274        0.0000        3.2998        3.2998       3.172400       0.02448
  19     114.6        0.1274        0.0000        3.2506        3.2506       3.123255       0.02295
  18     136.5        0.1274        0.0000        3.1936        3.1936       3.066209       0.02194
  17     162.9        0.1274        0.0000        3.1181        3.1181       2.990711       0.02413
  16     196.4        0.1274        0.0000        3.0090        3.0090       2.881530       0.02748
  15     218.7        0.1275        0.0000        2.9420        2.9420       2.814531       0.02544
  14     243.0        0.1275        0.0000        2.8605        2.8605       2.732975       0.02829
  13     269.0        0.1276        0.0000        2.7419        2.7420       2.614404       0.03846
  12     297.5        0.1277        0.0000        2.5729        2.5729       2.445213       0.05018
  11     328.5        0.1279        0.0000        2.3602        2.3602       2.232345       0.05788
  10     361.9        0.1281        0.0000        2.1524        2.1524       2.024300       0.05264
   9     398.1        0.1285        0.0000        1.9974        1.9974       1.868887       0.03621
   8     437.6        0.1291        0.0000        1.8835        1.8835       1.754396       0.02448
   7     480.5        0.1300        0.0000        1.7734        1.7734       1.643466       0.02179
   6     533.0        0.1314        0.0000        1.6397        1.6398       1.508355       0.02174
   5     589.8        0.1335        0.0000        1.5068        1.5069       1.373375       0.02004
   4     651.6        0.1366        0.0000        1.3807        1.3807       1.244160       0.01767
   3     718.7        0.1407        0.0000        1.2680        1.2680       1.127377       0.01468
   2     792.3        0.1457        0.0000        1.1659        1.1660       1.020264       0.01228
   1     891.5        0.1542        0.0000        1.0372        1.0373       0.883066       0.01167
   0    1013.0        0.1696        0.0000        0.8716        0.8717       0.702049       0.01257

  Modules and versions used in this calculation:

       rrtmg_sw.1col.f90:  $Revision$                    rrtmg_sw_init.f90:  $Revision$        
     rrtmgsw_cldprop.f90:  $Revision$                  rrtmgsw_cldprmc.f90:  NOT USED          
     rrtmg_sw_reftra.f90:  $Revision$                  rrtmg_sw_spcvrt.f90:  NOT USED          
     rrtmg_sw_spcvmc.f90:  NOT USED                    rrtmgsw_setcoef.f90:  NOT USED          
     rrtmg_sw_taumol.f90:  $Revision$                  rrtmg_sw_vrtqdr.f90:  NOT USED          
                rrtatm.f:  NOT USED                             util_xxx.f:  NOT USED          
                 extra.f:  NOT USED                       rrtmg_sw_k_g.f90:  $Revision$        

