

 Wavenumbers:   820. - 50000. cm-1, ATM      1
 LEVEL PRESSURE   UPWARD FLUX   DIFDOWN FLUX  DIRDOWN FLUX  DOWNWARD FLUX   NET FLUX    HEATING RATE
          mb          W/m2          W/m2          W/m2        W/m2          W/m2       degree/day
  51    .06700      224.4858        0.0000      397.8738      397.8738     173.387976       0.00000
  50    .07753      224.4852        0.0012      397.8577      397.8589     173.373686      11.45398
  49    .09103      224.4845        0.0027      397.8418      397.8445     173.359998       8.55506
  48    0.1069      224.4837        0.0044      397.8230      397.8273     173.343651       8.70147
  47    0.1255      224.4828        0.0063      397.7997      397.8060     173.323210       9.26710
  46    0.1487      224.4817        0.0088      397.7676      397.7764     173.294754      10.37237
  45    0.1794      224.4802        0.0121      397.7205      397.7326     173.252465      11.60940
  44    0.2165      224.4785        0.0161      397.6602      397.6763     173.197821      12.43070
  43    0.2613      224.4766        0.0208      397.5829      397.6037     173.127028      13.34404
  42    0.3336      224.4737        0.0284      397.4449      397.4733     172.999598      14.85711
  41    0.4307      224.4702        0.0385      397.2524      397.2909     172.820742      15.55118
  40    0.5894      224.4650        0.0547      396.9253      396.9800     172.515047      16.25647
  39     1.339      224.4521        0.1272      395.4254      395.5526     171.100451      15.92577
  38     1.782      224.4523        0.1679      394.7288      394.8966     170.444310      12.49187
  37     2.292      224.4594        0.2142      394.0572      394.2713     169.811884      10.47463
  36     2.964      224.4789        0.2743      393.3007      393.5749     169.096013       8.98635
  35     3.853      224.5188        0.3528      392.4318      392.7846     168.265823       7.87865
  34     5.035      224.5857        0.4562      391.4441      391.9003     167.314531       6.79564
  33     6.613      224.6829        0.5932      390.3268      390.9199     166.237057       5.76018
  32     8.786      224.8081        0.7764      389.0624      389.8388     165.030663       4.68520
  31     11.80      224.9635        1.0364      387.5500      388.5864     163.622936       3.94119
  30     15.07      225.1024        1.3134      386.1556      387.4690     162.366593       3.24363
  29     18.79      225.2345        1.6239      384.7502      386.3741     161.139519       2.78215
  28     23.16      225.3602        1.9836      383.2686      385.2522     159.892008       2.41228
  27     28.12      225.4705        2.3917      381.7329      384.1246     158.654081       2.10439
  26     33.73      225.5450        2.8452      380.1982      383.0433     157.498388       1.73762
  25     40.54      225.5781        3.3890      378.5384      381.9274     156.349352       1.42551
  24     48.69      225.5637        4.0391      376.7214      380.7605     155.196858       1.19265
  23     57.69      225.4956        4.7465      374.8959      379.6424     154.146719       0.98435
  22     68.43      225.3588        5.5806      372.8999      378.4806     153.121798       0.80573
  21     81.20      225.1184        6.5640      370.7496      377.3137     152.195246       0.61225
  20     96.49      224.7623        7.7213      368.4056      376.1269     151.364551       0.45848
  19     114.6      224.3180        9.0735      365.7513      374.8248     150.506837       0.40049
  18     136.5      223.7762       10.6447      362.7231      373.3678     149.591591       0.35193
  17     162.9      223.1231       12.4720      359.1748      371.6467     148.523620       0.34137
  16     196.4      222.2479       14.7772      354.5718      369.3490     147.101094       0.35807
  15     218.7      221.6689       16.2525      351.4437      367.6962     146.027304       0.40768
  14     243.0      221.0441       17.8225      347.7111      365.5336     144.489508       0.53336
  13     269.0      220.3743       19.4854      342.9441      362.4296     142.055316       0.78964
  12     297.5      219.6611       21.2394      337.4137      358.6531     138.991938       0.90856
  11     328.5      218.9101       23.0861      331.1302      354.2164     135.306280       1.00212
  10     361.9      218.1261       25.0203      324.1219      349.1422     131.016193       1.08543
   9     398.1      217.3130       27.0417      316.6066      343.6483     126.335317       1.09054
   8     437.6      216.4804       29.1458      308.5895      337.7353     121.254907       1.08622
   7     480.5      215.6441       31.3271      299.9349      331.2620     115.617867       1.10709
   6     533.0      214.7010       33.9137      289.7021      323.6159     108.914862       1.07830
   5     589.8      213.7995       36.5871      279.3388      315.9259     102.126393       1.00763
   4     651.6      212.9838       39.3354      268.7786      308.1140      95.130275       0.95674
   3     718.7      212.2798       42.1500      258.2837      300.4337      88.153887       0.87674
   2     792.3      211.7155       45.0170      248.0774      293.0944      81.378963       0.77701
   1     891.5      211.3234       48.6618      235.5216      284.1834      72.860011       0.72492
   0    1013.0      211.6981       52.7197      221.4731      274.1928      62.494720       0.71972



 Wavenumbers:  2600. -  3250. cm-1, ATM      1
 LEVEL PRESSURE   UPWARD FLUX   DIFDOWN FLUX  DIRDOWN FLUX  DOWNWARD FLUX   NET FLUX    HEATING RATE
          mb          W/m2          W/m2          W/m2        W/m2          W/m2       degree/day
  51    .06700        0.5117        0.0000        3.5066        3.5066       2.994938       0.00000
  50    .07753        0.5117        0.0000        3.5066        3.5066       2.994930       0.00640
  49    .09103        0.5117        0.0000        3.5066        3.5066       2.994920       0.00627
  48    0.1069        0.5117        0.0000        3.5066        3.5066       2.994908       0.00613
  47    0.1255        0.5117        0.0000        3.5066        3.5066       2.994895       0.00599
  46    0.1487        0.5117        0.0000        3.5066        3.5066       2.994878       0.00607
  45    0.1794        0.5117        0.0000        3.5065        3.5065       2.994856       0.00624
  44    0.2165        0.5117        0.0000        3.5065        3.5065       2.994829       0.00611
  43    0.2613        0.5117        0.0000        3.5065        3.5065       2.994797       0.00598
  42    0.3336        0.5117        0.0000        3.5064        3.5064       2.994744       0.00615
  41    0.4307        0.5117        0.0000        3.5064        3.5064       2.994673       0.00618
  40    0.5894        0.5117        0.0000        3.5062        3.5062       2.994554       0.00633
  39     1.339        0.5117        0.0000        3.5055        3.5055       2.993855       0.00787
  38     1.782        0.5117        0.0000        3.5050        3.5050       2.993325       0.01011
  37     2.292        0.5117        0.0000        3.5043        3.5043       2.992632       0.01147
  36     2.964        0.5117        0.0000        3.5033        3.5033       2.991641       0.01245
  35     3.853        0.5117        0.0000        3.5019        3.5019       2.990264       0.01307
  34     5.035        0.5117        0.0000        3.5001        3.5001       2.988403       0.01329
  33     6.613        0.5117        0.0000        3.4977        3.4977       2.985993       0.01288
  32     8.786        0.5117        0.0000        3.4947        3.4947       2.983022       0.01154
  31     11.80        0.5117        0.0000        3.4911        3.4911       2.979387       0.01018
  30     15.07        0.5117        0.0000        3.4878        3.4878       2.976166       0.00832
  29     18.79        0.5117        0.0000        3.4848        3.4848       2.973102       0.00695
  28     23.16        0.5117        0.0000        3.4816        3.4816       2.969882       0.00623
  27     28.12        0.5117        0.0000        3.4779        3.4779       2.966263       0.00615
  26     33.73        0.5117        0.0000        3.4735        3.4735       2.961796       0.00672
  25     40.54        0.5117        0.0000        3.4671        3.4671       2.955469       0.00785
  24     48.69        0.5117        0.0000        3.4582        3.4583       2.946572       0.00921
  23     57.69        0.5117        0.0000        3.4472        3.4472       2.935521       0.01036
  22     68.43        0.5117        0.0000        3.4329        3.4329       2.921257       0.01121
  21     81.20        0.5117        0.0000        3.4152        3.4152       2.903523       0.01172
  20     96.49        0.5117        0.0000        3.3940        3.3941       2.882370       0.01167
  19     114.6        0.5117        0.0000        3.3692        3.3692       2.857469       0.01163
  18     136.5        0.5118        0.0001        3.3419        3.3420       2.830233       0.01047
  17     162.9        0.5118        0.0001        3.3129        3.3129       2.801130       0.00930
  16     196.4        0.5119        0.0001        3.2793        3.2794       2.767503       0.00846
  15     218.7        0.5120        0.0001        3.2578        3.2578       2.745831       0.00823
  14     243.0        0.5122        0.0001        3.2320        3.2321       2.719869       0.00900
  13     269.0        0.5125        0.0001        3.1968        3.1969       2.684474       0.01148
  12     297.5        0.5129        0.0001        3.1489        3.1491       2.636168       0.01433
  11     328.5        0.5135        0.0001        3.0821        3.0822       2.568649       0.01836
  10     361.9        0.5145        0.0001        2.9902        2.9904       2.475897       0.02347
   9     398.1        0.5158        0.0001        2.8715        2.8716       2.355826       0.02797
   8     437.6        0.5177        0.0001        2.7276        2.7278       2.210114       0.03115
   7     480.5        0.5204        0.0002        2.5595        2.5597       2.039227       0.03356
   6     533.0        0.5250        0.0002        2.3617        2.3619       1.836889       0.03255
   5     589.8        0.5316        0.0002        2.1649        2.1651       1.633519       0.03019
   4     651.6        0.5410        0.0002        1.9608        1.9609       1.419921       0.02921
   3     718.7        0.5539        0.0002        1.7593        1.7595       1.205623       0.02693
   2     792.3        0.5706        0.0002        1.5761        1.5762       1.005585       0.02294
   1     891.5        0.5995        0.0002        1.3714        1.3716       0.772108       0.01987
   0    1013.0        0.6516        0.0002        1.1584        1.1586       0.506989       0.01841



 Wavenumbers:  3250. -  4000. cm-1, ATM      1
 LEVEL PRESSURE   UPWARD FLUX   DIFDOWN FLUX  DIRDOWN FLUX  DOWNWARD FLUX   NET FLUX    HEATING RATE
          mb          W/m2          W/m2          W/m2        W/m2          W/m2       degree/day
  51    .06700        0.0004        0.0000        5.9117        5.9117       5.911228       0.00000
  50    .07753        0.0004        0.0000        5.9075        5.9075       5.907039       3.35808
  49    .09103        0.0004        0.0000        5.9050        5.9050       5.904596       1.52677
  48    0.1069        0.0004        0.0000        5.9032        5.9032       5.902730       0.99346
  47    0.1255        0.0004        0.0000        5.9014        5.9014       5.900971       0.79708
  46    0.1487        0.0004        0.0000        5.8995        5.8995       5.899083       0.68848
  45    0.1794        0.0004        0.0000        5.8974        5.8974       5.896934       0.58983
  44    0.2165        0.0004        0.0000        5.8952        5.8952       5.894817       0.48155
  43    0.2613        0.0004        0.0000        5.8931        5.8931       5.892658       0.40696
  42    0.3336        0.0004        0.0000        5.8899        5.8899       5.889500       0.36820
  41    0.4307        0.0004        0.0000        5.8861        5.8861       5.885663       0.33365
  40    0.5894        0.0004        0.0000        5.8803        5.8803       5.879860       0.30857
  39     1.339        0.0004        0.0000        5.8597        5.8597       5.859263       0.23189
  38     1.782        0.0004        0.0000        5.8513        5.8513       5.850838       0.16039
  37     2.292        0.0004        0.0000        5.8431        5.8431       5.842667       0.13533
  36     2.964        0.0004        0.0000        5.8334        5.8334       5.833028       0.12100
  35     3.853        0.0004        0.0000        5.8213        5.8213       5.820852       0.11555
  34     5.035        0.0004        0.0000        5.8052        5.8052       5.804757       0.11498
  33     6.613        0.0004        0.0000        5.7833        5.7834       5.782936       0.11666
  32     8.786        0.0004        0.0000        5.7531        5.7531       5.752734       0.11729
  31     11.80        0.0004        0.0000        5.7090        5.7090       5.708565       0.12366
  30     15.07        0.0004        0.0000        5.6615        5.6615       5.661101       0.12254
  29     18.79        0.0004        0.0000        5.6093        5.6094       5.608965       0.11821
  28     23.16        0.0004        0.0000        5.5524        5.5524       5.552039       0.11008
  27     28.12        0.0004        0.0000        5.4935        5.4935       5.493160       0.10009
  26     33.73        0.0004        0.0000        5.4348        5.4349       5.434471       0.08824
  25     40.54        0.0004        0.0001        5.3707        5.3708       5.370410       0.07948
  24     48.69        0.0004        0.0001        5.2985        5.2985       5.298177       0.07475
  23     57.69        0.0003        0.0001        5.2215        5.2216       5.221238       0.07212
  22     68.43        0.0003        0.0001        5.1318        5.1319       5.131578       0.07048
  21     81.20        0.0003        0.0001        5.0284        5.0285       5.028149       0.06834
  20     96.49        0.0003        0.0001        4.9122        4.9123       4.912014       0.06410
  19     114.6        0.0003        0.0001        4.7780        4.7782       4.777903       0.06262
  18     136.5        0.0003        0.0002        4.6285        4.6287       4.628425       0.05748
  17     162.9        0.0002        0.0002        4.4406        4.4407       4.440513       0.06006
  16     196.4        0.0002        0.0002        4.1548        4.1550       4.154839       0.07191
  15     218.7        0.0002        0.0002        3.9564        3.9566       3.956458       0.07532
  14     243.0        0.0002        0.0002        3.7055        3.7058       3.705624       0.08700
  13     269.0        0.0001        0.0002        3.3399        3.3401       3.339985       0.11861
  12     297.5        0.0001        0.0002        2.8954        2.8956       2.895495       0.13183
  11     328.5        0.0001        0.0002        2.4388        2.4390       2.438954       0.12413
  10     361.9        0.0001        0.0002        2.0269        2.0271       2.027016       0.10422
   9     398.1        0.0001        0.0002        1.6753        1.6755       1.675428       0.08191
   8     437.6        0.0001        0.0002        1.3592        1.3594       1.359309       0.06759
   7     480.5        0.0000        0.0002        1.0616        1.0618       1.061726       0.05844
   6     533.0        0.0000        0.0001        0.7543        0.7544       0.754392       0.04944
   5     589.8        0.0000        0.0001        0.4951        0.4952       0.495199       0.03847
   4     651.6        0.0000        0.0001        0.2943        0.2943       0.294301       0.02747
   3     718.7        0.0000        0.0001        0.1528        0.1529       0.152804       0.01778
   2     792.3        0.0001        0.0000        0.0658        0.0658       0.065765       0.00998
   1     891.5        0.0002        0.0000        0.0157        0.0157       0.015488       0.00428
   0    1013.0        0.0008        0.0000        0.0013        0.0013       0.000588       0.00103



 Wavenumbers:  4000. -  4650. cm-1, ATM      1
 LEVEL PRESSURE   UPWARD FLUX   DIFDOWN FLUX  DIRDOWN FLUX  DOWNWARD FLUX   NET FLUX    HEATING RATE
          mb          W/m2          W/m2          W/m2        W/m2          W/m2       degree/day
  51    .06700        2.1950        0.0000        6.9421        6.9421       4.747073       0.00000
  50    .07753        2.1950        0.0000        6.9421        6.9421       4.747072       0.00079
  49    .09103        2.1950        0.0000        6.9421        6.9421       4.747070       0.00078
  48    0.1069        2.1950        0.0000        6.9421        6.9421       4.747069       0.00076
  47    0.1255        2.1950        0.0000        6.9421        6.9421       4.747067       0.00074
  46    0.1487        2.1950        0.0000        6.9421        6.9421       4.747065       0.00075
  45    0.1794        2.1950        0.0000        6.9421        6.9421       4.747062       0.00077
  44    0.2165        2.1950        0.0000        6.9421        6.9421       4.747059       0.00076
  43    0.2613        2.1950        0.0000        6.9420        6.9420       4.747055       0.00074
  42    0.3336        2.1950        0.0000        6.9420        6.9420       4.747049       0.00076
  41    0.4307        2.1950        0.0000        6.9420        6.9420       4.747040       0.00077
  40    0.5894        2.1950        0.0000        6.9420        6.9420       4.747025       0.00079
  39     1.339        2.1950        0.0000        6.9419        6.9419       4.746936       0.00100
  38     1.782        2.1950        0.0000        6.9418        6.9419       4.746867       0.00132
  37     2.292        2.1950        0.0000        6.9418        6.9418       4.746773       0.00155
  36     2.964        2.1950        0.0000        6.9416        6.9416       4.746634       0.00175
  35     3.853        2.1950        0.0000        6.9414        6.9414       4.746427       0.00196
  34     5.035        2.1950        0.0000        6.9411        6.9411       4.746123       0.00218
  33     6.613        2.1950        0.0000        6.9406        6.9407       4.745675       0.00239
  32     8.786        2.1950        0.0000        6.9399        6.9400       4.745015       0.00256
  31     11.80        2.1950        0.0000        6.9389        6.9389       4.743980       0.00290
  30     15.07        2.1950        0.0001        6.9377        6.9377       4.742770       0.00312
  29     18.79        2.1949        0.0001        6.9362        6.9363       4.741312       0.00331
  28     23.16        2.1949        0.0001        6.9343        6.9344       4.739508       0.00349
  27     28.12        2.1949        0.0001        6.9321        6.9323       4.737334       0.00370
  26     33.73        2.1949        0.0001        6.9294        6.9296       4.734666       0.00401
  25     40.54        2.1949        0.0002        6.9258        6.9260       4.731070       0.00446
  24     48.69        2.1949        0.0002        6.9210        6.9212       4.726309       0.00493
  23     57.69        2.1949        0.0002        6.9154        6.9156       4.720708       0.00525
  22     68.43        2.1949        0.0003        6.9083        6.9086       4.713744       0.00547
  21     81.20        2.1949        0.0003        6.8998        6.9001       4.705229       0.00563
  20     96.49        2.1949        0.0004        6.8894        6.8898       4.694944       0.00568
  19     114.6        2.1949        0.0005        6.8765        6.8770       4.682066       0.00601
  18     136.5        2.1950        0.0005        6.8610        6.8615       4.666528       0.00597
  17     162.9        2.1951        0.0006        6.8417        6.8423       4.647192       0.00618
  16     196.4        2.1954        0.0008        6.8147        6.8154       4.620052       0.00683
  15     218.7        2.1957        0.0009        6.7948        6.7957       4.600050       0.00759
  14     243.0        2.1961        0.0010        6.7698        6.7707       4.574666       0.00880
  13     269.0        2.1968        0.0011        6.7349        6.7359       4.539135       0.01153
  12     297.5        2.1979        0.0012        6.6869        6.6880       4.490158       0.01453
  11     328.5        2.1994        0.0013        6.6194        6.6206       4.421220       0.01874
  10     361.9        2.2015        0.0014        6.5295        6.5308       4.329358       0.02324
   9     398.1        2.2042        0.0015        6.4202        6.4217       4.217523       0.02606
   8     437.6        2.2078        0.0016        6.2962        6.2978       4.090046       0.02726
   7     480.5        2.2126        0.0018        6.1555        6.1573       3.944687       0.02855
   6     533.0        2.2202        0.0019        5.9675        5.9694       3.749204       0.03145
   5     589.8        2.2313        0.0021        5.7368        5.7388       3.507548       0.03587
   4     651.6        2.2472        0.0022        5.4662        5.4684       3.221248       0.03915
   3     718.7        2.2689        0.0023        5.1912        5.1935       2.924652       0.03727
   2     792.3        2.2968        0.0025        4.9395        4.9420       2.645142       0.03206
   1     891.5        2.3446        0.0027        4.6486        4.6513       2.306703       0.02880
   0    1013.0        2.4301        0.0029        4.3179        4.3207       1.890679       0.02889



 Wavenumbers:  4650. -  5150. cm-1, ATM      1
 LEVEL PRESSURE   UPWARD FLUX   DIFDOWN FLUX  DIRDOWN FLUX  DOWNWARD FLUX   NET FLUX    HEATING RATE
          mb          W/m2          W/m2          W/m2        W/m2          W/m2       degree/day
  51    .06700        1.4817        0.0000        6.5710        6.5710       5.089305       0.00000
  50    .07753        1.4817        0.0000        6.5708        6.5708       5.089070       0.18887
  49    .09103        1.4817        0.0000        6.5705        6.5705       5.088776       0.18362
  48    0.1069        1.4817        0.0000        6.5701        6.5701       5.088441       0.17806
  47    0.1255        1.4817        0.0000        6.5697        6.5697       5.088061       0.17238
  46    0.1487        1.4817        0.0000        6.5693        6.5693       5.087587       0.17268
  45    0.1794        1.4817        0.0000        6.5686        6.5686       5.086951       0.17473
  44    0.2165        1.4817        0.0000        6.5679        6.5679       5.086213       0.16788
  43    0.2613        1.4817        0.0000        6.5670        6.5670       5.085360       0.16078
  42    0.3336        1.4817        0.0000        6.5657        6.5657       5.083997       0.15894
  41    0.4307        1.4817        0.0000        6.5640        6.5640       5.082275       0.14971
  40    0.5894        1.4817        0.0000        6.5613        6.5613       5.079659       0.13913
  39     1.339        1.4817        0.0000        6.5516        6.5516       5.069881       0.11008
  38     1.782        1.4817        0.0000        6.5473        6.5473       5.065665       0.08026
  37     2.292        1.4817        0.0000        6.5434        6.5435       5.061778       0.06438
  36     2.964        1.4817        0.0000        6.5395        6.5395       5.057824       0.04964
  35     3.853        1.4817        0.0000        6.5355        6.5356       5.053881       0.03742
  34     5.035        1.4817        0.0000        6.5315        6.5315       5.049878       0.02859
  33     6.613        1.4817        0.0000        6.5271        6.5271       5.045484       0.02349
  32     8.786        1.4817        0.0001        6.5216        6.5216       5.039988       0.02134
  31     11.80        1.4816        0.0001        6.5135        6.5135       5.031908       0.02262
  30     15.07        1.4816        0.0001        6.5041        6.5042       5.022538       0.02419
  29     18.79        1.4816        0.0001        6.4925        6.4926       5.011019       0.02612
  28     23.16        1.4816        0.0001        6.4779        6.4780       4.996424       0.02822
  27     28.12        1.4816        0.0002        6.4599        6.4600       4.978444       0.03056
  26     33.73        1.4816        0.0002        6.4384        6.4386       4.957006       0.03223
  25     40.54        1.4816        0.0002        6.4112        6.4115       4.929872       0.03366
  24     48.69        1.4816        0.0003        6.3775        6.3778       4.896223       0.03482
  23     57.69        1.4816        0.0003        6.3404        6.3407       4.859116       0.03478
  22     68.43        1.4816        0.0004        6.2971        6.2975       4.815906       0.03397
  21     81.20        1.4817        0.0005        6.2483        6.2487       4.767063       0.03227
  20     96.49        1.4817        0.0006        6.1948        6.1954       4.713653       0.02948
  19     114.6        1.4818        0.0007        6.1381        6.1388       4.656965       0.02647
  18     136.5        1.4820        0.0008        6.0790        6.0798       4.597784       0.02276
  17     162.9        1.4822        0.0009        6.0160        6.0170       4.534721       0.02016
  16     196.4        1.4827        0.0011        5.9399        5.9410       4.458315       0.01923
  15     218.7        1.4830        0.0012        5.8896        5.8908       4.407844       0.01916
  14     243.0        1.4835        0.0013        5.8322        5.8335       4.350032       0.02005
  13     269.0        1.4842        0.0015        5.7624        5.7639       4.279639       0.02284
  12     297.5        1.4853        0.0016        5.6767        5.6783       4.193007       0.02569
  11     328.5        1.4869        0.0017        5.5726        5.5743       4.087479       0.02869
  10     361.9        1.4890        0.0019        5.4473        5.4492       3.960258       0.03219
   9     398.1        1.4918        0.0020        5.2995        5.3015       3.809722       0.03507
   8     437.6        1.4956        0.0022        5.1275        5.1297       3.634033       0.03756
   7     480.5        1.5008        0.0023        4.9290        4.9313       3.430479       0.03998
   6     533.0        1.5090        0.0025        4.6794        4.6819       3.172850       0.04144
   5     589.8        1.5204        0.0026        4.4188        4.4214       2.901034       0.04035
   4     651.6        1.5363        0.0028        4.1521        4.1549       2.618591       0.03862
   3     718.7        1.5574        0.0029        3.8929        3.8959       2.338430       0.03521
   2     792.3        1.5848        0.0031        3.6469        3.6499       2.065160       0.03134
   1     891.5        1.6313        0.0032        3.3535        3.3567       1.725445       0.02891
   0    1013.0        1.7108        0.0034        3.0383        3.0417       1.330970       0.02739



 Wavenumbers:  5150. -  6150. cm-1, ATM      1
 LEVEL PRESSURE   UPWARD FLUX   DIFDOWN FLUX  DIRDOWN FLUX  DOWNWARD FLUX   NET FLUX    HEATING RATE
          mb          W/m2          W/m2          W/m2        W/m2          W/m2       degree/day
  51    .06700        3.9997        0.0000       16.4735       16.4735      12.473761       0.00000
  50    .07753        3.9997        0.0000       16.4735       16.4735      12.473727       0.02762
  49    .09103        3.9997        0.0000       16.4734       16.4734      12.473682       0.02812
  48    0.1069        3.9997        0.0000       16.4734       16.4734      12.473628       0.02860
  47    0.1255        3.9997        0.0000       16.4733       16.4733      12.473564       0.02905
  46    0.1487        3.9997        0.0000       16.4732       16.4732      12.473480       0.03061
  45    0.1794        3.9997        0.0000       16.4731       16.4731      12.473361       0.03270
  44    0.2165        3.9997        0.0000       16.4730       16.4730      12.473214       0.03332
  43    0.2613        3.9997        0.0000       16.4728       16.4728      12.473035       0.03377
  42    0.3336        3.9997        0.0000       16.4725       16.4725      12.472730       0.03565
  41    0.4307        3.9997        0.0000       16.4720       16.4720      12.472310       0.03646
  40    0.5894        3.9997        0.0000       16.4713       16.4713      12.471609       0.03730
  39     1.339        3.9997        0.0000       16.4679       16.4679      12.468199       0.03839
  38     1.782        3.9997        0.0000       16.4659       16.4659      12.466199       0.03808
  37     2.292        3.9997        0.0001       16.4635       16.4636      12.463906       0.03797
  36     2.964        3.9997        0.0001       16.4605       16.4606      12.460935       0.03730
  35     3.853        3.9997        0.0001       16.4567       16.4568      12.457079       0.03659
  34     5.035        3.9997        0.0001       16.4516       16.4517      12.452078       0.03572
  33     6.613        3.9996        0.0002       16.4451       16.4452      12.445611       0.03457
  32     8.786        3.9996        0.0002       16.4367       16.4369      12.437290       0.03232
  31     11.80        3.9996        0.0003       16.4254       16.4257      12.426126       0.03126
  30     15.07        3.9995        0.0004       16.4141       16.4145      12.415022       0.02867
  29     18.79        3.9995        0.0005       16.4024       16.4029      12.403481       0.02617
  28     23.16        3.9994        0.0006       16.3900       16.3906      12.391196       0.02376
  27     28.12        3.9994        0.0008       16.3771       16.3779      12.378501       0.02158
  26     33.73        3.9993        0.0009       16.3641       16.3650      12.365738       0.01919
  25     40.54        3.9992        0.0011       16.3502       16.3513      12.352046       0.01699
  24     48.69        3.9992        0.0013       16.3354       16.3367      12.337505       0.01505
  23     57.69        3.9991        0.0016       16.3211       16.3226      12.323523       0.01311
  22     68.43        3.9991        0.0019       16.3062       16.3081      12.309033       0.01139
  21     81.20        3.9990        0.0022       16.2903       16.2925      12.293512       0.01026
  20     96.49        3.9990        0.0026       16.2726       16.2752      12.276280       0.00951
  19     114.6        3.9989        0.0031       16.2521       16.2552      12.256273       0.00934
  18     136.5        3.9989        0.0037       16.2245       16.2282      12.229375       0.01034
  17     162.9        3.9988        0.0044       16.1747       16.1791      12.180298       0.01569
  16     196.4        3.9988        0.0053       16.0518       16.0571      12.058293       0.03071
  15     218.7        3.9988        0.0058       15.8984       15.9042      11.905368       0.05806
  14     243.0        3.9989        0.0064       15.6153       15.6217      11.622744       0.09802
  13     269.0        3.9991        0.0069       15.1390       15.1459      11.146837       0.15438
  12     297.5        3.9994        0.0075       14.5779       14.5853      10.585914       0.16636
  11     328.5        4.0000        0.0079       13.8780       13.8860       9.885939       0.19032
  10     361.9        4.0010        0.0084       13.0814       13.0898       9.088852       0.20167
   9     398.1        4.0024        0.0088       12.2728       12.2816       8.279242       0.18862
   8     437.6        4.0045        0.0091       11.4776       11.4867       7.482241       0.17040
   7     480.5        4.0076        0.0094       10.7300       10.7394       6.731822       0.14738
   6     533.0        4.0130        0.0099       10.0326       10.0425       6.029422       0.11299
   5     589.8        4.0213        0.0104        9.5050        9.5154       5.494049       0.07947
   4     651.6        4.0340        0.0110        9.0814        9.0923       5.058345       0.05958
   3     718.7        4.0521        0.0117        8.7024        8.7141       4.662032       0.04981
   2     792.3        4.0765        0.0125        8.3379        8.3504       4.273873       0.04452
   1     891.5        4.1212        0.0135        7.9064        7.9198       3.798596       0.04044
   0    1013.0        4.2120        0.0146        7.4741        7.4887       3.276645       0.03624



 Wavenumbers:  6150. -  7700. cm-1, ATM      1
 LEVEL PRESSURE   UPWARD FLUX   DIFDOWN FLUX  DIRDOWN FLUX  DOWNWARD FLUX   NET FLUX    HEATING RATE
          mb          W/m2          W/m2          W/m2        W/m2          W/m2       degree/day
  51    .06700        5.8642        0.0000       30.4684       30.4684      24.604159       0.00000
  50    .07753        5.8642        0.0000       30.4683       30.4683      24.604107       0.04144
  49    .09103        5.8642        0.0000       30.4683       30.4683      24.604040       0.04174
  48    0.1069        5.8642        0.0000       30.4682       30.4682      24.603961       0.04202
  47    0.1255        5.8642        0.0000       30.4681       30.4681      24.603868       0.04227
  46    0.1487        5.8642        0.0000       30.4680       30.4680      24.603747       0.04411
  45    0.1794        5.8642        0.0000       30.4678       30.4678      24.603577       0.04669
  44    0.2165        5.8642        0.0000       30.4676       30.4676      24.603370       0.04715
  43    0.2613        5.8642        0.0000       30.4673       30.4673      24.603118       0.04744
  42    0.3336        5.8642        0.0000       30.4669       30.4669      24.602692       0.04974
  41    0.4307        5.8642        0.0000       30.4663       30.4663      24.602111       0.05052
  40    0.5894        5.8642        0.0001       30.4653       30.4653      24.601143       0.05146
  39     1.339        5.8641        0.0001       30.4604       30.4606      24.596459       0.05273
  38     1.782        5.8641        0.0002       30.4576       30.4578      24.593709       0.05235
  37     2.292        5.8640        0.0003       30.4543       30.4546      24.590551       0.05231
  36     2.964        5.8639        0.0003       30.4501       30.4504      24.586444       0.05156
  35     3.853        5.8639        0.0004       30.4445       30.4449      24.581086       0.05084
  34     5.035        5.8637        0.0006       30.4373       30.4378      24.574087       0.05000
  33     6.613        5.8636        0.0007       30.4278       30.4285      24.564939       0.04890
  32     8.786        5.8634        0.0010       30.4154       30.4164      24.552986       0.04642
  31     11.80        5.8631        0.0013       30.3984       30.3997      24.536601       0.04587
  30     15.07        5.8628        0.0017       30.3810       30.3827      24.519887       0.04315
  29     18.79        5.8624        0.0021       30.3623       30.3644      24.501987       0.04059
  28     23.16        5.8620        0.0026       30.3417       30.3443      24.482303       0.03806
  27     28.12        5.8616        0.0032       30.3196       30.3228      24.461203       0.03587
  26     33.73        5.8610        0.0038       30.2965       30.3003      24.439284       0.03296
  25     40.54        5.8604        0.0046       30.2708       30.2753      24.414947       0.03019
  24     48.69        5.8596        0.0055       30.2423       30.2478      24.388170       0.02771
  23     57.69        5.8588        0.0065       30.2139       30.2204      24.361603       0.02490
  22     68.43        5.8578        0.0077       30.1834       30.1911      24.333327       0.02223
  21     81.20        5.8565        0.0091       30.1500       30.1591      24.302597       0.02031
  20     96.49        5.8551        0.0109       30.1126       30.1235      24.268377       0.01889
  19     114.6        5.8534        0.0129       30.0695       30.0824      24.228989       0.01839
  18     136.5        5.8514        0.0153       30.0139       30.0292      24.177830       0.01967
  17     162.9        5.8490        0.0182       29.9225       29.9406      24.091641       0.02755
  16     196.4        5.8459        0.0218       29.7333       29.7552      23.909230       0.04592
  15     218.7        5.8440        0.0242       29.5259       29.5500      23.706076       0.07713
  14     243.0        5.8419        0.0266       29.1375       29.1641      23.322202       0.13314
  13     269.0        5.8399        0.0290       28.3800       28.4090      22.569116       0.24430
  12     297.5        5.8380        0.0312       27.3895       27.4208      21.582722       0.29255
  11     328.5        5.8366        0.0333       26.2257       26.2591      20.422463       0.31547
  10     361.9        5.8358        0.0353       24.8453       24.8806      19.044819       0.34856
   9     398.1        5.8361        0.0370       23.3471       23.3841      17.547987       0.34873
   8     437.6        5.8380        0.0385       21.7966       21.8351      15.997070       0.33160
   7     480.5        5.8429        0.0397       20.1977       20.2374      14.394458       0.31475
   6     533.0        5.8537        0.0409       18.4969       18.5378      12.684064       0.27515
   5     589.8        5.8728        0.0421       16.9754       17.0175      11.144694       0.22849
   4     651.6        5.9045        0.0433       15.6022       15.6455       9.741020       0.19196
   3     718.7        5.9518        0.0447       14.4232       14.4679       8.516100       0.15394
   2     792.3        6.0175        0.0464       13.4386       13.4850       7.467558       0.12026
   1     891.5        6.1386        0.0487       12.3736       12.4223       6.283672       0.10074
   0    1013.0        6.3804        0.0512       11.2911       11.3424       4.962019       0.09177



 Wavenumbers:  7700. -  8050. cm-1, ATM      1
 LEVEL PRESSURE   UPWARD FLUX   DIFDOWN FLUX  DIRDOWN FLUX  DOWNWARD FLUX   NET FLUX    HEATING RATE
          mb          W/m2          W/m2          W/m2        W/m2          W/m2       degree/day
  51    .06700        3.0448        0.0000        7.2006        7.2006       4.155746       0.00000
  50    .07753        3.0448        0.0000        7.2006        7.2006       4.155726       0.01577
  49    .09103        3.0448        0.0000        7.2005        7.2005       4.155701       0.01545
  48    0.1069        3.0448        0.0000        7.2005        7.2005       4.155673       0.01513
  47    0.1255        3.0448        0.0000        7.2005        7.2005       4.155640       0.01480
  46    0.1487        3.0449        0.0000        7.2004        7.2005       4.155599       0.01502
  45    0.1794        3.0449        0.0000        7.2004        7.2004       4.155543       0.01545
  44    0.2165        3.0449        0.0000        7.2003        7.2003       4.155476       0.01516
  43    0.2613        3.0449        0.0000        7.2003        7.2003       4.155397       0.01488
  42    0.3336        3.0449        0.0000        7.2001        7.2001       4.155267       0.01522
  41    0.4307        3.0449        0.0000        7.2000        7.2000       4.155094       0.01505
  40    0.5894        3.0449        0.0000        7.1997        7.1997       4.154811       0.01504
  39     1.339        3.0450        0.0001        7.1984        7.1985       4.153474       0.01506
  38     1.782        3.0451        0.0001        7.1977        7.1978       4.152688       0.01495
  37     2.292        3.0452        0.0001        7.1968        7.1969       4.151780       0.01505
  36     2.964        3.0453        0.0001        7.1957        7.1958       4.150587       0.01497
  35     3.853        3.0454        0.0002        7.1942        7.1944       4.149012       0.01494
  34     5.035        3.0456        0.0002        7.1922        7.1925       4.146922       0.01493
  33     6.613        3.0458        0.0003        7.1896        7.1899       4.144131       0.01492
  32     8.786        3.0461        0.0004        7.1860        7.1865       4.140377       0.01458
  31     11.80        3.0465        0.0006        7.1810        7.1815       4.135016       0.01501
  30     15.07        3.0470        0.0007        7.1755        7.1763       4.129277       0.01482
  29     18.79        3.0475        0.0009        7.1694        7.1703       4.122812       0.01466
  28     23.16        3.0482        0.0011        7.1623        7.1634       4.115287       0.01455
  27     28.12        3.0489        0.0013        7.1542        7.1556       4.106718       0.01457
  26     33.73        3.0497        0.0016        7.1452        7.1469       4.097175       0.01435
  25     40.54        3.0507        0.0019        7.1344        7.1364       4.085710       0.01422
  24     48.69        3.0519        0.0023        7.1215        7.1238       4.071983       0.01421
  23     57.69        3.0532        0.0027        7.1074        7.1102       4.057024       0.01402
  22     68.43        3.0547        0.0033        7.0909        7.0941       4.039368       0.01388
  21     81.20        3.0566        0.0039        7.0713        7.0752       4.018561       0.01375
  20     96.49        3.0589        0.0046        7.0484        7.0530       3.994080       0.01351
  19     114.6        3.0617        0.0054        7.0217        7.0271       3.965441       0.01337
  18     136.5        3.0649        0.0064        6.9906        6.9970       3.932071       0.01283
  17     162.9        3.0689        0.0076        6.9544        6.9620       3.893099       0.01246
  16     196.4        3.0741        0.0091        6.9087        6.9179       3.843733       0.01243
  15     218.7        3.0777        0.0101        6.8794        6.8896       3.811920       0.01208
  14     243.0        3.0815        0.0112        6.8481        6.8594       3.777827       0.01182
  13     269.0        3.0858        0.0124        6.8147        6.8271       3.741319       0.01184
  12     297.5        3.0906        0.0137        6.7791        6.7928       3.702186       0.01161
  11     328.5        3.0959        0.0151        6.7409        6.7560       3.660104       0.01144
  10     361.9        3.1019        0.0165        6.7002        6.7167       3.614801       0.01146
   9     398.1        3.1086        0.0181        6.6563        6.6744       3.565728       0.01143
   8     437.6        3.1163        0.0198        6.6089        6.6286       3.512306       0.01142
   7     480.5        3.1252        0.0216        6.5570        6.5786       3.453346       0.01158
   6     533.0        3.1372        0.0238        6.4915        6.5152       3.378079       0.01211
   5     589.8        3.1514        0.0261        6.4182        6.4444       3.292910       0.01264
   4     651.6        3.1686        0.0286        6.3359        6.3645       3.195858       0.01327
   3     718.7        3.1892        0.0313        6.2441        6.2754       3.086241       0.01378
   2     792.3        3.2132        0.0340        6.1437        6.1778       2.964542       0.01396
   1     891.5        3.2494        0.0377        6.0042        6.0419       2.792484       0.01464
   0    1013.0        3.3007        0.0420        5.8249        5.8669       2.566209       0.01571



 Wavenumbers:  8050. - 12850. cm-1, ATM      1
 LEVEL PRESSURE   UPWARD FLUX   DIFDOWN FLUX  DIRDOWN FLUX  DOWNWARD FLUX   NET FLUX    HEATING RATE
          mb          W/m2          W/m2          W/m2        W/m2          W/m2       degree/day
  51    .06700       38.7494        0.0000      100.8135      100.8135      62.064076       0.00000
  50    .07753       38.7494        0.0000      100.8135      100.8135      62.064076       0.00000
  49    .09103       38.7494        0.0001      100.8134      100.8135      62.064076      -0.00000
  48    0.1069       38.7494        0.0001      100.8134      100.8135      62.064076       0.00000
  47    0.1255       38.7493        0.0001      100.8133      100.8134      62.064076       0.00000
  46    0.1487       38.7493        0.0002      100.8132      100.8134      62.064076      -0.00000
  45    0.1794       38.7493        0.0003      100.8131      100.8133      62.064076       0.00000
  44    0.2165       38.7492        0.0004      100.8129      100.8133      62.064076      -0.00000
  43    0.2613       38.7491        0.0005      100.8127      100.8132      62.064076       0.00000
  42    0.3336       38.7490        0.0006      100.8125      100.8131      62.064076      -0.00000
  41    0.4307       38.7489        0.0009      100.8121      100.8129      62.064076      -0.00000
  40    0.5894       38.7486        0.0012      100.8115      100.8127      62.064076       0.00000
  39     1.339       38.7474        0.0030      100.8085      100.8115      62.064076      -0.00000
  38     1.782       38.7467        0.0040      100.8068      100.8108      62.064076       0.00000
  37     2.292       38.7459        0.0052      100.8047      100.8099      62.064076       0.00000
  36     2.964       38.7448        0.0067      100.8021      100.8088      62.064076      -0.00000
  35     3.853       38.7433        0.0088      100.7986      100.8074      62.064076       0.00000
  34     5.035       38.7414        0.0116      100.7940      100.8055      62.064076      -0.00000
  33     6.613       38.7389        0.0152      100.7878      100.8030      62.064076       0.00000
  32     8.786       38.7355        0.0202      100.7794      100.7996      62.064076       0.00000
  31     11.80       38.7306        0.0272      100.7674      100.7947      62.064076      -0.00000
  30     15.07       38.7253        0.0348      100.7546      100.7894      62.064076       0.00000
  29     18.79       38.7194        0.0434      100.7400      100.7834      62.064076       0.00000
  28     23.16       38.7124        0.0535      100.7230      100.7765      62.064076      -0.00000
  27     28.12       38.7044        0.0650      100.7035      100.7685      62.064076       0.00000
  26     33.73       38.6955        0.0779      100.6817      100.7596      62.064076      -0.00000
  25     40.54       38.6847        0.0935      100.6552      100.7488      62.064076       0.00000
  24     48.69       38.6716        0.1124      100.6234      100.7357      62.064076       0.00000
  23     57.69       38.6573        0.1331      100.5883      100.7214      62.064076      -0.00000
  22     68.43       38.6402        0.1578      100.5464      100.7042      62.064076       0.00000
  21     81.20       38.6197        0.1873      100.4965      100.6838      62.064076      -0.00000
  20     96.49       38.5953        0.2225      100.4370      100.6594      62.064076       0.00000
  19     114.6       38.5664        0.2643      100.3585      100.6228      62.056353       0.00361
  18     136.5       38.5321        0.3140      100.2634      100.5773      62.045242       0.00427
  17     162.9       38.4912        0.3732      100.1407      100.5139      62.022710       0.00720
  16     196.4       38.4381        0.4501       99.9505      100.4006      61.962568       0.01514
  15     218.7       38.4032        0.5007       99.7889      100.2896      61.886455       0.02890
  14     243.0       38.3654        0.5556       99.5472      100.1027      61.737363       0.05171
  13     269.0       38.3251        0.6147       99.1452       99.7599      61.434851       0.09813
  12     297.5       38.2827        0.6782       98.5975       99.2756      60.992887       0.13108
  11     328.5       38.2391        0.7461       97.8659       98.6120      60.372868       0.16858
  10     361.9       38.1955        0.8183       96.8848       97.7031      59.507572       0.21893
   9     398.1       38.1537        0.8946       95.6330       96.5275      58.373871       0.26413
   8     437.6       38.1168        0.9744       94.0655       95.0399      56.923101       0.31018
   7     480.5       38.0912        1.0569       92.0807       93.1376      55.046485       0.36856
   6     533.0       38.0831        1.1544       89.4449       90.5992      52.516109       0.40706
   5     589.8       38.1092        1.2551       86.5544       87.8095      49.700221       0.41797
   4     651.6       38.1887        1.3585       83.4174       84.7758      46.587114       0.42573
   3     718.7       38.3335        1.4653       80.2037       81.6690      43.335563       0.40863
   2     792.3       38.5540        1.5763       77.0811       78.6574      40.103351       0.37070
   1     891.5       38.9913        1.7198       73.2645       74.9843      35.993010       0.34977
   0    1013.0       39.8821        1.8798       68.9425       70.8223      30.940128       0.35085



 Wavenumbers: 12850. - 16000. cm-1, ATM      1
 LEVEL PRESSURE   UPWARD FLUX   DIFDOWN FLUX  DIRDOWN FLUX  DOWNWARD FLUX   NET FLUX    HEATING RATE
          mb          W/m2          W/m2          W/m2        W/m2          W/m2       degree/day
  51    .06700       40.9648        0.0000       63.1686       63.1686      22.203740       0.00000
  50    .07753       40.9648        0.0001       63.1677       63.1678      22.202960       0.62578
  49    .09103       40.9648        0.0001       63.1666       63.1668      22.201986       0.60832
  48    0.1069       40.9648        0.0002       63.1654       63.1656      22.200878       0.59007
  47    0.1255       40.9647        0.0003       63.1640       63.1643      22.199617       0.57178
  46    0.1487       40.9647        0.0004       63.1623       63.1627      22.198043       0.57361
  45    0.1794       40.9646        0.0006       63.1600       63.1606      22.195932       0.57957
  44    0.2165       40.9646        0.0008       63.1573       63.1581      22.193489       0.55568
  43    0.2613       40.9646        0.0010       63.1542       63.1552      22.190670       0.53146
  42    0.3336       40.9645        0.0014       63.1493       63.1507      22.186173       0.52420
  41    0.4307       40.9645        0.0019       63.1431       63.1451      22.180545       0.48943
  40    0.5894       40.9646        0.0028       63.1338       63.1366      22.172004       0.45416
  39     1.339       40.9664        0.0068       63.0956       63.1024      22.135928       0.40616
  38     1.782       40.9686        0.0091       63.0740       63.0832      22.114572       0.40658
  37     2.292       40.9721        0.0118       63.0477       63.0595      22.087419       0.44972
  36     2.964       40.9782        0.0154       63.0095       63.0249      22.046692       0.51125
  35     3.853       40.9885        0.0201       62.9533       62.9734      21.984816       0.58721
  34     5.035       41.0044        0.0263       62.8725       62.8988      21.894463       0.64545
  33     6.613       41.0266        0.0347       62.7621       62.7967      21.770089       0.66490
  32     8.786       41.0555        0.0458       62.6182       62.6641      21.608627       0.62706
  31     11.80       41.0925        0.0618       62.4284       62.4902      21.397703       0.59052
  30     15.07       41.1273        0.0789       62.2426       62.3215      21.194271       0.52522
  29     18.79       41.1621        0.0982       62.0493       62.1475      20.985389       0.47360
  28     23.16       41.1977        0.1207       61.8424       61.9631      20.765425       0.42534
  27     28.12       41.2324        0.1463       61.6278       61.7741      20.541721       0.38028
  26     33.73       41.2627        0.1750       61.4177       61.5926      20.329930       0.31843
  25     40.54       41.2894        0.2095       61.1983       61.4078      20.118419       0.26240
  24     48.69       41.3120        0.2511       60.9680       61.2191      19.907143       0.21864
  23     57.69       41.3274        0.2968       60.7478       61.0446      19.717143       0.17810
  22     68.43       41.3357        0.3511       60.5202       60.8713      19.535531       0.14277
  21     81.20       41.3318        0.4157       60.2938       60.7096      19.377776       0.10424
  20     96.49       41.3143        0.4928       60.0643       60.5571      19.242733       0.07453
  19     114.6       41.2949        0.5849       59.8078       60.3927      19.097780       0.06768
  18     136.5       41.2659        0.6939       59.5157       60.2096      18.943667       0.05926
  17     162.9       41.2260        0.8233       59.1770       60.0003      18.774387       0.05411
  16     196.4       41.1626        0.9908       58.7604       59.7512      18.588609       0.04676
  15     218.7       41.1168        1.1005       58.4948       59.5953      18.478452       0.04182
  14     243.0       41.0653        1.2195       58.2089       59.4284      18.363132       0.04000
  13     269.0       41.0079        1.3483       57.9006       59.2489      18.240990       0.03962
  12     297.5       40.9446        1.4871       57.5668       59.0539      18.109259       0.03907
  11     328.5       40.8767        1.6368       57.2005       58.8373      17.960536       0.04044
  10     361.9       40.8049        1.7975       56.7963       58.5938      17.788942       0.04341
   9     398.1       40.7299        1.9699       56.3475       58.3174      17.587502       0.04693
   8     437.6       40.6538        2.1543       55.8422       57.9965      17.342673       0.05235
   7     480.5       40.5803        2.3508       55.2625       57.6133      17.033003       0.06082
   6     533.0       40.5034        2.5908       54.4972       57.0879      16.584518       0.07215
   5     589.8       40.4374        2.8462       53.6307       56.4769      16.039458       0.08090
   4     651.6       40.3897        3.1162       52.6606       55.7768      15.387140       0.08921
   3     718.7       40.3638        3.4012       51.6100       55.0113      14.647462       0.09296
   2     792.3       40.3647        3.7011       50.5019       54.2029      13.838218       0.09281
   1     891.5       40.4238        4.0966       49.0197       53.1163      12.692459       0.09750
   0    1013.0       40.6125        4.5558       47.2289       51.7847      11.172183       0.10556



 Wavenumbers: 16000. - 22650. cm-1, ATM      1
 LEVEL PRESSURE   UPWARD FLUX   DIFDOWN FLUX  DIRDOWN FLUX  DOWNWARD FLUX   NET FLUX    HEATING RATE
          mb          W/m2          W/m2          W/m2        W/m2          W/m2       degree/day
  51    .06700       85.4800        0.0000      100.7153      100.7153      15.235328       0.00000
  50    .07753       85.4799        0.0003      100.7147      100.7151      15.235207       0.09746
  49    .09103       85.4797        0.0008      100.7140      100.7148      15.235030       0.11054
  48    0.1069       85.4796        0.0012      100.7131      100.7144      15.234793       0.12605
  47    0.1255       85.4794        0.0018      100.7121      100.7139      15.234476       0.14368
  46    0.1487       85.4793        0.0025      100.7108      100.7133      15.234009       0.17026
  45    0.1794       85.4791        0.0035      100.7089      100.7124      15.233279       0.20046
  44    0.2165       85.4789        0.0046      100.7066      100.7112      15.232288       0.22530
  43    0.2613       85.4787        0.0060      100.7037      100.7096      15.230945       0.25328
  42    0.3336       85.4785        0.0082      100.6987      100.7069      15.228390       0.29785
  41    0.4307       85.4784        0.0112      100.6918      100.7029      15.224539       0.33481
  40    0.5894       85.4786        0.0160      100.6797      100.6958      15.217196       0.39053
  39     1.339       85.4855        0.0389      100.6095      100.6484      15.162950       0.61071
  38     1.782       85.4941        0.0524      100.5585      100.6109      15.116751       0.87954
  37     2.292       85.5083        0.0680      100.4903      100.5582      15.049898       1.10726
  36     2.964       85.5335        0.0884      100.3868      100.4752      14.941641       1.35895
  35     3.853       85.5760        0.1154      100.2306      100.3460      14.769978       1.62912
  34     5.035       85.6415        0.1511      100.0045      100.1556      14.514124       1.82772
  33     6.613       85.7336        0.1988       99.6939       99.8927      14.159059       1.89818
  32     8.786       85.8531        0.2629       99.2881       99.5510      13.697906       1.79095
  31     11.80       86.0062        0.3543       98.7496       99.1039      13.097700       1.68039
  30     15.07       86.1500        0.4521       98.2198       98.6719      12.521912       1.48657
  29     18.79       86.2940        0.5623       97.6651       98.2274      11.933420       1.33429
  28     23.16       86.4407        0.6904       97.0671       97.7576      11.316872       1.19221
  27     28.12       86.5835        0.8365       96.4406       97.2770      10.693505       1.05968
  26     33.73       86.7075        0.9994       95.8179       96.8173      10.109775       0.87765
  25     40.54       86.8158        1.1956       95.1548       96.3505       9.534617       0.71355
  24     48.69       86.9063        1.4313       94.4420       95.8733       8.967025       0.58737
  23     57.69       86.9668        1.6892       93.7416       95.4308       8.463989       0.47152
  22     68.43       86.9973        1.9952       92.9954       94.9905       7.993257       0.37006
  21     81.20       86.9764        2.3584       92.2231       94.5815       7.605076       0.25650
  20     96.49       86.8989        2.7893       91.4110       94.2003       7.301389       0.16761
  19     114.6       86.7808        3.2976       90.5070       93.8046       7.023766       0.12963
  18     136.5       86.6239        3.8952       89.4803       93.3755       6.751584       0.10466
  17     162.9       86.4224        4.6001       88.3022       92.9023       6.479965       0.08682
  16     196.4       86.1281        5.5042       86.8606       92.3648       6.236702       0.06123
  15     218.7       85.9237        6.0918       85.9492       92.0410       6.117314       0.04533
  14     243.0       85.6972        6.7250       84.9789       91.7039       6.006751       0.03835
  13     269.0       85.4475        7.4048       83.9493       91.3541       5.906591       0.03249
  12     297.5       85.1742        8.1322       82.8589       90.9912       5.816976       0.02658
  11     328.5       84.8790        8.9098       81.6982       90.6080       5.729004       0.02392
  10     361.9       84.5621        9.7373       80.4669       90.2042       5.642148       0.02198
   9     398.1       84.2228       10.6169       79.1611       89.7780       5.555168       0.02026
   8     437.6       83.8621       11.5490       77.7777       89.3267       5.464646       0.01935
   7     480.5       83.4803       12.5341       76.3136       88.8477       5.367381       0.01910
   6     533.0       83.0185       13.7270       74.5359       88.2628       5.244325       0.01980
   5     589.8       82.5323       14.9888       72.6469       87.6358       5.103496       0.02090
   4     651.6       82.0245       16.3179       70.6456       86.9635       4.938978       0.02250
   3     718.7       81.4961       17.7123       68.5367       86.2489       4.752826       0.02339
   2     792.3       80.9504       19.1667       66.3287       85.4954       4.544987       0.02384
   1     891.5       80.2504       21.0674       63.4246       84.4920       4.241599       0.02582
   0    1013.0       79.4694       23.2554       60.0483       83.3037       3.834332       0.02828



 Wavenumbers: 22650. - 29000. cm-1, ATM      1
 LEVEL PRESSURE   UPWARD FLUX   DIFDOWN FLUX  DIRDOWN FLUX  DOWNWARD FLUX   NET FLUX    HEATING RATE
          mb          W/m2          W/m2          W/m2        W/m2          W/m2       degree/day
  51    .06700       36.5792        0.0000       38.0063       38.0063       1.427137       0.00000
  50    .07753       36.5790        0.0004       38.0057       38.0061       1.427137       0.00000
  49    .09103       36.5788        0.0009       38.0050       38.0059       1.427137       0.00000
  48    0.1069       36.5786        0.0015       38.0042       38.0057       1.427137       0.00000
  47    0.1255       36.5783        0.0021       38.0033       38.0054       1.427137      -0.00000
  46    0.1487       36.5780        0.0029       38.0022       38.0051       1.427137      -0.00000
  45    0.1794       36.5775        0.0040       38.0006       38.0046       1.427137       0.00000
  44    0.2165       36.5770        0.0054       37.9987       38.0041       1.427137      -0.00000
  43    0.2613       36.5763        0.0070       37.9965       38.0035       1.427137       0.00000
  42    0.3336       36.5753        0.0096       37.9928       38.0024       1.427137       0.00000
  41    0.4307       36.5739        0.0130       37.9880       38.0010       1.427137       0.00000
  40    0.5894       36.5716        0.0187       37.9800       37.9987       1.427137       0.00000
  39     1.339       36.5607        0.0454       37.9425       37.9879       1.427137      -0.00000
  38     1.782       36.5543        0.0611       37.9204       37.9815       1.427137       0.00000
  37     2.292       36.5470        0.0792       37.8949       37.9741       1.427137      -0.00000
  36     2.964       36.5373        0.1030       37.8614       37.9644       1.427137       0.00000
  35     3.853       36.5245        0.1344       37.8172       37.9517       1.427137       0.00000
  34     5.035       36.5076        0.1761       37.7586       37.9347       1.427137      -0.00000
  33     6.613       36.4850        0.2318       37.6803       37.9121       1.427137      -0.00000
  32     8.786       36.4546        0.3066       37.5750       37.8817       1.427137       0.00000
  31     11.80       36.4111        0.4134       37.4249       37.8383       1.427137       0.00000
  30     15.07       36.3647        0.5277       37.2642       37.7918       1.427137      -0.00000
  29     18.79       36.3124        0.6562       37.0833       37.7395       1.427137       0.00000
  28     23.16       36.2516        0.8057       36.8730       37.6787       1.427137      -0.00000
  27     28.12       36.1824        0.9758       36.6338       37.6096       1.427137       0.00000
  26     33.73       36.1055        1.1649       36.3677       37.5326       1.427137       0.00000
  25     40.54       36.0131        1.3917       36.0486       37.4403       1.427137      -0.00000
  24     48.69       35.9028        1.6627       35.6672       37.3299       1.427137       0.00000
  23     57.69       35.7827        1.9572       35.2527       37.2099       1.427137       0.00000
  22     68.43       35.6415        2.3037       34.7649       37.0686       1.427137       0.00000
  21     81.20       35.4755        2.7104       34.1922       36.9026       1.427137       0.00000
  20     96.49       35.2811        3.1865       33.5217       36.7082       1.427137      -0.00000
  19     114.6       35.0549        3.7397       32.7424       36.4820       1.427137       0.00000
  18     136.5       34.7932        4.3788       31.8416       36.2204       1.427137      -0.00000
  17     162.9       34.4906        5.1169       30.8008       35.9177       1.427137       0.00000
  16     196.4       34.1119        6.0384       29.5007       35.5391       1.427137       0.00000
  15     218.7       33.8716        6.6221       28.6767       35.2988       1.427137       0.00000
  14     243.0       33.6176        7.2380       27.8068       35.0447       1.427137      -0.00000
  13     269.0       33.3505        7.8843       26.8933       34.7776       1.427137       0.00000
  12     297.5       33.0711        8.5590       25.9393       34.4983       1.427137      -0.00000
  11     328.5       32.7795        9.2615       24.9451       34.2066       1.427137       0.00000
  10     361.9       32.4770        9.9881       23.9160       33.9041       1.427137       0.00000
   9     398.1       32.1642       10.7372       22.8541       33.5913       1.427137      -0.00000
   8     437.6       31.8424       11.5051       21.7645       33.2696       1.427137       0.00000
   7     480.5       31.5130       12.2880       20.6521       32.9402       1.427137      -0.00000
   6     533.0       31.1282       13.1984       19.3569       32.5553       1.427137       0.00000
   5     589.8       30.7373       14.1177       18.0467       32.1644       1.427137      -0.00000
   4     651.6       30.3430       15.0385       16.7316       31.7701       1.427137       0.00000
   3     718.7       29.9479       15.9537       15.4214       31.3751       1.427137      -0.00000
   2     792.3       29.5553       16.8548       14.1276       30.9824       1.427137       0.00000
   1     891.5       29.0710       17.9523       12.5459       30.4982       1.427137      -0.00000
   0    1013.0       28.5520       19.1074       10.8717       29.9791       1.427137       0.00000



 Wavenumbers: 29000. - 38000. cm-1, ATM      1
 LEVEL PRESSURE   UPWARD FLUX   DIFDOWN FLUX  DIRDOWN FLUX  DOWNWARD FLUX   NET FLUX    HEATING RATE
          mb          W/m2          W/m2          W/m2        W/m2          W/m2       degree/day
  51    .06700        5.2417        0.0000       13.4026       13.4026       8.160911       0.00000
  50    .07753        5.2415        0.0003       13.3983       13.3986       8.157112       3.04471
  49    .09103        5.2412        0.0007       13.3921       13.3928       8.151592       3.45004
  48    0.1069        5.2409        0.0011       13.3840       13.3851       8.144214       3.92720
  47    0.1255        5.2406        0.0016       13.3733       13.3749       8.134369       4.46368
  46    0.1487        5.2401        0.0022       13.3579       13.3601       8.119925       5.26498
  45    0.1794        5.2396        0.0030       13.3340       13.3371       8.097522       6.14999
  44    0.2165        5.2389        0.0040       13.3024       13.3064       8.067500       6.82959
  43    0.2613        5.2382        0.0052       13.2604       13.2656       8.027440       7.55105
  42    0.3336        5.2370        0.0071       13.1833       13.1904       7.953424       8.62956
  41    0.4307        5.2354        0.0096       13.0729       13.0825       7.847037       9.25011
  40    0.5894        5.2331        0.0135       12.8796       12.8931       7.659965       9.94827
  39     1.339        5.2250        0.0299       11.9165       11.9464       6.721405      10.56648
  38     1.782        5.2220        0.0383       11.4399       11.4782       6.256237       8.85604
  37     2.292        5.2199        0.0473       10.9796       11.0269       5.807039       7.43989
  36     2.964        5.2190        0.0583       10.4786       10.5370       5.317985       6.13911
  35     3.853        5.2204        0.0720        9.9429       10.0149       4.794462       4.96833
  34     5.035        5.2250        0.0891        9.4007        9.4898       4.264745       3.78408
  33     6.613        5.2329        0.1107        8.8752        8.9859       3.752991       2.73584
  32     8.786        5.2438        0.1387        8.3786        8.5172       3.273485       1.86223
  31     11.80        5.2572        0.1771        7.8897        8.0667       2.809504       1.29900
  30     15.07        5.2692        0.2167        7.5108        7.7275       2.458324       0.90668
  29     18.79        5.2806        0.2599        7.1776        7.4375       2.156888       0.68345
  28     23.16        5.2916        0.3086        6.8664        7.1750       1.883395       0.52885
  27     28.12        5.3014        0.3625        6.5780        6.9405       1.639144       0.41521
  26     33.73        5.3072        0.4212        6.3195        6.7407       1.433512       0.30917
  25     40.54        5.3082        0.4906        6.0663        6.5568       1.248656       0.22933
  24     48.69        5.3038        0.5719        5.8128        6.3847       1.080874       0.17363
  23     57.69        5.2938        0.6587        5.5777        6.2364       0.942655       0.12956
  22     68.43        5.2760        0.7593        5.3379        6.0972       0.821189       0.09549
  21     81.20        5.2461        0.8761        5.0965        5.9726       0.726459       0.06260
  20     96.49        5.2030        1.0112        4.8476        5.8588       0.655781       0.03901
  19     114.6        5.1501        1.1644        4.5799        5.7443       0.594136       0.02878
  18     136.5        5.0887        1.3359        4.2891        5.6250       0.536223       0.02227
  17     162.9        5.0188        1.5264        3.9732        5.4996       0.480868       0.01769
  16     196.4        4.9299        1.7553        3.6080        5.3633       0.433399       0.01195
  15     218.7        4.8739        1.8949        3.3898        5.2846       0.410733       0.00861
  14     243.0        4.8160        2.0375        3.1686        5.2061       0.390124       0.00715
  13     269.0        4.7563        2.1821        2.9461        5.1282       0.371900       0.00591
  12     297.5        4.6953        2.3274        2.7239        5.0514       0.356089       0.00469
  11     328.5        4.6339        2.4722        2.5029        4.9751       0.341193       0.00405
  10     361.9        4.5726        2.6153        2.2846        4.8999       0.327236       0.00353
   9     398.1        4.5119        2.7553        2.0708        4.8261       0.314215       0.00303
   8     437.6        4.4522        2.8914        1.8626        4.7540       0.301853       0.00264
   7     480.5        4.3940        3.0221        1.6621        4.6843       0.290286       0.00227
   6     533.0        4.3297        3.1639        1.4437        4.6076       0.277862       0.00200
   5     589.8        4.2687        3.2957        1.2390        4.5347       0.266011       0.00176
   4     651.6        4.2116        3.4161        1.0500        4.4661       0.254572       0.00156
   3     718.7        4.1586        3.5243        0.8778        4.4021       0.243505       0.00139
   2     792.3        4.1103        3.6194        0.7237        4.3431       0.232790       0.00123
   1     891.5        4.0564        3.7198        0.5563        4.2761       0.219701       0.00111
   0    1013.0        4.0055        3.8070        0.4039        4.2109       0.205398       0.00099



 Wavenumbers: 38000. - 50000. cm-1, ATM      1
 LEVEL PRESSURE   UPWARD FLUX   DIFDOWN FLUX  DIRDOWN FLUX  DOWNWARD FLUX   NET FLUX    HEATING RATE
          mb          W/m2          W/m2          W/m2        W/m2          W/m2       degree/day
  51    .06700        0.0051        0.0000        0.8267        0.8267       0.821528       0.00000
  50    .07753        0.0051        0.0001        0.8242        0.8243       0.819196       1.86936
  49    .09103        0.0050        0.0002        0.8207        0.8209       0.815872       2.07705
  48    0.1069        0.0049        0.0002        0.8162        0.8164       0.811514       2.31984
  47    0.1255        0.0048        0.0004        0.8103        0.8106       0.805801       2.59006
  46    0.1487        0.0047        0.0005        0.8018        0.8023       0.797567       3.00143
  45    0.1794        0.0045        0.0007        0.7889        0.7896       0.785013       3.44648
  44    0.2165        0.0044        0.0009        0.7720        0.7729       0.768507       3.75474
  43    0.2613        0.0042        0.0011        0.7500        0.7511       0.746955       4.06246
  42    0.3336        0.0039        0.0015        0.7106        0.7121       0.708267       4.51071
  41    0.4307        0.0035        0.0019        0.6566        0.6584       0.654972       4.63387
  40    0.5894        0.0029        0.0024        0.5680        0.5704       0.567464       4.65357
  39     1.339        0.0015        0.0030        0.2422        0.2452       0.243720       3.64476
  38     1.782        0.0010        0.0026        0.1493        0.1519       0.150889       1.76735
  37     2.292        0.0007        0.0022        0.0924        0.0946       0.093932       0.94336
  36     2.964        0.0005        0.0018        0.0539        0.0557       0.055224       0.48589
  35     3.853        0.0003        0.0013        0.0295        0.0308       0.030502       0.23462
  34     5.035        0.0002        0.0010        0.0154        0.0164       0.016181       0.10230
  33     6.613        0.0001        0.0007        0.0073        0.0080       0.007912       0.04420
  32     8.786        0.0000        0.0004        0.0030        0.0034       0.003390       0.01756
  31     11.80        0.0000        0.0003        0.0010        0.0012       0.001199       0.00613
  30     15.07        0.0000        0.0001        0.0003        0.0005       0.000463       0.00190
  29     18.79        0.0000        0.0001        0.0001        0.0002       0.000182       0.00064
  28     23.16        0.0000        0.0000        0.0000        0.0001       0.000071       0.00022
  27     28.12        0.0000        0.0000        0.0000        0.0000       0.000028       0.00007
  26     33.73        0.0000        0.0000        0.0000        0.0000       0.000011       0.00002
  25     40.54        0.0000        0.0000        0.0000        0.0000       0.000005       0.00001
  24     48.69        0.0000        0.0000        0.0000        0.0000       0.000002       0.00000
  23     57.69        0.0000        0.0000        0.0000        0.0000       0.000001       0.00000
  22     68.43        0.0000        0.0000        0.0000        0.0000       0.000000       0.00000
  21     81.20        0.0000        0.0000        0.0000        0.0000       0.000000       0.00000
  20     96.49        0.0000        0.0000        0.0000        0.0000       0.000000       0.00000
  19     114.6        0.0000        0.0000        0.0000        0.0000       0.000000       0.00000
  18     136.5        0.0000        0.0000        0.0000        0.0000       0.000000       0.00000
  17     162.9        0.0000        0.0000        0.0000        0.0000       0.000000       0.00000
  16     196.4        0.0000        0.0000        0.0000        0.0000       0.000000       0.00000
  15     218.7        0.0000        0.0000        0.0000        0.0000       0.000000       0.00000
  14     243.0        0.0000        0.0000        0.0000        0.0000       0.000000       0.00000
  13     269.0        0.0000        0.0000        0.0000        0.0000       0.000000       0.00000
  12     297.5        0.0000        0.0000        0.0000        0.0000       0.000000       0.00000
  11     328.5        0.0000        0.0000        0.0000        0.0000       0.000000       0.00000
  10     361.9        0.0000        0.0000        0.0000        0.0000       0.000000       0.00000
   9     398.1        0.0000        0.0000        0.0000        0.0000       0.000000       0.00000
   8     437.6        0.0000        0.0000        0.0000        0.0000       0.000000       0.00000
   7     480.5        0.0000        0.0000        0.0000        0.0000       0.000000       0.00000
   6     533.0        0.0000        0.0000        0.0000        0.0000       0.000000       0.00000
   5     589.8        0.0000        0.0000        0.0000        0.0000       0.000000       0.00000
   4     651.6        0.0000        0.0000        0.0000        0.0000       0.000000       0.00000
   3     718.7        0.0000        0.0000        0.0000        0.0000       0.000000       0.00000
   2     792.3        0.0000        0.0000        0.0000        0.0000       0.000000       0.00000
   1     891.5        0.0000        0.0000        0.0000        0.0000       0.000000       0.00000
   0    1013.0        0.0000        0.0000        0.0000        0.0000       0.000000       0.00000



 Wavenumbers:   820. -  2600. cm-1, ATM      1
 LEVEL PRESSURE   UPWARD FLUX   DIFDOWN FLUX  DIRDOWN FLUX  DOWNWARD FLUX   NET FLUX    HEATING RATE
          mb          W/m2          W/m2          W/m2        W/m2          W/m2       degree/day
  51    .06700        0.3680        0.0000        3.8670        3.8670       3.499047       0.00000
  50    .07753        0.3680        0.0000        3.8643        3.8643       3.496330       2.17770
  49    .09103        0.3680        0.0000        3.8635        3.8635       3.495519       0.50638
  48    0.1069        0.3680        0.0000        3.8626        3.8626       3.494629       0.47415
  47    0.1255        0.3680        0.0000        3.8616        3.8616       3.493668       0.43559
  46    0.1487        0.3680        0.0000        3.8605        3.8605       3.492558       0.40437
  45    0.1794        0.3680        0.0000        3.8592        3.8592       3.491223       0.36648
  44    0.2165        0.3680        0.0000        3.8578        3.8578       3.489845       0.31346
  43    0.2613        0.3680        0.0000        3.8564        3.8564       3.488385       0.27522
  42    0.3336        0.3680        0.0000        3.8541        3.8541       3.486154       0.26013
  41    0.4307        0.3680        0.0000        3.8512        3.8512       3.483272       0.25063
  40    0.5894        0.3680        0.0000        3.8465        3.8465       3.478545       0.25134
  39     1.339        0.3680        0.0000        3.8251        3.8251       3.457170       0.24065
  38     1.782        0.3680        0.0000        3.8133        3.8133       3.445357       0.22490
  37     2.292        0.3680        0.0000        3.8003        3.8003       3.432296       0.21633
  36     2.964        0.3680        0.0000        3.7841        3.7841       3.416167       0.20247
  35     3.853        0.3680        0.0000        3.7642        3.7642       3.396252       0.18900
  34     5.035        0.3680        0.0000        3.7395        3.7395       3.371560       0.17638
  33     6.613        0.3680        0.0000        3.7090        3.7090       3.341024       0.16325
  32     8.786        0.3680        0.0000        3.6726        3.6726       3.304630       0.14134
  31     11.80        0.3680        0.0000        3.6320        3.6320       3.264035       0.11365
  30     15.07        0.3680        0.0000        3.6016        3.6016       3.233650       0.07845
  29     18.79        0.3680        0.0000        3.5777        3.5777       3.209750       0.05419
  28     23.16        0.3680        0.0000        3.5564        3.5564       3.188395       0.04129
  27     28.12        0.3680        0.0000        3.5348        3.5348       3.166847       0.03663
  26     33.73        0.3680        0.0000        3.5118        3.5118       3.143811       0.03463
  25     40.54        0.3680        0.0000        3.4849        3.4849       3.116920       0.03336
  24     48.69        0.3680        0.0000        3.4537        3.4537       3.085664       0.03234
  23     57.69        0.3680        0.0000        3.4210        3.4210       3.052987       0.03063
  22     68.43        0.3680        0.0000        3.3844        3.3844       3.016395       0.02877
  21     81.20        0.3681        0.0000        3.3441        3.3441       2.976090       0.02663
  20     96.49        0.3681        0.0000        3.2998        3.2998       2.931717       0.02449
  19     114.6        0.3681        0.0000        3.2506        3.2506       2.882557       0.02295
  18     136.5        0.3681        0.0000        3.1936        3.1936       2.825492       0.02194
  17     162.9        0.3682        0.0000        3.1181        3.1181       2.749960       0.02414
  16     196.4        0.3683        0.0000        3.0090        3.0090       2.640715       0.02750
  15     218.7        0.3683        0.0000        2.9420        2.9420       2.573667       0.02546
  14     243.0        0.3684        0.0000        2.8605        2.8605       2.492038       0.02831
  13     269.0        0.3686        0.0000        2.7419        2.7420       2.373343       0.03850
  12     297.5        0.3690        0.0000        2.5729        2.5729       2.203941       0.05024
  11     328.5        0.3695        0.0000        2.3602        2.3602       1.990734       0.05797
  10     361.9        0.3703        0.0000        2.1524        2.1524       1.782156       0.05277
   9     398.1        0.3715        0.0000        1.9974        1.9974       1.625968       0.03639
   8     437.6        0.3731        0.0000        1.8835        1.8835       1.510377       0.02471
   7     480.5        0.3756        0.0000        1.7734        1.7734       1.397830       0.02210
   6     533.0        0.3798        0.0000        1.6397        1.6398       1.260012       0.02217
   5     589.8        0.3857        0.0000        1.5068        1.5069       1.121118       0.02062
   4     651.6        0.3947        0.0000        1.3807        1.3807       0.986052       0.01847
   3     718.7        0.4065        0.0000        1.2680        1.2681       0.861511       0.01565
   2     792.3        0.4211        0.0000        1.1659        1.1660       0.744855       0.01338
   1     891.5        0.4457        0.0000        1.0372        1.0373       0.591611       0.01304
   0    1013.0        0.4902        0.0000        0.8716        0.8717       0.381444       0.01459

  Modules and versions used in this calculation:

       rrtmg_sw.1col.f90:  $Revision$                    rrtmg_sw_init.f90:  $Revision$        
     rrtmgsw_cldprop.f90:  $Revision$                  rrtmgsw_cldprmc.f90:  NOT USED          
     rrtmg_sw_reftra.f90:  $Revision$                  rrtmg_sw_spcvrt.f90:  NOT USED          
     rrtmg_sw_spcvmc.f90:  NOT USED                    rrtmgsw_setcoef.f90:  NOT USED          
     rrtmg_sw_taumol.f90:  $Revision$                  rrtmg_sw_vrtqdr.f90:  NOT USED          
                rrtatm.f:  NOT USED                             util_xxx.f:  NOT USED          
                 extra.f:  NOT USED                       rrtmg_sw_k_g.f90:  $Revision$        

