

 Wavenumbers:   820. - 50000. cm-1, ATM      1
 LEVEL PRESSURE   UPWARD FLUX   DIFDOWN FLUX  DIRDOWN FLUX  DOWNWARD FLUX   NET FLUX    HEATING RATE
          mb          W/m2          W/m2          W/m2        W/m2          W/m2       degree/day
  51    .06700      334.6134        0.0000      874.7370      874.7370     540.123540       0.00000
  50    .07753      334.6131        0.0014      874.7175      874.7189     540.105799      14.21981
  49    .09103      334.6127        0.0031      874.6996      874.7028     540.090055       9.84024
  48    0.1069      334.6123        0.0051      874.6792      874.6843     540.072018       9.60112
  47    0.1255      334.6119        0.0074      874.6544      874.6619     540.050007       9.97901
  46    0.1487      334.6114        0.0104      874.6206      874.6310     540.019581      11.09053
  45    0.1794      334.6109        0.0143      874.5708      874.5851     539.974255      12.44317
  44    0.2165      334.6103        0.0190      874.5067      874.5257     539.915383      13.39216
  43    0.2613      334.6099        0.0245      874.4240      874.4485     539.838659      14.46217
  42    0.3336      334.6095        0.0337      874.2748      874.3085     539.699033      16.27901
  41    0.4307      334.6094        0.0457      874.0622      874.1079     539.498500      17.43588
  40    0.5894      334.6103        0.0651      873.6847      873.7498     539.139516      19.09036
  39     1.339      334.6341        0.1534      871.5782      871.7315     537.097427      22.99021
  38     1.782      334.6617        0.2030      870.3527      870.5557     535.894000      22.91131
  37     2.292      334.7061        0.2594      869.0851      869.3445     534.638370      20.79650
  36     2.964      334.7831        0.3327      867.6895      868.0223     533.239153      17.56441
  35     3.853      334.9110        0.4289      866.1965      866.6255     531.714446      14.46974
  34     5.035      335.1067        0.5559      864.6070      865.1629     530.056204      11.84579
  33     6.613      335.3818        0.7248      862.9167      863.6416     528.259715       9.60403
  32     8.786      335.7407        0.9515      861.1122      862.0637     526.322956       7.52167
  31     11.80      336.2072        1.2742      859.0519      860.3261     524.118932       6.17057
  30     15.07      336.6536        1.6196      857.2180      858.8376     522.184022       4.99556
  29     18.79      337.1092        2.0079      855.4174      857.4253     520.316136       4.23507
  28     23.16      337.5854        2.4600      853.5614      856.0214     518.435991       3.63559
  27     28.12      338.0642        2.9751      851.6720      854.6471     516.582920       3.15010
  26     33.73      338.5030        3.5505      849.8102      853.3607     514.857617       2.59404
  25     40.54      338.9195        4.2441      847.8174      852.0615     513.141982       2.12844
  24     48.69      339.3110        5.0781      845.6535      850.7316     511.420553       1.78141
  23     57.69      339.6330        5.9913      843.4929      849.4842     509.851279       1.47096
  22     68.43      339.8982        7.0754      841.1394      848.2148     508.316596       1.20647
  21     81.20      340.0483        8.3634      838.6052      846.9686     506.920305       0.92265
  20     96.49      340.0717        9.8951      835.8294      845.7244     505.652775       0.69959
  19     114.6      340.0290       11.6980      832.6576      844.3556     504.326620       0.61922
  18     136.5      339.9232       13.8148      828.9945      842.8093     502.886111       0.55391
  17     162.9      339.7469       16.3064      824.6238      840.9302     501.183358       0.54427
  16     196.4      339.4069       19.4965      818.8028      838.2992     498.892303       0.57669
  15     218.7      339.1428       21.5658      814.7748      836.3406     497.197768       0.64335
  14     243.0      338.8373       23.7913      809.8837      833.6750     494.837623       0.81858
  13     269.0      338.4883       26.1755      803.3528      829.5283     491.040000       1.23193
  12     297.5      338.0953       28.7204      795.3926      824.1130     486.017721       1.48955
  11     328.5      337.6674       31.4338      786.2530      817.6867     480.019361       1.63094
  10     361.9      337.2074       34.3130      775.9552      810.2682     473.060813       1.76058
   9     398.1      336.7180       37.3641      764.4888      801.8528     465.134798       1.84658
   8     437.6      336.2092       40.5863      751.8209      792.4072     456.198031       1.91074
   7     480.5      335.6976       43.9788      737.7868      781.7655     446.067946       1.98951
   6     533.0      335.1285       48.0716      720.8083      768.8799     433.751357       1.98135
   5     589.8      334.6047       52.3818      703.2387      755.6205     421.015820       1.89037
   4     651.6      334.1774       56.9016      685.1442      742.0458     407.868416       1.79794
   3     718.7      333.8777       61.6235      667.2311      728.8546     394.976881       1.62011
   2     792.3      333.7448       66.5311      649.7633      716.2944     382.549660       1.42526
   1     891.5      333.9957       72.9183      627.8220      700.7403     366.744696       1.34493
   0    1013.0      335.5106       80.2397      602.3879      682.6276     347.117012       1.36285



 Wavenumbers:  2600. -  3250. cm-1, ATM      1
 LEVEL PRESSURE   UPWARD FLUX   DIFDOWN FLUX  DIRDOWN FLUX  DOWNWARD FLUX   NET FLUX    HEATING RATE
          mb          W/m2          W/m2          W/m2        W/m2          W/m2       degree/day
  51    .06700        0.4167        0.0000        7.7094        7.7094       7.292759       0.00000
  50    .07753        0.4167        0.0000        7.7094        7.7094       7.292751       0.00640
  49    .09103        0.4167        0.0000        7.7094        7.7094       7.292741       0.00627
  48    0.1069        0.4167        0.0000        7.7094        7.7094       7.292729       0.00613
  47    0.1255        0.4167        0.0000        7.7094        7.7094       7.292716       0.00600
  46    0.1487        0.4167        0.0000        7.7094        7.7094       7.292699       0.00608
  45    0.1794        0.4167        0.0000        7.7093        7.7093       7.292677       0.00625
  44    0.2165        0.4167        0.0000        7.7093        7.7093       7.292650       0.00613
  43    0.2613        0.4167        0.0000        7.7093        7.7093       7.292618       0.00600
  42    0.3336        0.4167        0.0000        7.7092        7.7092       7.292565       0.00618
  41    0.4307        0.4167        0.0000        7.7091        7.7091       7.292493       0.00621
  40    0.5894        0.4167        0.0000        7.7090        7.7090       7.292373       0.00638
  39     1.339        0.4167        0.0000        7.7083        7.7083       7.291661       0.00802
  38     1.782        0.4167        0.0000        7.7078        7.7078       7.291111       0.01046
  37     2.292        0.4167        0.0000        7.7070        7.7070       7.290383       0.01207
  36     2.964        0.4167        0.0000        7.7060        7.7060       7.289317       0.01338
  35     3.853        0.4167        0.0000        7.7044        7.7044       7.287783       0.01456
  34     5.035        0.4167        0.0000        7.7023        7.7023       7.285613       0.01550
  33     6.613        0.4167        0.0000        7.6993        7.6993       7.282607       0.01607
  32     8.786        0.4167        0.0000        7.6952        7.6952       7.278543       0.01578
  31     11.80        0.4167        0.0000        7.6896        7.6896       7.272936       0.01570
  30     15.07        0.4167        0.0000        7.6840        7.6840       7.267350       0.01442
  29     18.79        0.4166        0.0000        7.6783        7.6783       7.261662       0.01290
  28     23.16        0.4166        0.0000        7.6724        7.6724       7.255760       0.01141
  27     28.12        0.4166        0.0000        7.6664        7.6664       7.249717       0.01027
  26     33.73        0.4166        0.0000        7.6598        7.6599       7.243208       0.00979
  25     40.54        0.4166        0.0000        7.6518        7.6518       7.235139       0.01001
  24     48.69        0.4167        0.0000        7.6414        7.6414       7.224765       0.01074
  23     57.69        0.4167        0.0000        7.6289        7.6289       7.212275       0.01171
  22     68.43        0.4167        0.0000        7.6126        7.6126       7.195963       0.01282
  21     81.20        0.4167        0.0000        7.5915        7.5916       7.174901       0.01392
  20     96.49        0.4167        0.0000        7.5649        7.5650       7.148299       0.01468
  19     114.6        0.4167        0.0000        7.5311        7.5312       7.114453       0.01580
  18     136.5        0.4167        0.0001        7.4903        7.4904       7.073629       0.01570
  17     162.9        0.4168        0.0001        7.4417        7.4418       7.024977       0.01555
  16     196.4        0.4169        0.0001        7.3789        7.3790       6.962132       0.01582
  15     218.7        0.4170        0.0001        7.3364        7.3365       6.919514       0.01618
  14     243.0        0.4171        0.0001        7.2859        7.2860       6.868889       0.01756
  13     269.0        0.4174        0.0001        7.2201        7.2202       6.802834       0.02143
  12     297.5        0.4178        0.0001        7.1390        7.1391       6.721283       0.02419
  11     328.5        0.4184        0.0001        7.0396        7.0397       6.621257       0.02720
  10     361.9        0.4193        0.0001        6.9164        6.9165       6.497157       0.03140
   9     398.1        0.4207        0.0001        6.7587        6.7588       6.338159       0.03704
   8     437.6        0.4225        0.0001        6.5540        6.5542       6.131627       0.04416
   7     480.5        0.4253        0.0002        6.2848        6.2849       5.859600       0.05342
   6     533.0        0.4300        0.0002        5.9258        5.9260       5.495930       0.05850
   5     589.8        0.4369        0.0002        5.5471        5.5473       5.110406       0.05722
   4     651.6        0.4469        0.0002        5.1636        5.1637       4.716841       0.05382
   3     718.7        0.4609        0.0002        4.7928        4.7930       4.332095       0.04835
   2     792.3        0.4797        0.0002        4.4382        4.4384       3.958662       0.04283
   1     891.5        0.5142        0.0002        4.0038        4.0040       3.489775       0.03990
   0    1013.0        0.5855        0.0002        3.5163        3.5164       2.930938       0.03880



 Wavenumbers:  3250. -  4000. cm-1, ATM      1
 LEVEL PRESSURE   UPWARD FLUX   DIFDOWN FLUX  DIRDOWN FLUX  DOWNWARD FLUX   NET FLUX    HEATING RATE
          mb          W/m2          W/m2          W/m2        W/m2          W/m2       degree/day
  51    .06700        0.0008        0.0000       12.9969       12.9969      12.996118       0.00000
  50    .07753        0.0008        0.0000       12.9917       12.9917      12.990886       4.19372
  49    .09103        0.0008        0.0000       12.9875       12.9875      12.986700       2.61610
  48    0.1069        0.0008        0.0000       12.9843       12.9843      12.983467       1.72104
  47    0.1255        0.0008        0.0000       12.9815       12.9815      12.980674       1.26616
  46    0.1487        0.0008        0.0000       12.9786       12.9786      12.977758       1.06285
  45    0.1794        0.0008        0.0000       12.9751       12.9751      12.974323       0.94318
  44    0.2165        0.0008        0.0000       12.9716       12.9716      12.970758       0.81092
  43    0.2613        0.0008        0.0000       12.9679       12.9679      12.967051       0.69875
  42    0.3336        0.0008        0.0000       12.9627       12.9627      12.961826       0.60917
  41    0.4307        0.0008        0.0000       12.9569       12.9569      12.956034       0.50357
  40    0.5894        0.0008        0.0000       12.9488       12.9488      12.947951       0.42988
  39     1.339        0.0008        0.0000       12.9181       12.9181      12.917266       0.34545
  38     1.782        0.0008        0.0000       12.9038       12.9038      12.903017       0.27128
  37     2.292        0.0008        0.0000       12.8899       12.8899      12.889054       0.23126
  36     2.964        0.0008        0.0000       12.8741       12.8741      12.873309       0.19765
  35     3.853        0.0008        0.0000       12.8558       12.8558      12.854997       0.17379
  34     5.035        0.0008        0.0000       12.8335       12.8335      12.832718       0.15915
  33     6.613        0.0008        0.0000       12.8049       12.8049      12.804083       0.15308
  32     8.786        0.0008        0.0000       12.7657       12.7657      12.764914       0.15212
  31     11.80        0.0008        0.0000       12.7074       12.7074      12.706639       0.16315
  30     15.07        0.0008        0.0000       12.6422       12.6422      12.641440       0.16833
  29     18.79        0.0008        0.0000       12.5665       12.5665      12.565703       0.17172
  28     23.16        0.0008        0.0000       12.4768       12.4768      12.476037       0.17339
  27     28.12        0.0008        0.0000       12.3755       12.3755      12.374745       0.17219
  26     33.73        0.0008        0.0000       12.2668       12.2668      12.266066       0.16340
  25     40.54        0.0008        0.0001       12.1448       12.1448      12.144072       0.15135
  24     48.69        0.0008        0.0001       12.0122       12.0123      12.011546       0.13714
  23     57.69        0.0007        0.0001       11.8821       11.8822      11.881473       0.12192
  22     68.43        0.0007        0.0001       11.7406       11.7407      11.739951       0.11125
  21     81.20        0.0007        0.0001       11.5809       11.5810      11.580320       0.10548
  20     96.49        0.0007        0.0001       11.3953       11.3954      11.394749       0.10242
  19     114.6        0.0007        0.0001       11.1681       11.1682      11.167571       0.10608
  18     136.5        0.0007        0.0002       10.9009       10.9011      10.900406       0.10273
  17     162.9        0.0006        0.0002       10.5573       10.5575      10.556914       0.10979
  16     196.4        0.0006        0.0002       10.0125       10.0127      10.012159       0.13712
  15     218.7        0.0006        0.0002        9.6041        9.6044       9.603791       0.15504
  14     243.0        0.0005        0.0002        9.0698        9.0700       9.069493       0.18531
  13     269.0        0.0005        0.0002        8.3269        8.3271       8.326617       0.24099
  12     297.5        0.0005        0.0002        7.4699        7.4701       7.469601       0.25418
  11     328.5        0.0005        0.0002        6.5428        6.5430       6.542551       0.25206
  10     361.9        0.0005        0.0002        5.6022        5.6024       5.601954       0.23798
   9     398.1        0.0005        0.0002        4.7598        4.7600       4.759523       0.19627
   8     437.6        0.0005        0.0002        4.0023        4.0025       4.002057       0.16195
   7     480.5        0.0005        0.0002        3.2912        3.2914       3.290933       0.13966
   6     533.0        0.0005        0.0001        2.5693        2.5694       2.568899       0.11615
   5     589.8        0.0006        0.0001        1.9368        1.9369       1.936300       0.09390
   4     651.6        0.0007        0.0001        1.3733        1.3734       1.372687       0.07708
   3     718.7        0.0011        0.0001        0.9292        0.9292       0.928153       0.05587
   2     792.3        0.0017        0.0000        0.6034        0.6034       0.601719       0.03744
   1     891.5        0.0040        0.0000        0.3083        0.3083       0.304321       0.02531
   0    1013.0        0.0167        0.0000        0.1006        0.1006       0.083813       0.01531



 Wavenumbers:  4000. -  4650. cm-1, ATM      1
 LEVEL PRESSURE   UPWARD FLUX   DIFDOWN FLUX  DIRDOWN FLUX  DOWNWARD FLUX   NET FLUX    HEATING RATE
          mb          W/m2          W/m2          W/m2        W/m2          W/m2       degree/day
  51    .06700        1.5722        0.0000       15.2623       15.2623      13.690133       0.00000
  50    .07753        1.5722        0.0000       15.2623       15.2623      13.690132       0.00079
  49    .09103        1.5722        0.0000       15.2623       15.2623      13.690131       0.00078
  48    0.1069        1.5722        0.0000       15.2623       15.2623      13.690129       0.00076
  47    0.1255        1.5722        0.0000       15.2623       15.2623      13.690128       0.00074
  46    0.1487        1.5722        0.0000       15.2623       15.2623      13.690125       0.00075
  45    0.1794        1.5722        0.0000       15.2623       15.2623      13.690123       0.00077
  44    0.2165        1.5722        0.0000       15.2623       15.2623      13.690119       0.00076
  43    0.2613        1.5722        0.0000       15.2623       15.2623      13.690115       0.00074
  42    0.3336        1.5722        0.0000       15.2623       15.2623      13.690109       0.00076
  41    0.4307        1.5722        0.0000       15.2623       15.2623      13.690100       0.00077
  40    0.5894        1.5722        0.0000       15.2623       15.2623      13.690085       0.00079
  39     1.339        1.5722        0.0000       15.2622       15.2622      13.689996       0.00100
  38     1.782        1.5722        0.0000       15.2621       15.2621      13.689927       0.00132
  37     2.292        1.5722        0.0000       15.2620       15.2620      13.689833       0.00155
  36     2.964        1.5722        0.0000       15.2619       15.2619      13.689694       0.00175
  35     3.853        1.5722        0.0000       15.2617       15.2617      13.689487       0.00196
  34     5.035        1.5722        0.0000       15.2613       15.2614      13.689181       0.00218
  33     6.613        1.5722        0.0000       15.2609       15.2609      13.688732       0.00240
  32     8.786        1.5722        0.0000       15.2602       15.2602      13.688067       0.00258
  31     11.80        1.5722        0.0000       15.2591       15.2592      13.687023       0.00292
  30     15.07        1.5722        0.0001       15.2579       15.2580      13.685796       0.00317
  29     18.79        1.5721        0.0001       15.2564       15.2565      13.684311       0.00337
  28     23.16        1.5721        0.0001       15.2545       15.2546      13.682465       0.00357
  27     28.12        1.5721        0.0001       15.2522       15.2524      13.680226       0.00381
  26     33.73        1.5721        0.0001       15.2494       15.2496      13.677461       0.00416
  25     40.54        1.5721        0.0002       15.2456       15.2458      13.673702       0.00466
  24     48.69        1.5721        0.0002       15.2406       15.2408      13.668680       0.00520
  23     57.69        1.5721        0.0002       15.2346       15.2348      13.662710       0.00560
  22     68.43        1.5721        0.0003       15.2270       15.2273      13.655211       0.00590
  21     81.20        1.5721        0.0003       15.2177       15.2180      13.645945       0.00612
  20     96.49        1.5721        0.0004       15.2063       15.2067      13.634643       0.00624
  19     114.6        1.5721        0.0004       15.1920       15.1924      13.620345       0.00668
  18     136.5        1.5722        0.0005       15.1746       15.1751      13.602942       0.00669
  17     162.9        1.5723        0.0006       15.1528       15.1534      13.581125       0.00697
  16     196.4        1.5725        0.0008       15.1218       15.1225      13.550033       0.00783
  15     218.7        1.5727        0.0008       15.0984       15.0992      13.526518       0.00893
  14     243.0        1.5731        0.0009       15.0676       15.0685      13.495445       0.01078
  13     269.0        1.5737        0.0010       15.0221       15.0232      13.449509       0.01490
  12     297.5        1.5746        0.0011       14.9603       14.9615      13.386892       0.01857
  11     328.5        1.5759        0.0012       14.8757       14.8769      13.301055       0.02334
  10     361.9        1.5776        0.0014       14.7569       14.7583      13.180648       0.03046
   9     398.1        1.5800        0.0015       14.5960       14.5975      13.017495       0.03801
   8     437.6        1.5831        0.0016       14.3895       14.3911      12.808041       0.04478
   7     480.5        1.5874        0.0017       14.1391       14.1408      12.553437       0.05000
   6     533.0        1.5943        0.0019       13.8306       13.8324      12.238080       0.05073
   5     589.8        1.6045        0.0020       13.4947       13.4967      11.892182       0.05134
   4     651.6        1.6195        0.0022       13.0918       13.0939      11.474434       0.05713
   3     718.7        1.6402        0.0023       12.6299       12.6322      10.991947       0.06064
   2     792.3        1.6676        0.0024       12.1517       12.1541      10.486451       0.05797
   1     891.5        1.7165        0.0026       11.5578       11.5604       9.843892       0.05468
   0    1013.0        1.8145        0.0028       10.8936       10.8964       9.081951       0.05291



 Wavenumbers:  4650. -  5150. cm-1, ATM      1
 LEVEL PRESSURE   UPWARD FLUX   DIFDOWN FLUX  DIRDOWN FLUX  DOWNWARD FLUX   NET FLUX    HEATING RATE
          mb          W/m2          W/m2          W/m2        W/m2          W/m2       degree/day
  51    .06700        1.1045        0.0000       14.4465       14.4465      13.342060       0.00000
  50    .07753        1.1045        0.0000       14.4463       14.4463      13.341824       0.18924
  49    .09103        1.1045        0.0000       14.4460       14.4460      13.341528       0.18479
  48    0.1069        1.1045        0.0000       14.4456       14.4456      13.341190       0.18012
  47    0.1255        1.1045        0.0000       14.4453       14.4453      13.340803       0.17541
  46    0.1487        1.1045        0.0000       14.4448       14.4448      13.340317       0.17694
  45    0.1794        1.1045        0.0000       14.4441       14.4441      13.339659       0.18069
  44    0.2165        1.1045        0.0000       14.4433       14.4433      13.338887       0.17558
  43    0.2613        1.1045        0.0000       14.4424       14.4424      13.337983       0.17039
  42    0.3336        1.1045        0.0000       14.4410       14.4410      13.336511       0.17163
  41    0.4307        1.1045        0.0000       14.4391       14.4391      13.334602       0.16598
  40    0.5894        1.1045        0.0000       14.4360       14.4360      13.331587       0.16038
  39     1.339        1.1045        0.0000       14.4233       14.4233      13.318847       0.14342
  38     1.782        1.1045        0.0000       14.4168       14.4169      13.312402       0.12271
  37     2.292        1.1044        0.0000       14.4102       14.4102      13.305776       0.10975
  36     2.964        1.1044        0.0000       14.4026       14.4027      13.298220       0.09484
  35     3.853        1.1044        0.0000       14.3943       14.3943      13.289865       0.07929
  34     5.035        1.1044        0.0000       14.3853       14.3854      13.280938       0.06377
  33     6.613        1.1044        0.0000       14.3761       14.3761      13.271659       0.04961
  32     8.786        1.1044        0.0001       14.3664       14.3664      13.261981       0.03758
  31     11.80        1.1044        0.0001       14.3551       14.3552      13.250752       0.03144
  30     15.07        1.1044        0.0001       14.3440       14.3441      13.239703       0.02853
  29     18.79        1.1044        0.0001       14.3313       14.3314      13.226993       0.02882
  28     23.16        1.1044        0.0001       14.3154       14.3155      13.211112       0.03071
  27     28.12        1.1044        0.0002       14.2955       14.2957      13.191331       0.03363
  26     33.73        1.1044        0.0002       14.2714       14.2716      13.167251       0.03621
  25     40.54        1.1044        0.0002       14.2399       14.2401      13.135727       0.03911
  24     48.69        1.1044        0.0003       14.1990       14.1993      13.094949       0.04220
  23     57.69        1.1044        0.0003       14.1516       14.1519      13.047490       0.04449
  22     68.43        1.1044        0.0004       14.0927       14.0931      12.988693       0.04622
  21     81.20        1.1045        0.0005       14.0212       14.0216      12.917162       0.04727
  20     96.49        1.1046        0.0005       13.9361       13.9366      12.832080       0.04696
  19     114.6        1.1047        0.0006       13.8377       13.8384      12.733656       0.04596
  18     136.5        1.1049        0.0008       13.7275       13.7283      12.623355       0.04241
  17     162.9        1.1052        0.0009       13.6063       13.6072      12.501961       0.03880
  16     196.4        1.1057        0.0011       13.4642       13.4653      12.359624       0.03583
  15     218.7        1.1061        0.0012       13.3776       13.3788      12.272734       0.03299
  14     243.0        1.1066        0.0013       13.2860       13.2873      12.180668       0.03193
  13     269.0        1.1075        0.0014       13.1835       13.1850      12.077537       0.03346
  12     297.5        1.1087        0.0016       13.0650       13.0666      11.957905       0.03548
  11     328.5        1.1103        0.0017       12.9254       12.9271      11.816809       0.03836
  10     361.9        1.1126        0.0019       12.7587       12.7605      11.647963       0.04272
   9     398.1        1.1156        0.0020       12.5574       12.5595      11.443823       0.04756
   8     437.6        1.1198        0.0022       12.3136       12.3158      11.196042       0.05298
   7     480.5        1.1255        0.0023       12.0140       12.0163      10.890880       0.05993
   6     533.0        1.1345        0.0025       11.6039       11.6064      10.471985       0.06739
   5     589.8        1.1471        0.0027       11.1341       11.1368       9.989684       0.07159
   4     651.6        1.1650        0.0028       10.6153       10.6181       9.453085       0.07338
   3     718.7        1.1894        0.0029       10.0900       10.0930       8.903567       0.06906
   2     792.3        1.2219        0.0031        9.5878        9.5908       8.368945       0.06132
   1     891.5        1.2796        0.0033        8.9871        8.9904       7.710742       0.05601
   0    1013.0        1.3864        0.0034        8.3214        8.3248       6.938469       0.05362



 Wavenumbers:  5150. -  6150. cm-1, ATM      1
 LEVEL PRESSURE   UPWARD FLUX   DIFDOWN FLUX  DIRDOWN FLUX  DOWNWARD FLUX   NET FLUX    HEATING RATE
          mb          W/m2          W/m2          W/m2        W/m2          W/m2       degree/day
  51    .06700        2.7463        0.0000       36.2175       36.2175      33.471217       0.00000
  50    .07753        2.7463        0.0000       36.2174       36.2174      33.471182       0.02762
  49    .09103        2.7463        0.0000       36.2174       36.2174      33.471137       0.02812
  48    0.1069        2.7463        0.0000       36.2173       36.2173      33.471084       0.02861
  47    0.1255        2.7463        0.0000       36.2173       36.2173      33.471019       0.02906
  46    0.1487        2.7463        0.0000       36.2172       36.2172      33.470935       0.03062
  45    0.1794        2.7463        0.0000       36.2171       36.2171      33.470816       0.03273
  44    0.2165        2.7463        0.0000       36.2169       36.2169      33.470670       0.03337
  43    0.2613        2.7463        0.0000       36.2167       36.2167      33.470490       0.03383
  42    0.3336        2.7463        0.0000       36.2164       36.2164      33.470183       0.03575
  41    0.4307        2.7463        0.0000       36.2160       36.2160      33.469762       0.03660
  40    0.5894        2.7463        0.0000       36.2153       36.2153      33.469057       0.03751
  39     1.339        2.7462        0.0000       36.2118       36.2118      33.465606       0.03886
  38     1.782        2.7462        0.0000       36.2097       36.2098      33.463564       0.03888
  37     2.292        2.7462        0.0001       36.2074       36.2074      33.461208       0.03903
  36     2.964        2.7462        0.0001       36.2043       36.2043      33.458128       0.03866
  35     3.853        2.7462        0.0001       36.2002       36.2003      33.454087       0.03835
  34     5.035        2.7462        0.0001       36.1948       36.1949      33.448768       0.03799
  33     6.613        2.7461        0.0002       36.1877       36.1879      33.441758       0.03748
  32     8.786        2.7461        0.0002       36.1784       36.1786      33.432504       0.03594
  31     11.80        2.7460        0.0003       36.1654       36.1657      33.419655       0.03597
  30     15.07        2.7460        0.0004       36.1520       36.1524      33.406363       0.03432
  29     18.79        2.7459        0.0005       36.1374       36.1379      33.391949       0.03268
  28     23.16        2.7459        0.0006       36.1211       36.1217      33.375874       0.03108
  27     28.12        2.7458        0.0007       36.1035       36.1042      33.358403       0.02970
  26     33.73        2.7457        0.0009       36.0847       36.0856      33.339920       0.02779
  25     40.54        2.7456        0.0011       36.0636       36.0647      33.319070       0.02587
  24     48.69        2.7455        0.0013       36.0401       36.0414      33.295814       0.02407
  23     57.69        2.7454        0.0015       36.0164       36.0179      33.272463       0.02189
  22     68.43        2.7453        0.0018       35.9910       35.9928      33.247503       0.01962
  21     81.20        2.7452        0.0021       35.9634       35.9655      33.220307       0.01797
  20     96.49        2.7451        0.0025       35.9325       35.9351      33.189970       0.01674
  19     114.6        2.7449        0.0030       35.8970       35.9001      33.155108       0.01628
  18     136.5        2.7448        0.0036       35.8504       35.8540      33.109203       0.01765
  17     162.9        2.7446        0.0043       35.7698       35.7741      33.029505       0.02547
  16     196.4        2.7444        0.0051       35.5998       35.6049      32.860525       0.04253
  15     218.7        2.7443        0.0057       35.4112       35.4169      32.672580       0.07136
  14     243.0        2.7442        0.0062       35.0448       35.0510      32.306790       0.12687
  13     269.0        2.7442        0.0067       34.2953       34.3020      31.557785       0.24297
  12     297.5        2.7444        0.0072       33.3087       33.3160      30.571602       0.29249
  11     328.5        2.7448        0.0077       32.1963       32.2041      29.459324       0.30243
  10     361.9        2.7455        0.0082       30.8648       30.8730      28.127548       0.33695
   9     398.1        2.7466        0.0085       29.3521       29.3606      26.613999       0.35262
   8     437.6        2.7485        0.0089       27.7441       27.7530      25.004549       0.34411
   7     480.5        2.7514        0.0092       26.0590       26.0682      23.316761       0.33148
   6     533.0        2.7569        0.0096       24.2830       24.2925      21.535687       0.28652
   5     589.8        2.7656        0.0100       22.8044       22.8144      20.048871       0.22069
   4     651.6        2.7795        0.0106       21.6190       21.6296      18.850033       0.16394
   3     718.7        2.8006        0.0113       20.7191       20.7304      17.929784       0.11565
   2     792.3        2.8309        0.0120       20.0035       20.0155      17.184577       0.08547
   1     891.5        2.8916        0.0130       19.1759       19.1889      16.297340       0.07550
   0    1013.0        3.0326        0.0140       18.1924       18.2065      15.173930       0.07800



 Wavenumbers:  6150. -  7700. cm-1, ATM      1
 LEVEL PRESSURE   UPWARD FLUX   DIFDOWN FLUX  DIRDOWN FLUX  DOWNWARD FLUX   NET FLUX    HEATING RATE
          mb          W/m2          W/m2          W/m2        W/m2          W/m2       degree/day
  51    .06700        4.1926        0.0000       66.9856       66.9856      62.793037       0.00000
  50    .07753        4.1926        0.0000       66.9856       66.9856      62.792985       0.04144
  49    .09103        4.1926        0.0000       66.9855       66.9855      62.792919       0.04174
  48    0.1069        4.1926        0.0000       66.9854       66.9854      62.792840       0.04203
  47    0.1255        4.1926        0.0000       66.9853       66.9853      62.792746       0.04228
  46    0.1487        4.1926        0.0000       66.9852       66.9852      62.792625       0.04413
  45    0.1794        4.1926        0.0000       66.9850       66.9850      62.792455       0.04673
  44    0.2165        4.1926        0.0000       66.9848       66.9848      62.792248       0.04720
  43    0.2613        4.1926        0.0000       66.9845       66.9846      62.791996       0.04750
  42    0.3336        4.1926        0.0000       66.9841       66.9841      62.791568       0.04984
  41    0.4307        4.1925        0.0000       66.9835       66.9835      62.790986       0.05065
  40    0.5894        4.1925        0.0001       66.9825       66.9825      62.790014       0.05165
  39     1.339        4.1925        0.0001       66.9776       66.9778      62.785295       0.05314
  38     1.782        4.1924        0.0002       66.9747       66.9749      62.782509       0.05304
  37     2.292        4.1924        0.0002       66.9714       66.9717      62.779295       0.05322
  36     2.964        4.1923        0.0003       66.9671       66.9674      62.775094       0.05274
  35     3.853        4.1922        0.0004       66.9614       66.9618      62.769576       0.05237
  34     5.035        4.1921        0.0006       66.9538       66.9544      62.762300       0.05198
  33     6.613        4.1919        0.0007       66.9439       66.9446      62.752675       0.05146
  32     8.786        4.1917        0.0010       66.9307       66.9316      62.739895       0.04963
  31     11.80        4.1914        0.0013       66.9121       66.9134      62.721989       0.05013
  30     15.07        4.1911        0.0017       66.8927       66.8944      62.703248       0.04838
  29     18.79        4.1907        0.0021       66.8713       66.8734      62.682654       0.04669
  28     23.16        4.1903        0.0026       66.8471       66.8497      62.659331       0.04510
  27     28.12        4.1898        0.0031       66.8203       66.8234      62.633536       0.04385
  26     33.73        4.1893        0.0037       66.7913       66.7951      62.605753       0.04177
  25     40.54        4.1886        0.0045       66.7579       66.7624      62.573790       0.03965
  24     48.69        4.1878        0.0054       66.7198       66.7251      62.537297       0.03776
  23     57.69        4.1870        0.0064       66.6804       66.6867      62.499769       0.03518
  22     68.43        4.1859        0.0076       66.6369       66.6444      62.458507       0.03244
  21     81.20        4.1847        0.0090       66.5881       66.5971      62.412394       0.03047
  20     96.49        4.1832        0.0106       66.5323       66.5430      62.359763       0.02905
  19     114.6        4.1815        0.0126       66.4672       66.4798      62.298351       0.02867
  18     136.5        4.1794        0.0150       66.3822       66.3973      62.217879       0.03094
  17     162.9        4.1769        0.0178       66.2399       66.2577      62.080802       0.04382
  16     196.4        4.1737        0.0214       65.9466       65.9680      61.794221       0.07214
  15     218.7        4.1717        0.0237       65.6514       65.6751      61.503409       0.11041
  14     243.0        4.1696        0.0261       65.1482       65.1743      61.004746       0.17295
  13     269.0        4.1674        0.0284       64.1152       64.1436      59.976193       0.33366
  12     297.5        4.1655        0.0306       62.5106       62.5413      58.375765       0.47467
  11     328.5        4.1639        0.0327       60.5129       60.5456      56.381695       0.54218
  10     361.9        4.1630        0.0347       58.2676       58.3023      54.139222       0.56737
   9     398.1        4.1632        0.0364       55.6881       55.7245      51.561307       0.60060
   8     437.6        4.1651        0.0379       52.7570       52.7949      48.629794       0.62678
   7     480.5        4.1702        0.0391       49.5366       49.5757      45.405485       0.63324
   6     533.0        4.1816        0.0403       45.8844       45.9247      41.743046       0.58917
   5     589.8        4.2020        0.0414       42.4698       42.5112      38.309186       0.50970
   4     651.6        4.2367        0.0426       39.3280       39.3706      35.133878       0.43423
   3     718.7        4.2901        0.0440       36.5964       36.6404      32.350301       0.34982
   2     792.3        4.3671        0.0456       34.2844       34.3300      29.962886       0.27381
   1     891.5        4.5191        0.0479       31.7640       31.8119      27.292762       0.22721
   0    1013.0        4.8680        0.0503       29.1615       29.2118      24.343828       0.20476



 Wavenumbers:  7700. -  8050. cm-1, ATM      1
 LEVEL PRESSURE   UPWARD FLUX   DIFDOWN FLUX  DIRDOWN FLUX  DOWNWARD FLUX   NET FLUX    HEATING RATE
          mb          W/m2          W/m2          W/m2        W/m2          W/m2       degree/day
  51    .06700        2.1731        0.0000       15.8307       15.8307      13.657639       0.00000
  50    .07753        2.1731        0.0000       15.8307       15.8307      13.657620       0.01541
  49    .09103        2.1731        0.0000       15.8307       15.8307      13.657596       0.01511
  48    0.1069        2.1731        0.0000       15.8306       15.8306      13.657568       0.01479
  47    0.1255        2.1731        0.0000       15.8306       15.8306      13.657536       0.01447
  46    0.1487        2.1731        0.0000       15.8306       15.8306      13.657496       0.01469
  45    0.1794        2.1731        0.0000       15.8305       15.8305      13.657441       0.01511
  44    0.2165        2.1731        0.0000       15.8304       15.8304      13.657375       0.01482
  43    0.2613        2.1731        0.0000       15.8304       15.8304      13.657298       0.01455
  42    0.3336        2.1731        0.0000       15.8302       15.8303      13.657171       0.01488
  41    0.4307        2.1731        0.0000       15.8301       15.8301      13.657001       0.01472
  40    0.5894        2.1731        0.0000       15.8298       15.8298      13.656725       0.01470
  39     1.339        2.1732        0.0001       15.8285       15.8286      13.655417       0.01473
  38     1.782        2.1732        0.0001       15.8278       15.8279      13.654648       0.01463
  37     2.292        2.1733        0.0001       15.8269       15.8270      13.653758       0.01473
  36     2.964        2.1733        0.0001       15.8258       15.8259      13.652590       0.01466
  35     3.853        2.1734        0.0002       15.8243       15.8245      13.651047       0.01464
  34     5.035        2.1736        0.0002       15.8223       15.8226      13.648997       0.01465
  33     6.613        2.1737        0.0003       15.8197       15.8200      13.646258       0.01464
  32     8.786        2.1739        0.0004       15.8161       15.8165      13.642568       0.01433
  31     11.80        2.1742        0.0005       15.8110       15.8115      13.637292       0.01477
  30     15.07        2.1746        0.0007       15.8055       15.8062      13.631629       0.01462
  29     18.79        2.1750        0.0009       15.7993       15.8002      13.625237       0.01449
  28     23.16        2.1754        0.0011       15.7921       15.7932      13.617778       0.01442
  27     28.12        2.1759        0.0013       15.7839       15.7852      13.609257       0.01448
  26     33.73        2.1765        0.0015       15.7747       15.7762      13.599736       0.01432
  25     40.54        2.1772        0.0019       15.7636       15.7654      13.588253       0.01425
  24     48.69        2.1780        0.0022       15.7503       15.7525      13.574442       0.01429
  23     57.69        2.1790        0.0026       15.7356       15.7383      13.559312       0.01418
  22     68.43        2.1801        0.0031       15.7183       15.7214      13.541351       0.01412
  21     81.20        2.1814        0.0037       15.6978       15.7015      13.520038       0.01408
  20     96.49        2.1831        0.0044       15.6734       15.6778      13.494765       0.01395
  19     114.6        2.1850        0.0052       15.6447       15.6499      13.464929       0.01393
  18     136.5        2.1874        0.0062       15.6110       15.6172      13.429806       0.01351
  17     162.9        2.1902        0.0073       15.5712       15.5785      13.388308       0.01326
  16     196.4        2.1940        0.0088       15.5202       15.5290      13.334997       0.01342
  15     218.7        2.1965        0.0098       15.4870       15.4968      13.300264       0.01319
  14     243.0        2.1993        0.0108       15.4512       15.4620      13.262711       0.01302
  13     269.0        2.2024        0.0120       15.4126       15.4246      13.222136       0.01316
  12     297.5        2.2059        0.0132       15.3710       15.3842      13.178316       0.01300
  11     328.5        2.2097        0.0146       15.3260       15.3406      13.130808       0.01292
  10     361.9        2.2141        0.0160       15.2774       15.2934      13.079239       0.01305
   9     398.1        2.2191        0.0175       15.2246       15.2421      13.023024       0.01310
   8     437.6        2.2248        0.0192       15.1670       15.1862      12.961414       0.01317
   7     480.5        2.2313        0.0210       15.1034       15.1243      12.892991       0.01344
   6     533.0        2.2403        0.0231       15.0222       15.0453      12.805007       0.01415
   5     589.8        2.2511        0.0255       14.9305       14.9559      12.704883       0.01486
   4     651.6        2.2642        0.0279       14.8261       14.8541      12.589896       0.01572
   3     718.7        2.2800        0.0306       14.7091       14.7397      12.459663       0.01637
   2     792.3        2.2988        0.0334       14.5802       14.6135      12.314718       0.01662
   1     891.5        2.3275        0.0371       14.4001       14.4371      12.109611       0.01745
   0    1013.0        2.3693        0.0414       14.1676       14.2090      11.839737       0.01874



 Wavenumbers:  8050. - 12850. cm-1, ATM      1
 LEVEL PRESSURE   UPWARD FLUX   DIFDOWN FLUX  DIRDOWN FLUX  DOWNWARD FLUX   NET FLUX    HEATING RATE
          mb          W/m2          W/m2          W/m2        W/m2          W/m2       degree/day
  51    .06700       27.6603        0.0000      221.6414      221.6414     193.981158       0.00000
  50    .07753       27.6602        0.0000      221.6414      221.6414     193.981158       0.00000
  49    .09103       27.6602        0.0001      221.6413      221.6414     193.981158      -0.00000
  48    0.1069       27.6602        0.0001      221.6413      221.6413     193.981158       0.00000
  47    0.1255       27.6602        0.0001      221.6412      221.6413     193.981158       0.00000
  46    0.1487       27.6601        0.0002      221.6411      221.6413     193.981158       0.00000
  45    0.1794       27.6601        0.0003      221.6410      221.6412     193.981158       0.00000
  44    0.2165       27.6600        0.0003      221.6408      221.6412     193.981158      -0.00000
  43    0.2613       27.6599        0.0004      221.6406      221.6411     193.981158       0.00000
  42    0.3336       27.6598        0.0006      221.6404      221.6410     193.981158      -0.00000
  41    0.4307       27.6596        0.0008      221.6400      221.6408     193.981158       0.00000
  40    0.5894       27.6594        0.0012      221.6394      221.6405     193.981158      -0.00000
  39     1.339       27.6581        0.0028      221.6364      221.6392     193.981158       0.00000
  38     1.782       27.6573        0.0038      221.6347      221.6385     193.981158       0.00000
  37     2.292       27.6564        0.0050      221.6326      221.6376     193.981158       0.00000
  36     2.964       27.6553        0.0064      221.6300      221.6364     193.981158       0.00000
  35     3.853       27.6538        0.0084      221.6265      221.6349     193.981158      -0.00000
  34     5.035       27.6517        0.0110      221.6219      221.6329     193.981158      -0.00000
  33     6.613       27.6490        0.0145      221.6157      221.6302     193.981158       0.00000
  32     8.786       27.6454        0.0193      221.6073      221.6266     193.981158       0.00000
  31     11.80       27.6402        0.0260      221.5953      221.6213     193.981158      -0.00000
  30     15.07       27.6346        0.0333      221.5824      221.6157     193.981158       0.00000
  29     18.79       27.6282        0.0415      221.5679      221.6094     193.981158      -0.00000
  28     23.16       27.6208        0.0511      221.5509      221.6020     193.981158      -0.00000
  27     28.12       27.6123        0.0621      221.5314      221.5935     193.981158       0.00000
  26     33.73       27.6028        0.0744      221.5095      221.5839     193.981158      -0.00000
  25     40.54       27.5913        0.0894      221.4831      221.5724     193.981158       0.00000
  24     48.69       27.5774        0.1074      221.4512      221.5585     193.981158      -0.00000
  23     57.69       27.5620        0.1272      221.4160      221.5432     193.981158       0.00000
  22     68.43       27.5438        0.1508      221.3742      221.5249     193.981158       0.00000
  21     81.20       27.5220        0.1790      221.3242      221.5031     193.981158      -0.00000
  20     96.49       27.4959        0.2126      221.2645      221.4771     193.981158       0.00000
  19     114.6       27.4650        0.2527      221.1858      221.4385     193.973425       0.00361
  18     136.5       27.4283        0.3002      221.0903      221.3905     193.962232       0.00430
  17     162.9       27.3845        0.3569      220.9669      221.3238     193.939300       0.00733
  16     196.4       27.3276        0.4306      220.7736      221.2043     193.876702       0.01576
  15     218.7       27.2901        0.4791      220.6054      221.0845     193.794385       0.03125
  14     243.0       27.2496        0.5317      220.3409      220.8727     193.623111       0.05940
  13     269.0       27.2062        0.5885      219.8552      220.4437     193.237513       0.12509
  12     297.5       27.1605        0.6494      219.1256      219.7750     192.614558       0.18476
  11     328.5       27.1131        0.7147      218.1465      218.8612     191.748143       0.23558
  10     361.9       27.0653        0.7842      216.8872      217.6714     190.606096       0.28895
   9     398.1       27.0186        0.8578      215.2499      216.1076     189.089010       0.35345
   8     437.6       26.9762        0.9349      213.1114      214.0463     187.070094       0.43166
   7     480.5       26.9444        1.0147      210.2947      211.3094     184.365009       0.53127
   6     533.0       26.9281        1.1093      206.3441      207.4534     180.525294       0.61769
   5     589.8       26.9448        1.2071      201.7196      202.9267     175.981849       0.67440
   4     651.6       27.0148        1.3078      196.5203      197.8281     170.813296       0.70681
   3     718.7       27.1523        1.4125      191.1461      192.5585     165.406267       0.67951
   2     792.3       27.3724        1.5217      185.8170      187.3387     159.966249       0.62391
   1     891.5       27.8379        1.6635      179.0025      180.6661     152.828167       0.60742
   0    1013.0       28.9014        1.8219      170.8432      172.6651     143.763700       0.62939



 Wavenumbers: 12850. - 16000. cm-1, ATM      1
 LEVEL PRESSURE   UPWARD FLUX   DIFDOWN FLUX  DIRDOWN FLUX  DOWNWARD FLUX   NET FLUX    HEATING RATE
          mb          W/m2          W/m2          W/m2        W/m2          W/m2       degree/day
  51    .06700       60.7238        0.0000      138.8779      138.8779      78.154177       0.00000
  50    .07753       60.7237        0.0001      138.8771      138.8771      78.153388       0.63226
  49    .09103       60.7237        0.0001      138.8760      138.8761      78.152395       0.62061
  48    0.1069       60.7237        0.0002      138.8747      138.8750      78.151251       0.60885
  47    0.1255       60.7237        0.0003      138.8733      138.8736      78.149933       0.59745
  46    0.1487       60.7237        0.0005      138.8715      138.8720      78.148265       0.60820
  45    0.1794       60.7237        0.0007      138.8690      138.8697      78.145985       0.62587
  44    0.2165       60.7237        0.0009      138.8661      138.8670      78.143289       0.61332
  43    0.2613       60.7238        0.0012      138.8627      138.8639      78.140100       0.60114
  42    0.3336       60.7239        0.0016      138.8572      138.8588      78.134854       0.61156
  41    0.4307       60.7241        0.0022      138.8499      138.8521      78.127991       0.59679
  40    0.5894       60.7246        0.0031      138.8385      138.8416      78.117027       0.58302
  39     1.339       60.7290        0.0075      138.7880      138.7955      78.066456       0.56934
  38     1.782       60.7333        0.0101      138.7596      138.7697      78.036403       0.57216
  37     2.292       60.7399        0.0131      138.7266      138.7397      77.999889       0.60476
  36     2.964       60.7508        0.0171      138.6819      138.6989      77.948132       0.64971
  35     3.853       60.7687        0.0223      138.6198      138.6421      77.873393       0.70929
  34     5.035       60.7957        0.0292      138.5344      138.5636      77.767938       0.75332
  33     6.613       60.8334        0.0384      138.4204      138.4589      77.625415       0.76193
  32     8.786       60.8825        0.0508      138.2733      138.3241      77.441576       0.71397
  31     11.80       60.9462        0.0686      138.0786      138.1472      77.200977       0.67360
  30     15.07       61.0070        0.0877      137.8868      137.9745      76.967535       0.60270
  29     18.79       61.0687        0.1092      137.6855      137.7947      76.726065       0.54749
  28     23.16       61.1328        0.1344      137.4680      137.6023      76.469520       0.49608
  27     28.12       61.1969        0.1631      137.2394      137.4025      76.205626       0.44860
  26     33.73       61.2554        0.1952      137.0123      137.2075      75.952164       0.38109
  25     40.54       61.3106        0.2341      136.7709      137.0050      75.694339       0.31986
  24     48.69       61.3623        0.2810      136.5127      136.7937      75.431349       0.27215
  23     57.69       61.4046        0.3325      136.2615      136.5939      75.189296       0.22689
  22     68.43       61.4394        0.3938      135.9978      136.3916      74.952274       0.18633
  21     81.20       61.4593        0.4671      135.7317      136.1988      74.739496       0.14060
  20     96.49       61.4631        0.5545      135.4607      136.0152      74.552111       0.10342
  19     114.6       61.4674        0.6592      135.1644      135.8236      74.356136       0.09151
  18     136.5       61.4636        0.7833      134.8341      135.6174      74.153773       0.07781
  17     162.9       61.4510        0.9311      134.4577      135.3888      73.937836       0.06902
  16     196.4       61.4173        1.1230      133.9957      135.1186      73.701335       0.05953
  15     218.7       61.3890        1.2490      133.6988      134.9478      73.558839       0.05410
  14     243.0       61.3555        1.3860      133.3758      134.7618      73.406280       0.05291
  13     269.0       61.3170        1.5344      133.0226      134.5571      73.240113       0.05390
  12     297.5       61.2738        1.6949      132.6345      134.3295      73.055638       0.05471
  11     328.5       61.2282        1.8683      132.2028      134.0711      72.842901       0.05784
  10     361.9       61.1818        2.0550      131.7206      133.7756      72.593787       0.06303
   9     398.1       61.1363        2.2558      131.1798      133.4355      72.299235       0.06862
   8     437.6       61.0959        2.4711      130.5665      133.0376      71.941700       0.07644
   7     480.5       61.0678        2.7014      129.8562      132.5576      71.489797       0.08875
   6     533.0       61.0589        2.9838      128.9076      131.8913      70.832442       0.10575
   5     589.8       61.0815        3.2859      127.8113      131.0972      70.015736       0.12123
   4     651.6       61.1510        3.6077      126.5506      130.1582      69.007272       0.13791
   3     718.7       61.2768        3.9496      125.1412      129.0908      67.813985       0.14996
   2     792.3       61.4716        4.3120      123.6089      127.9209      66.449366       0.15651
   1     891.5       61.8624        4.7944      121.4995      126.2939      64.431509       0.17171
   0    1013.0       62.6201        5.3616      118.8765      124.2381      61.618079       0.19535



 Wavenumbers: 16000. - 22650. cm-1, ATM      1
 LEVEL PRESSURE   UPWARD FLUX   DIFDOWN FLUX  DIRDOWN FLUX  DOWNWARD FLUX   NET FLUX    HEATING RATE
          mb          W/m2          W/m2          W/m2        W/m2          W/m2       degree/day
  51    .06700      157.3994        0.0000      221.4255      221.4255      64.026142       0.00000
  50    .07753      157.3994        0.0004      221.4249      221.4253      64.025987       0.12456
  49    .09103      157.3994        0.0009      221.4242      221.4251      64.025761       0.14128
  48    0.1069      157.3994        0.0015      221.4233      221.4249      64.025458       0.16110
  47    0.1255      157.3995        0.0022      221.4223      221.4245      64.025053       0.18364
  46    0.1487      157.3996        0.0031      221.4210      221.4240      64.024456       0.21761
  45    0.1794      157.3998        0.0043      221.4191      221.4233      64.023523       0.25622
  44    0.2165      157.4002        0.0057      221.4167      221.4224      64.022257       0.28796
  43    0.2613      157.4007        0.0073      221.4139      221.4212      64.020540       0.32374
  42    0.3336      157.4017        0.0101      221.4089      221.4190      64.017274       0.38071
  41    0.4307      157.4033        0.0137      221.4020      221.4157      64.012352       0.42797
  40    0.5894      157.4067        0.0197      221.3899      221.4096      64.002965       0.49921
  39     1.339      157.4339        0.0479      221.3197      221.3675      63.933605       0.78086
  38     1.782      157.4585        0.0644      221.2686      221.3330      63.874514       1.12501
  37     2.292      157.4949        0.0836      221.2003      221.2839      63.788969       1.41684
  36     2.964      157.5550        0.1087      221.0966      221.2054      63.650366       1.73989
  35     3.853      157.6516        0.1419      220.9401      221.0820      63.430386       2.08765
  34     5.035      157.7970        0.1860      220.7131      220.8991      63.102080       2.34528
  33     6.613      157.9999        0.2448      220.4007      220.6455      62.645608       2.44030
  32     8.786      158.2644        0.3240      219.9916      220.3156      62.051248       2.30828
  31     11.80      158.6092        0.4372      219.4471      219.8843      61.275102       2.17296
  30     15.07      158.9404        0.5587      218.9095      219.4682      60.527763       1.92948
  29     18.79      159.2793        0.6958      218.3446      219.0404      59.761078       1.73831
  28     23.16      159.6346        0.8558      217.7335      218.5893      58.954679       1.55931
  27     28.12      159.9934        1.0386      217.0908      218.1294      58.135996       1.39171
  26     33.73      160.3268        1.2432      216.4498      217.6930      57.366196       1.15741
  25     40.54      160.6506        1.4903      215.7649      217.2552      56.604556       0.94490
  24     48.69      160.9644        1.7882      215.0258      216.8141      55.849695       0.78116
  23     57.69      161.2348        2.1154      214.2972      216.4126      55.177819       0.62978
  22     68.43      161.4767        2.5051      213.5180      216.0231      54.546429       0.49636
  21     81.20      161.6551        2.9695      212.7092      215.6787      54.023564       0.34550
  20     96.49      161.7657        3.5231      211.8555      215.3786      53.612818       0.22670
  19     114.6      161.8439        4.1793      210.9014      215.0807      53.236741       0.17560
  18     136.5      161.9005        4.9553      209.8115      214.7669      52.866342       0.14243
  17     162.9      161.9345        5.8768      208.5526      214.4293      52.494792       0.11876
  16     196.4      161.9075        7.0682      206.9993      214.0675      52.160011       0.08427
  15     218.7      161.8631        7.8484      206.0096      213.8580      51.994828       0.06271
  14     243.0      161.8022        8.6941      204.9494      213.6434      51.841204       0.05328
  13     269.0      161.7230        9.6080      203.8164      213.4244      51.701406       0.04535
  12     297.5      161.6247       10.5928      202.6077      213.2004      51.575725       0.03728
  11     328.5      161.5121       11.6534      201.3104      212.9638      51.451708       0.03372
  10     361.9      161.3851       12.7914      199.9223      212.7136      51.328564       0.03116
   9     398.1      161.2432       14.0116      198.4361      212.4477      51.204452       0.02892
   8     437.6      161.0881       15.3168      196.8456      212.1624      51.074326       0.02782
   7     480.5      160.9207       16.7103      195.1436      211.8539      50.933222       0.02771
   6     533.0      160.7155       18.4176      193.0503      211.4680      50.752510       0.02907
   5     589.8      160.4988       20.2483      190.7928      211.0411      50.542334       0.03120
   4     651.6      160.2747       22.2051      188.3614      210.5665      50.291746       0.03427
   3     718.7      160.0426       24.2908      185.7535      210.0443      50.001735       0.03645
   2     792.3      159.8040       26.5042      182.9699      209.4741      49.670103       0.03803
   1     891.5      159.5070       29.4569      179.2226      208.6795      49.172507       0.04234
   0    1013.0      159.2005       32.9509      174.7281      207.6790      48.478528       0.04819



 Wavenumbers: 22650. - 29000. cm-1, ATM      1
 LEVEL PRESSURE   UPWARD FLUX   DIFDOWN FLUX  DIRDOWN FLUX  DOWNWARD FLUX   NET FLUX    HEATING RATE
          mb          W/m2          W/m2          W/m2        W/m2          W/m2       degree/day
  51    .06700       65.8228        0.0000       83.5579       83.5579      17.735092       0.00000
  50    .07753       65.8228        0.0005       83.5574       83.5579      17.735092       0.00000
  49    .09103       65.8227        0.0011       83.5567       83.5578      17.735092       0.00000
  48    0.1069       65.8226        0.0018       83.5559       83.5577      17.735092      -0.00000
  47    0.1255       65.8225        0.0026       83.5550       83.5576      17.735092       0.00000
  46    0.1487       65.8223        0.0036       83.5538       83.5574      17.735092       0.00000
  45    0.1794       65.8221        0.0050       83.5522       83.5572      17.735092      -0.00000
  44    0.2165       65.8219        0.0067       83.5504       83.5570      17.735092       0.00000
  43    0.2613       65.8217        0.0086       83.5481       83.5568      17.735092       0.00000
  42    0.3336       65.8212        0.0118       83.5445       83.5563      17.735092      -0.00000
  41    0.4307       65.8206        0.0161       83.5396       83.5557      17.735092       0.00000
  40    0.5894       65.8197        0.0231       83.5317       83.5548      17.735092       0.00000
  39     1.339       65.8152        0.0562       83.4941       83.5503      17.735092      -0.00000
  38     1.782       65.8126        0.0757       83.4720       83.5477      17.735092       0.00000
  37     2.292       65.8095        0.0982       83.4464       83.5446      17.735092       0.00000
  36     2.964       65.8055        0.1277       83.4129       83.5406      17.735092       0.00000
  35     3.853       65.8002        0.1667       83.3686       83.5353      17.735092      -0.00000
  34     5.035       65.7932        0.2185       83.3097       83.5282      17.735092       0.00000
  33     6.613       65.7837        0.2877       83.2311       83.5188      17.735092      -0.00000
  32     8.786       65.7710        0.3809       83.1252       83.5061      17.735092       0.00000
  31     11.80       65.7529        0.5141       82.9738       83.4880      17.735092      -0.00000
  30     15.07       65.7333        0.6570       82.8114       83.4684      17.735092       0.00000
  29     18.79       65.7113        0.8181       82.6282       83.4463      17.735092       0.00000
  28     23.16       65.6854        1.0061       82.4145       83.4205      17.735092       0.00000
  27     28.12       65.6559        1.2206       82.1704       83.3910      17.735092      -0.00000
  26     33.73       65.6228        1.4600       81.8979       83.3579      17.735092       0.00000
  25     40.54       65.5828        1.7484       81.5695       83.3179      17.735092      -0.00000
  24     48.69       65.5345        2.0948       81.1748       83.2696      17.735092      -0.00000
  23     57.69       65.4814        2.4736       80.7428       83.2165      17.735092       0.00000
  22     68.43       65.4181        2.9224       80.2307       83.1532      17.735092       0.00000
  21     81.20       65.3426        3.4536       79.6240       83.0777      17.735092      -0.00000
  20     96.49       65.2526        4.0816       78.9060       82.9877      17.735092       0.00000
  19     114.6       65.1456        4.8200       78.0607       82.8807      17.735092       0.00000
  18     136.5       65.0187        5.6850       77.0687       82.7538      17.735092      -0.00000
  17     162.9       64.8674        6.7007       75.9018       82.6025      17.735092       0.00000
  16     196.4       64.6710        7.9946       74.4115       82.4060      17.735092       0.00000
  15     218.7       64.5418        8.8302       73.4467       82.2769      17.735092       0.00000
  14     243.0       64.4013        9.7261       72.4103       82.1364      17.735092       0.00000
  13     269.0       64.2488       10.6825       71.3014       81.9839      17.735092      -0.00000
  12     297.5       64.0839       11.6994       70.1195       81.8189      17.735092      -0.00000
  11     328.5       63.9052       12.7793       68.8610       81.6403      17.735092       0.00000
  10     361.9       63.7125       13.9204       67.5272       81.4476      17.735092      -0.00000
   9     398.1       63.5046       15.1239       66.1158       81.2397      17.735092       0.00000
   8     437.6       63.2806       16.3885       64.6272       81.0157      17.735092       0.00000
   7     480.5       63.0397       17.7129       63.0619       80.7748      17.735092       0.00000
   6     533.0       62.7419       19.2999       61.1770       80.4770      17.735092      -0.00000
   5     589.8       62.4190       20.9585       59.1956       80.1541      17.735092      -0.00000
   4     651.6       62.0698       22.6827       57.1222       79.8049      17.735092       0.00000
   3     718.7       61.6927       24.4649       54.9629       79.4278      17.735092      -0.00000
   2     792.3       61.2866       26.2950       52.7267       79.0217      17.735092       0.00000
   1     891.5       60.7347       28.6400       49.8298       78.4698      17.735092       0.00000
   0    1013.0       60.0655       31.2734       46.5272       77.8006      17.735092       0.00000



 Wavenumbers: 29000. - 38000. cm-1, ATM      1
 LEVEL PRESSURE   UPWARD FLUX   DIFDOWN FLUX  DIRDOWN FLUX  DOWNWARD FLUX   NET FLUX    HEATING RATE
          mb          W/m2          W/m2          W/m2        W/m2          W/m2       degree/day
  51    .06700       10.4818        0.0000       29.4660       29.4660      18.984167       0.00000
  50    .07753       10.4817        0.0003       29.4617       29.4620      18.980354       3.05627
  49    .09103       10.4815        0.0007       29.4555       29.4563      18.974806       3.46783
  48    0.1069       10.4812        0.0012       29.4474       29.4486      18.967376       3.95480
  47    0.1255       10.4810        0.0018       29.4366       29.4384      18.957437       4.50617
  46    0.1487       10.4807        0.0025       29.4210       29.4235      18.942805       5.33357
  45    0.1794       10.4803        0.0034       29.3969       29.4003      18.919991       6.26291
  44    0.2165       10.4798        0.0045       29.3645       29.3690      18.889188       7.00721
  43    0.2613       10.4794        0.0058       29.3212       29.3270      18.847671       7.82567
  42    0.3336       10.4787        0.0080       29.2404       29.2484      18.769684       9.09248
  41    0.4307       10.4779        0.0108       29.1216       29.1324      18.654566      10.00932
  40    0.5894       10.4768        0.0153       28.9044       28.9197      18.442872      11.25761
  39     1.339       10.4765        0.0349       27.6014       27.6363      17.159832      14.44470
  38     1.782       10.4793        0.0451       26.7907       26.8358      16.356493      15.29427
  37     2.292       10.4852        0.0561       25.9184       25.9745      15.489330      14.36248
  36     2.964       10.4968        0.0697       24.9351       25.0048      14.508044      12.31811
  35     3.853       10.5174        0.0869       23.8931       23.9799      13.462554       9.92189
  34     5.035       10.5500        0.1087       22.8387       22.9473      12.397262       7.61000
  33     6.613       10.5968        0.1369       21.8116       21.9485      11.351626       5.58998
  32     8.786       10.6587        0.1738       20.8422       21.0160      10.357336       3.86146
  31     11.80       10.7402        0.2253       19.8906       20.1159       9.375719       2.74822
  30     15.07       10.8199        0.2795       19.1622       19.4417       8.621756       1.94659
  29     18.79       10.9034        0.3393       18.5321       18.8714       7.967959       1.48236
  28     23.16       10.9936        0.4080       17.9546       18.3625       7.368970       1.15825
  27     28.12       11.0876        0.4852       17.4280       17.9132       6.825546       0.92379
  26     33.73       11.1773        0.5710       16.9644       17.5354       6.358013       0.70295
  25     40.54       11.2663        0.6740       16.5188       17.1928       5.926462       0.53539
  24     48.69       11.3546        0.7972       16.0802       16.8774       5.522827       0.41770
  23     57.69       11.4323        0.9314       15.6801       16.6115       5.179210       0.32209
  22     68.43       11.5024        1.0900       15.2796       16.3696       4.867177       0.24530
  21     81.20       11.5514        1.2784       14.8885       16.1669       4.615520       0.16629
  20     96.49       11.5763        1.5046       14.4959       16.0005       4.424206       0.10559
  19     114.6       11.5888        1.7647       14.0739       15.8386       4.249834       0.08142
  18     136.5       11.5934        2.0647       13.6094       15.6741       4.080700       0.06504
  17     162.9       11.5901        2.4097       13.0932       15.5029       3.912717       0.05369
  16     196.4       11.5630        2.8426       12.4834       15.3259       3.762976       0.03769
  15     218.7       11.5369        3.1176       12.1087       15.2263       3.689323       0.02796
  14     243.0       11.5052        3.4077       11.7184       15.1260       3.620834       0.02375
  13     269.0       11.4668        3.7120       11.3137       15.0257       3.558924       0.02008
  12     297.5       11.4215        4.0297       10.8957       14.9255       3.504001       0.01629
  11     328.5       11.3709        4.3597       10.4623       14.8220       3.451116       0.01438
  10     361.9       11.3149        4.6996       10.0158       14.7154       3.400506       0.01280
   9     398.1       11.2531        5.0487        9.5567       14.6054       3.352288       0.01123
   8     437.6       11.1858        5.4048        9.0866       14.4914       3.305590       0.00998
   7     480.5       11.1125        5.7658        8.6078       14.3735       3.261063       0.00874
   6     533.0       11.0209        6.1833        8.0500       14.2332       3.212335       0.00784
   5     589.8       10.9214        6.6001        7.4864       14.0864       3.164994       0.00703
   4     651.6       10.8140        7.0120        6.9206       13.9326       3.118580       0.00635
   3     718.7       10.6985        7.4144        6.3571       13.7715       3.073081       0.00572
   2     792.3       10.5746        7.8015        5.8017       13.6032       3.028574       0.00510
   1     891.5       10.4076        8.2594        5.1220       13.3814       2.973766       0.00466
   0    1013.0       10.2076        8.7196        4.4016       13.1212       2.913528       0.00418



 Wavenumbers: 38000. - 50000. cm-1, ATM      1
 LEVEL PRESSURE   UPWARD FLUX   DIFDOWN FLUX  DIRDOWN FLUX  DOWNWARD FLUX   NET FLUX    HEATING RATE
          mb          W/m2          W/m2          W/m2        W/m2          W/m2       degree/day
  51    .06700        0.0069        0.0000        1.8174        1.8174       1.810587       0.00000
  50    .07753        0.0068        0.0001        1.8150        1.8150       1.808250       1.87287
  49    .09103        0.0067        0.0002        1.8115        1.8116       1.804913       2.08560
  48    0.1069        0.0066        0.0002        1.8069        1.8072       1.800524       2.33660
  47    0.1255        0.0066        0.0004        1.8009        1.8013       1.794746       2.61955
  46    0.1487        0.0064        0.0005        1.7923        1.7928       1.786369       3.05332
  45    0.1794        0.0063        0.0007        1.7791        1.7798       1.773484       3.53721
  44    0.2165        0.0061        0.0009        1.7616        1.7625       1.756329       3.90263
  43    0.2613        0.0059        0.0011        1.7383        1.7395       1.733542       4.29520
  42    0.3336        0.0056        0.0015        1.6956        1.6971       1.691503       4.90131
  41    0.4307        0.0053        0.0020        1.6341        1.6361       1.630864       5.27240
  40    0.5894        0.0047        0.0026        1.5252        1.5278       1.523151       5.72807
  39     1.339        0.0029        0.0038        0.9646        0.9684       0.965456       6.27863
  38     1.782        0.0022        0.0036        0.6957        0.6993       0.697085       5.10936
  37     2.292        0.0017        0.0031        0.4747        0.4778       0.476111       3.65991
  36     2.964        0.0013        0.0025        0.3027        0.3052       0.303941       2.16125
  35     3.853        0.0009        0.0020        0.1866        0.1886       0.187698       1.10317
  34     5.035        0.0007        0.0016        0.1122        0.1138       0.113105       0.53286
  33     6.613        0.0005        0.0012        0.0667        0.0679       0.067378       0.24446
  32     8.786        0.0003        0.0009        0.0393        0.0402       0.039909       0.10668
  31     11.80        0.0002        0.0007        0.0215        0.0222       0.021941       0.05031
  30     15.07        0.0001        0.0005        0.0123        0.0127       0.012593       0.02414
  29     18.79        0.0001        0.0003        0.0069        0.0072       0.007141       0.01236
  28     23.16        0.0000        0.0002        0.0038        0.0040       0.003907       0.00625
  27     28.12        0.0000        0.0001        0.0020        0.0021       0.002085       0.00310
  26     33.73        0.0000        0.0001        0.0011        0.0011       0.001113       0.00146
  25     40.54        0.0000        0.0000        0.0005        0.0006       0.000564       0.00068
  24     48.69        0.0000        0.0000        0.0002        0.0003       0.000267       0.00031
  23     57.69        0.0000        0.0000        0.0001        0.0001       0.000125       0.00013
  22     68.43        0.0000        0.0000        0.0000        0.0001       0.000054       0.00006
  21     81.20        0.0000        0.0000        0.0000        0.0000       0.000021       0.00002
  20     96.49        0.0000        0.0000        0.0000        0.0000       0.000008       0.00001
  19     114.6        0.0000        0.0000        0.0000        0.0000       0.000002       0.00000
  18     136.5        0.0000        0.0000        0.0000        0.0000       0.000001       0.00000
  17     162.9        0.0000        0.0000        0.0000        0.0000       0.000000       0.00000
  16     196.4        0.0000        0.0000        0.0000        0.0000       0.000000       0.00000
  15     218.7        0.0000        0.0000        0.0000        0.0000       0.000000       0.00000
  14     243.0        0.0000        0.0000        0.0000        0.0000       0.000000       0.00000
  13     269.0        0.0000        0.0000        0.0000        0.0000       0.000000       0.00000
  12     297.5        0.0000        0.0000        0.0000        0.0000       0.000000       0.00000
  11     328.5        0.0000        0.0000        0.0000        0.0000       0.000000       0.00000
  10     361.9        0.0000        0.0000        0.0000        0.0000       0.000000       0.00000
   9     398.1        0.0000        0.0000        0.0000        0.0000       0.000000       0.00000
   8     437.6        0.0000        0.0000        0.0000        0.0000       0.000000       0.00000
   7     480.5        0.0000        0.0000        0.0000        0.0000       0.000000       0.00000
   6     533.0        0.0000        0.0000        0.0000        0.0000       0.000000       0.00000
   5     589.8        0.0000        0.0000        0.0000        0.0000       0.000000       0.00000
   4     651.6        0.0000        0.0000        0.0000        0.0000       0.000000       0.00000
   3     718.7        0.0000        0.0000        0.0000        0.0000       0.000000       0.00000
   2     792.3        0.0000        0.0000        0.0000        0.0000       0.000000       0.00000
   1     891.5        0.0000        0.0000        0.0000        0.0000       0.000000       0.00000
   0    1013.0        0.0000        0.0000        0.0000        0.0000       0.000000       0.00000



 Wavenumbers:   820. -  2600. cm-1, ATM      1
 LEVEL PRESSURE   UPWARD FLUX   DIFDOWN FLUX  DIRDOWN FLUX  DOWNWARD FLUX   NET FLUX    HEATING RATE
          mb          W/m2          W/m2          W/m2        W/m2          W/m2       degree/day
  51    .06700        0.3125        0.0000        8.5018        8.5018       8.189254       0.00000
  50    .07753        0.3125        0.0000        8.4967        8.4967       8.184190       4.05923
  49    .09103        0.3125        0.0000        8.4957        8.4957       8.183178       0.63202
  48    0.1069        0.3125        0.0000        8.4947        8.4947       8.182152       0.54629
  47    0.1255        0.3125        0.0000        8.4935        8.4935       8.180965       0.53808
  46    0.1487        0.3125        0.0000        8.4920        8.4920       8.179479       0.54175
  45    0.1794        0.3125        0.0000        8.4900        8.4900       8.177528       0.53550
  44    0.2165        0.3125        0.0000        8.4879        8.4879       8.175364       0.49227
  43    0.2613        0.3125        0.0000        8.4855        8.4855       8.173005       0.44465
  42    0.3336        0.3125        0.0000        8.4820        8.4820       8.169534       0.40474
  41    0.4307        0.3125        0.0000        8.4780        8.4780       8.165498       0.35090
  40    0.5894        0.3125        0.0000        8.4720        8.4720       8.159459       0.32116
  39     1.339        0.3125        0.0000        8.4442        8.4442       8.131740       0.31206
  38     1.782        0.3125        0.0000        8.4286        8.4286       8.116077       0.29819
  37     2.292        0.3125        0.0000        8.4110        8.4110       8.098514       0.29090
  36     2.964        0.3125        0.0000        8.3886        8.3886       8.076068       0.28176
  35     3.853        0.3125        0.0000        8.3598        8.3598       8.047325       0.27278
  34     5.035        0.3125        0.0000        8.3236        8.3236       8.011053       0.25911
  33     6.613        0.3125        0.0000        8.2782        8.2782       7.965667       0.24264
  32     8.786        0.3125        0.0000        8.2207        8.2207       7.908163       0.22332
  31     11.80        0.3125        0.0000        8.1452        8.1452       7.832658       0.21139
  30     15.07        0.3125        0.0000        8.0751        8.0751       7.762595       0.18089
  29     18.79        0.3125        0.0000        8.0117        8.0117       7.699133       0.14389
  28     23.16        0.3125        0.0000        7.9568        7.9568       7.644306       0.10602
  27     28.12        0.3125        0.0000        7.9127        7.9127       7.600201       0.07497
  26     33.73        0.3125        0.0000        7.8770        7.8770       7.564485       0.05370
  25     40.54        0.3125        0.0000        7.8426        7.8426       7.530058       0.04271
  24     48.69        0.3126        0.0000        7.8052        7.8052       7.492673       0.03869
  23     57.69        0.3126        0.0000        7.7657        7.7657       7.453088       0.03710
  22     68.43        0.3126        0.0000        7.7198        7.7198       7.407233       0.03605
  21     81.20        0.3126        0.0000        7.6670        7.6670       7.354387       0.03492
  20     96.49        0.3126        0.0000        7.6057        7.6057       7.293114       0.03382
  19     114.6        0.3126        0.0000        7.5336        7.5336       7.220976       0.03368
  18     136.5        0.3127        0.0000        7.4434        7.4434       7.130753       0.03469
  17     162.9        0.3127        0.0000        7.3128        7.3128       7.000028       0.04178
  16     196.4        0.3129        0.0000        7.0953        7.0954       6.782497       0.05476
  15     218.7        0.3130        0.0000        6.9394        6.9394       6.626489       0.05923
  14     243.0        0.3131        0.0000        6.7354        6.7355       6.422360       0.07080
  13     269.0        0.3133        0.0000        6.4676        6.4677       6.154341       0.08694
  12     297.5        0.3137        0.0000        6.1850        6.1850       5.871342       0.08393
  11     328.5        0.3143        0.0000        5.8512        5.8512       5.536904       0.09093
  10     361.9        0.3152        0.0000        5.4382        5.4383       5.123038       0.10471
   9     398.1        0.3165        0.0000        5.0139        5.0139       4.697391       0.09917
   8     437.6        0.3183        0.0000        4.6560        4.6561       4.337706       0.07690
   7     480.5        0.3210        0.0000        4.3946        4.3946       4.073674       0.05185
   6     533.0        0.3253        0.0000        4.1603        4.1603       3.835049       0.03839
   5     589.8        0.3314        0.0000        3.9157        3.9157       3.584304       0.03722
   4     651.6        0.3405        0.0000        3.6521        3.6521       3.311574       0.03730
   3     718.7        0.3526        0.0000        3.4038        3.4039       3.051212       0.03272
   2     792.3        0.3677        0.0000        3.1900        3.1901       2.822319       0.02625
   1     891.5        0.3935        0.0000        2.9486        2.9487       2.555210       0.02273
   0    1013.0        0.4426        0.0000        2.6579        2.6580       2.215419       0.02359

  Modules and versions used in this calculation:

       rrtmg_sw.1col.f90:  $Revision$                    rrtmg_sw_init.f90:  $Revision$        
     rrtmgsw_cldprop.f90:  $Revision$                  rrtmgsw_cldprmc.f90:  NOT USED          
     rrtmg_sw_reftra.f90:  $Revision$                  rrtmg_sw_spcvrt.f90:  NOT USED          
     rrtmg_sw_spcvmc.f90:  NOT USED                    rrtmgsw_setcoef.f90:  NOT USED          
     rrtmg_sw_taumol.f90:  $Revision$                  rrtmg_sw_vrtqdr.f90:  NOT USED          
                rrtatm.f:  NOT USED                             util_xxx.f:  NOT USED          
                 extra.f:  NOT USED                       rrtmg_sw_k_g.f90:  $Revision$        

