

 Wavenumbers:   820. - 50000. cm-1, ATM      1
 LEVEL PRESSURE   UPWARD FLUX   DIFDOWN FLUX  DIRDOWN FLUX  DOWNWARD FLUX   NET FLUX    HEATING RATE
          mb          W/m2          W/m2          W/m2        W/m2          W/m2       degree/day
  51    .06700      110.8416        0.0000      236.3090      236.3090     125.467341       0.00000
  50    .07753      110.8409        0.0011      236.2946      236.2957     125.454770      10.07589
  49    .09103      110.8400        0.0024      236.2796      236.2820     125.442000       7.98126
  48    0.1069      110.8389        0.0039      236.2614      236.2653     125.426419       8.29386
  47    0.1255      110.8377        0.0056      236.2390      236.2446     125.406936       8.83285
  46    0.1487      110.8362        0.0078      236.2083      236.2161     125.379893       9.85745
  45    0.1794      110.8342        0.0108      236.1632      236.1740     125.339825      10.99953
  44    0.2165      110.8319        0.0144      236.1058      236.1201     125.288275      11.72684
  43    0.2613      110.8292        0.0185      236.0328      236.0513     125.222079      12.47751
  42    0.3336      110.8248        0.0253      235.9046      235.9299     125.105055      13.64394
  41    0.4307      110.8193        0.0342      235.7316      235.7658     124.946486      13.78722
  40    0.5894      110.8106        0.0484      235.4532      235.5016     124.690942      13.58949
  39     1.339      110.7771        0.1113      234.3693      234.4807     123.703593      11.11575
  38     1.782      110.7617        0.1466      233.9075      234.0542     123.292453       7.82744
  37     2.292      110.7476        0.1869      233.4445      233.6313     122.883722       6.76966
  36     2.964      110.7344        0.2389      232.8985      233.1375     122.403051       6.03387
  35     3.853      110.7244        0.3068      232.2480      232.5548     121.830429       5.43429
  34     5.035      110.7185        0.3958      231.4778      231.8736     121.155088       4.82436
  33     6.613      110.7152        0.5134      230.5748      231.0882     120.372983       4.18113
  32     8.786      110.7091        0.6700      229.5217      230.1917     119.482649       3.45774
  31     11.80      110.6903        0.8913      228.2272      229.1185     118.428107       2.95238
  30     15.07      110.6584        1.1258      227.0115      228.1373     117.478851       2.45079
  29     18.79      110.6121        1.3874      225.7744      227.1618     116.549683       2.10671
  28     23.16      110.5462        1.6890      224.4633      226.1522     115.606035       1.82471
  27     28.12      110.4569        2.0293      223.0995      225.1288     114.671846       1.58806
  26     33.73      110.3360        2.4054      221.7314      224.1368     113.800729       1.30975
  25     40.54      110.1661        2.8537      220.2475      223.1012     112.935113       1.07389
  24     48.69      109.9395        3.3858      218.6218      222.0076     112.068125       0.89720
  23     57.69      109.6707        3.9606      216.9916      220.9522     111.281470       0.73737
  22     68.43      109.3305        4.6325      215.2177      219.8502     110.519763       0.59880
  21     81.20      108.8970        5.4171      213.3191      218.7362     109.839193       0.44971
  20     96.49      108.3586        6.3303      211.2654      217.5957     109.237092       0.33232
  19     114.6      107.7242        7.3843      208.9567      216.3410     108.616798       0.28963
  18     136.5      106.9835        8.5924      206.3488      214.9412     107.957705       0.25344
  17     162.9      106.1223        9.9756      203.3355      213.3111     107.188777       0.24578
  16     196.4      105.0291       11.6874      199.4949      211.1823     106.153258       0.26065
  15     218.7      104.3302       12.7638      196.9113      209.6751     105.344933       0.30689
  14     243.0      103.5899       13.8936      193.8753      207.7689     104.179034       0.40437
  13     269.0      102.8099       15.0731      190.1393      205.2124     102.402431       0.57632
  12     297.5      101.9928       16.2980      185.8913      202.1893     100.196474       0.65426
  11     328.5      101.1407       17.5675      181.1050      198.6725      97.531795       0.72452
  10     361.9      100.2583       18.8749      175.9244      194.7993      94.541022       0.75670
   9     398.1       99.3477       20.2173      170.4958      190.7131      91.365428       0.73984
   8     437.6       98.4144       21.5889      164.8042      186.3931      87.978733       0.72410
   7     480.5       97.4653       22.9842      158.7891      181.7733      84.308014       0.72092
   6     533.0       96.3688       24.6030      151.8078      176.4108      80.041965       0.68627
   5     589.8       95.2729       26.2367      144.7866      171.0233      75.750412       0.63701
   4     651.6       94.1963       27.8735      137.6508      165.5243      71.328005       0.60478
   3     718.7       93.1490       29.5060      130.6673      160.1733      67.024343       0.54085
   2     792.3       92.1424       31.1242      124.0155      155.1397      62.997293       0.46186
   1     891.5       90.9766       33.1156      115.9839      149.0995      58.122852       0.41479
   0    1013.0       89.9207       35.2447      107.1500      142.3947      52.474050       0.39223



 Wavenumbers:  2600. -  3250. cm-1, ATM      1
 LEVEL PRESSURE   UPWARD FLUX   DIFDOWN FLUX  DIRDOWN FLUX  DOWNWARD FLUX   NET FLUX    HEATING RATE
          mb          W/m2          W/m2          W/m2        W/m2          W/m2       degree/day
  51    .06700        0.1904        0.0000        2.0827        2.0827       1.892295       0.00000
  50    .07753        0.1904        0.0000        2.0827        2.0827       1.892287       0.00640
  49    .09103        0.1904        0.0000        2.0827        2.0827       1.892277       0.00626
  48    0.1069        0.1904        0.0000        2.0827        2.0827       1.892266       0.00612
  47    0.1255        0.1904        0.0000        2.0826        2.0826       1.892252       0.00598
  46    0.1487        0.1904        0.0000        2.0826        2.0826       1.892236       0.00606
  45    0.1794        0.1904        0.0000        2.0826        2.0826       1.892213       0.00622
  44    0.2165        0.1904        0.0000        2.0826        2.0826       1.892186       0.00609
  43    0.2613        0.1904        0.0000        2.0825        2.0825       1.892155       0.00596
  42    0.3336        0.1904        0.0000        2.0825        2.0825       1.892102       0.00612
  41    0.4307        0.1904        0.0000        2.0824        2.0824       1.892032       0.00613
  40    0.5894        0.1904        0.0000        2.0823        2.0823       1.891914       0.00627
  39     1.339        0.1904        0.0000        2.0816        2.0816       1.891230       0.00769
  38     1.782        0.1904        0.0000        2.0811        2.0811       1.890722       0.00967
  37     2.292        0.1904        0.0000        2.0805        2.0805       1.890072       0.01076
  36     2.964        0.1904        0.0000        2.0796        2.0796       1.889167       0.01136
  35     3.853        0.1904        0.0000        2.0783        2.0783       1.887956       0.01149
  34     5.035        0.1904        0.0000        2.0768        2.0768       1.886410       0.01104
  33     6.613        0.1904        0.0000        2.0749        2.0749       1.884549       0.00995
  32     8.786        0.1904        0.0000        2.0728        2.0728       1.882442       0.00818
  31     11.80        0.1904        0.0000        2.0704        2.0704       1.880062       0.00666
  30     15.07        0.1904        0.0000        2.0684        2.0684       1.877979       0.00538
  29     18.79        0.1904        0.0000        2.0662        2.0662       1.875826       0.00488
  28     23.16        0.1904        0.0000        2.0636        2.0636       1.873260       0.00496
  27     28.12        0.1904        0.0000        2.0604        2.0605       1.870070       0.00542
  26     33.73        0.1904        0.0000        2.0563        2.0563       1.865934       0.00622
  25     40.54        0.1904        0.0000        2.0504        2.0504       1.860024       0.00733
  24     48.69        0.1904        0.0000        2.0422        2.0422       1.851851       0.00846
  23     57.69        0.1904        0.0000        2.0323        2.0324       1.841986       0.00925
  22     68.43        0.1904        0.0000        2.0201        2.0201       1.829722       0.00964
  21     81.20        0.1904        0.0000        2.0056        2.0057       1.815290       0.00954
  20     96.49        0.1904        0.0000        1.9896        1.9896       1.799225       0.00887
  19     114.6        0.1904        0.0000        1.9722        1.9723       1.781879       0.00810
  18     136.5        0.1904        0.0000        1.9549        1.9549       1.764562       0.00666
  17     162.9        0.1904        0.0001        1.9377        1.9378       1.747396       0.00549
  16     196.4        0.1904        0.0001        1.9181        1.9181       1.727730       0.00495
  15     218.7        0.1904        0.0001        1.9042        1.9043       1.713865       0.00526
  14     243.0        0.1905        0.0001        1.8858        1.8859       1.695373       0.00641
  13     269.0        0.1906        0.0001        1.8580        1.8581       1.667478       0.00905
  12     297.5        0.1907        0.0001        1.8173        1.8174       1.626734       0.01208
  11     328.5        0.1909        0.0001        1.7598        1.7600       1.569046       0.01569
  10     361.9        0.1912        0.0001        1.6844        1.6845       1.493286       0.01917
   9     398.1        0.1916        0.0001        1.5938        1.5939       1.402317       0.02119
   8     437.6        0.1922        0.0001        1.4931        1.4932       1.301030       0.02166
   7     480.5        0.1930        0.0001        1.3832        1.3834       1.190366       0.02173
   6     533.0        0.1944        0.0001        1.2547        1.2548       1.060403       0.02091
   5     589.8        0.1963        0.0001        1.1223        1.1224       0.926056       0.01994
   4     651.6        0.1991        0.0002        0.9877        0.9879       0.788763       0.01878
   3     718.7        0.2029        0.0002        0.8645        0.8647       0.661774       0.01596
   2     792.3        0.2077        0.0002        0.7586        0.7588       0.551088       0.01269
   1     891.5        0.2158        0.0001        0.6421        0.6422       0.426456       0.01061
   0    1013.0        0.2298        0.0001        0.5210        0.5211       0.291328       0.00938



 Wavenumbers:  3250. -  4000. cm-1, ATM      1
 LEVEL PRESSURE   UPWARD FLUX   DIFDOWN FLUX  DIRDOWN FLUX  DOWNWARD FLUX   NET FLUX    HEATING RATE
          mb          W/m2          W/m2          W/m2        W/m2          W/m2       degree/day
  51    .06700        0.0004        0.0000        3.5111        3.5111       3.510725       0.00000
  50    .07753        0.0004        0.0000        3.5077        3.5077       3.507359       2.69788
  49    .09103        0.0004        0.0000        3.5061        3.5061       3.505671       1.05463
  48    0.1069        0.0004        0.0000        3.5047        3.5047       3.504270       0.74609
  47    0.1255        0.0004        0.0000        3.5034        3.5034       3.502975       0.58679
  46    0.1487        0.0004        0.0000        3.5020        3.5020       3.501653       0.48207
  45    0.1794        0.0004        0.0000        3.5006        3.5006       3.500182       0.40387
  44    0.2165        0.0004        0.0000        3.4991        3.4991       3.498685       0.34047
  43    0.2613        0.0004        0.0000        3.4974        3.4974       3.497055       0.30720
  42    0.3336        0.0004        0.0000        3.4949        3.4949       3.494508       0.29693
  41    0.4307        0.0004        0.0000        3.4918        3.4918       3.491370       0.27285
  40    0.5894        0.0004        0.0000        3.4872        3.4872       3.486830       0.24144
  39     1.339        0.0004        0.0000        3.4728        3.4728       3.472449       0.16191
  38     1.782        0.0004        0.0000        3.4668        3.4668       3.466466       0.11390
  37     2.292        0.0004        0.0000        3.4606        3.4606       3.460205       0.10370
  36     2.964        0.0004        0.0000        3.4527        3.4527       3.452339       0.09875
  35     3.853        0.0004        0.0000        3.4425        3.4425       3.442081       0.09735
  34     5.035        0.0004        0.0000        3.4289        3.4289       3.428494       0.09706
  33     6.613        0.0004        0.0000        3.4106        3.4106       3.410247       0.09755
  32     8.786        0.0004        0.0000        3.3858        3.3858       3.385462       0.09626
  31     11.80        0.0004        0.0000        3.3509        3.3509       3.350555       0.09773
  30     15.07        0.0004        0.0000        3.3156        3.3156       3.315267       0.09111
  29     18.79        0.0004        0.0000        3.2795        3.2795       3.279145       0.08190
  28     23.16        0.0003        0.0000        3.2422        3.2422       3.241888       0.07204
  27     28.12        0.0003        0.0000        3.2043        3.2044       3.204038       0.06434
  26     33.73        0.0003        0.0000        3.1651        3.1651       3.164786       0.05902
  25     40.54        0.0003        0.0001        3.1190        3.1191       3.118770       0.05709
  24     48.69        0.0003        0.0001        3.0643        3.0644       3.064065       0.05661
  23     57.69        0.0003        0.0001        3.0058        3.0059       3.005558       0.05484
  22     68.43        0.0003        0.0001        2.9398        2.9399       2.939645       0.05182
  21     81.20        0.0003        0.0001        2.8676        2.8677       2.867399       0.04774
  20     96.49        0.0003        0.0001        2.7897        2.7898       2.789515       0.04299
  19     114.6        0.0002        0.0001        2.7011        2.7012       2.700999       0.04133
  18     136.5        0.0002        0.0002        2.6046        2.6048       2.604556       0.03708
  17     162.9        0.0002        0.0002        2.4885        2.4887       2.488509       0.03709
  16     196.4        0.0002        0.0002        2.3247        2.3249       2.324750       0.04122
  15     218.7        0.0001        0.0002        2.2102        2.2104       2.210301       0.04345
  14     243.0        0.0001        0.0002        2.0491        2.0494       2.049258       0.05585
  13     269.0        0.0001        0.0002        1.7975        1.7977       1.797642       0.08162
  12     297.5        0.0001        0.0002        1.5132        1.5134       1.513360       0.08432
  11     328.5        0.0001        0.0002        1.2479        1.2481       1.248019       0.07215
  10     361.9        0.0000        0.0002        1.0169        1.0171       1.017099       0.05843
   9     398.1        0.0000        0.0002        0.8188        0.8190       0.818992       0.04615
   8     437.6        0.0000        0.0002        0.6405        0.6407       0.640644       0.03813
   7     480.5        0.0000        0.0002        0.4697        0.4699       0.469870       0.03354
   6     533.0        0.0000        0.0001        0.3003        0.3004       0.300375       0.02727
   5     589.8        0.0000        0.0001        0.1722        0.1723       0.172335       0.01901
   4     651.6        0.0000        0.0001        0.0801        0.0802       0.080213       0.01260
   3     718.7        0.0000        0.0000        0.0275        0.0276       0.027575       0.00662
   2     792.3        0.0000        0.0000        0.0067        0.0067       0.006725       0.00239
   1     891.5        0.0000        0.0000        0.0006        0.0006       0.000608       0.00052
   0    1013.0        0.0000        0.0000        0.0000        0.0000       0.000007       0.00004



 Wavenumbers:  4000. -  4650. cm-1, ATM      1
 LEVEL PRESSURE   UPWARD FLUX   DIFDOWN FLUX  DIRDOWN FLUX  DOWNWARD FLUX   NET FLUX    HEATING RATE
          mb          W/m2          W/m2          W/m2        W/m2          W/m2       degree/day
  51    .06700        0.9346        0.0000        4.1231        4.1231       3.188535       0.00000
  50    .07753        0.9346        0.0000        4.1231        4.1231       3.188534       0.00079
  49    .09103        0.9346        0.0000        4.1231        4.1231       3.188533       0.00078
  48    0.1069        0.9346        0.0000        4.1231        4.1231       3.188531       0.00076
  47    0.1255        0.9346        0.0000        4.1231        4.1231       3.188530       0.00074
  46    0.1487        0.9346        0.0000        4.1231        4.1231       3.188528       0.00075
  45    0.1794        0.9346        0.0000        4.1231        4.1231       3.188525       0.00077
  44    0.2165        0.9346        0.0000        4.1231        4.1231       3.188521       0.00076
  43    0.2613        0.9346        0.0000        4.1231        4.1231       3.188518       0.00074
  42    0.3336        0.9346        0.0000        4.1231        4.1231       3.188511       0.00076
  41    0.4307        0.9346        0.0000        4.1231        4.1231       3.188502       0.00077
  40    0.5894        0.9346        0.0000        4.1230        4.1230       3.188487       0.00079
  39     1.339        0.9346        0.0000        4.1230        4.1230       3.188399       0.00100
  38     1.782        0.9346        0.0000        4.1229        4.1229       3.188329       0.00132
  37     2.292        0.9346        0.0000        4.1228        4.1228       3.188236       0.00155
  36     2.964        0.9346        0.0000        4.1226        4.1227       3.188097       0.00175
  35     3.853        0.9346        0.0000        4.1224        4.1224       3.187891       0.00196
  34     5.035        0.9345        0.0000        4.1221        4.1221       3.187587       0.00217
  33     6.613        0.9345        0.0000        4.1217        4.1217       3.187142       0.00238
  32     8.786        0.9345        0.0000        4.1210        4.1210       3.186487       0.00254
  31     11.80        0.9345        0.0000        4.1199        4.1200       3.185465       0.00286
  30     15.07        0.9345        0.0001        4.1187        4.1188       3.184276       0.00307
  29     18.79        0.9345        0.0001        4.1173        4.1174       3.182850       0.00323
  28     23.16        0.9345        0.0001        4.1155        4.1156       3.181099       0.00339
  27     28.12        0.9345        0.0001        4.1134        4.1135       3.179003       0.00356
  26     33.73        0.9345        0.0001        4.1108        4.1109       3.176453       0.00383
  25     40.54        0.9344        0.0002        4.1073        4.1075       3.173044       0.00423
  24     48.69        0.9344        0.0002        4.1028        4.1030       3.168579       0.00462
  23     57.69        0.9344        0.0002        4.0976        4.0978       3.163378       0.00488
  22     68.43        0.9344        0.0003        4.0911        4.0913       3.156977       0.00503
  21     81.20        0.9343        0.0003        4.0833        4.0836       3.149221       0.00513
  20     96.49        0.9343        0.0004        4.0739        4.0742       3.139930       0.00513
  19     114.6        0.9343        0.0004        4.0622        4.0627       3.128387       0.00539
  18     136.5        0.9342        0.0005        4.0483        4.0488       3.114549       0.00532
  17     162.9        0.9342        0.0006        4.0311        4.0317       3.097446       0.00547
  16     196.4        0.9343        0.0007        4.0072        4.0080       3.073705       0.00598
  15     218.7        0.9343        0.0008        3.9900        3.9908       3.056520       0.00652
  14     243.0        0.9344        0.0009        3.9686        3.9695       3.035089       0.00743
  13     269.0        0.9346        0.0010        3.9391        3.9400       3.005455       0.00961
  12     297.5        0.9349        0.0011        3.8986        3.8997       2.964777       0.01206
  11     328.5        0.9354        0.0012        3.8440        3.8451       2.909739       0.01496
  10     361.9        0.9361        0.0013        3.7762        3.7775       2.841452       0.01728
   9     398.1        0.9370        0.0014        3.6993        3.7007       2.763734       0.01811
   8     437.6        0.9381        0.0015        3.6133        3.6148       2.676684       0.01861
   7     480.5        0.9397        0.0016        3.5088        3.5104       2.570721       0.02081
   6     533.0        0.9421        0.0017        3.3612        3.3630       2.420846       0.02411
   5     589.8        0.9457        0.0019        3.1895        3.1914       2.245723       0.02599
   4     651.6        0.9507        0.0020        3.0066        3.0086       2.057893       0.02569
   3     718.7        0.9575        0.0021        2.8336        2.8357       1.878240       0.02258
   2     792.3        0.9661        0.0022        2.6767        2.6790       1.712886       0.01896
   1     891.5        0.9805        0.0024        2.4895        2.4919       1.511385       0.01715
   0    1013.0        1.0054        0.0025        2.2784        2.2809       1.275484       0.01638



 Wavenumbers:  4650. -  5150. cm-1, ATM      1
 LEVEL PRESSURE   UPWARD FLUX   DIFDOWN FLUX  DIRDOWN FLUX  DOWNWARD FLUX   NET FLUX    HEATING RATE
          mb          W/m2          W/m2          W/m2        W/m2          W/m2       degree/day
  51    .06700        0.6108        0.0000        3.9027        3.9027       3.291910       0.00000
  50    .07753        0.6108        0.0000        3.9025        3.9025       3.291675       0.18840
  49    .09103        0.6108        0.0000        3.9022        3.9022       3.291384       0.18216
  48    0.1069        0.6108        0.0000        3.9019        3.9019       3.291054       0.17551
  47    0.1255        0.6108        0.0000        3.9015        3.9015       3.290682       0.16867
  46    0.1487        0.6108        0.0000        3.9010        3.9010       3.290222       0.16749
  45    0.1794        0.6108        0.0000        3.9004        3.9004       3.289612       0.16756
  44    0.2165        0.6108        0.0000        3.8997        3.8997       3.288914       0.15872
  43    0.2613        0.6108        0.0000        3.8989        3.8989       3.288121       0.14955
  42    0.3336        0.6108        0.0000        3.8977        3.8977       3.286882       0.14447
  41    0.4307        0.6108        0.0000        3.8962        3.8962       3.285363       0.13202
  40    0.5894        0.6108        0.0000        3.8940        3.8940       3.283159       0.11724
  39     1.339        0.6108        0.0000        3.8867        3.8868       3.275963       0.08101
  38     1.782        0.6108        0.0000        3.8841        3.8841       3.273295       0.05079
  37     2.292        0.6108        0.0000        3.8818        3.8818       3.271001       0.03800
  36     2.964        0.6108        0.0000        3.8795        3.8795       3.268722       0.02860
  35     3.853        0.6108        0.0000        3.8771        3.8771       3.266319       0.02280
  34     5.035        0.6108        0.0000        3.8743        3.8743       3.263514       0.02004
  33     6.613        0.6108        0.0000        3.8706        3.8707       3.259891       0.01937
  32     8.786        0.6108        0.0000        3.8656        3.8656       3.254847       0.01959
  31     11.80        0.6107        0.0001        3.8578        3.8579       3.247162       0.02152
  30     15.07        0.6107        0.0001        3.8489        3.8490       3.238278       0.02294
  29     18.79        0.6107        0.0001        3.8381        3.8382       3.227520       0.02439
  28     23.16        0.6107        0.0001        3.8247        3.8249       3.214175       0.02580
  27     28.12        0.6107        0.0002        3.8086        3.8088       3.198130       0.02728
  26     33.73        0.6106        0.0002        3.7900        3.7902       3.179592       0.02787
  25     40.54        0.6106        0.0002        3.7674        3.7677       3.157033       0.02799
  24     48.69        0.6106        0.0003        3.7407        3.7410       3.130372       0.02759
  23     57.69        0.6106        0.0003        3.7128        3.7131       3.102574       0.02606
  22     68.43        0.6105        0.0004        3.6823        3.6827       3.072122       0.02394
  21     81.20        0.6105        0.0004        3.6499        3.6503       3.039810       0.02135
  20     96.49        0.6105        0.0005        3.6161        3.6167       3.006196       0.01855
  19     114.6        0.6104        0.0006        3.5809        3.5815       2.971052       0.01641
  18     136.5        0.6104        0.0007        3.5426        3.5433       2.932891       0.01467
  17     162.9        0.6104        0.0009        3.4979        3.4988       2.888374       0.01423
  16     196.4        0.6104        0.0010        3.4381        3.4392       2.828756       0.01501
  15     218.7        0.6104        0.0011        3.3964        3.3976       2.787140       0.01580
  14     243.0        0.6105        0.0012        3.3480        3.3492       2.738699       0.01680
  13     269.0        0.6107        0.0014        3.2893        3.2907       2.680033       0.01903
  12     297.5        0.6109        0.0015        3.2182        3.2197       2.608771       0.02114
  11     328.5        0.6113        0.0016        3.1344        3.1360       2.524684       0.02286
  10     361.9        0.6118        0.0017        3.0372        3.0390       2.427107       0.02469
   9     398.1        0.6126        0.0019        2.9275        2.9294       2.316738       0.02571
   8     437.6        0.6137        0.0020        2.8061        2.8081       2.194389       0.02616
   7     480.5        0.6152        0.0021        2.6733        2.6754       2.060198       0.02635
   6     533.0        0.6176        0.0023        2.5133        2.5155       1.897900       0.02611
   5     589.8        0.6210        0.0024        2.3501        2.3524       1.731448       0.02471
   4     651.6        0.6257        0.0025        2.1834        2.1859       1.560196       0.02342
   3     718.7        0.6319        0.0026        2.0222        2.0248       1.392902       0.02102
   2     792.3        0.6398        0.0027        1.8731        1.8758       1.236010       0.01799
   1     891.5        0.6528        0.0028        1.7032        1.7060       1.053250       0.01555
   0    1013.0        0.6740        0.0029        1.5267        1.5296       0.855615       0.01372



 Wavenumbers:  5150. -  6150. cm-1, ATM      1
 LEVEL PRESSURE   UPWARD FLUX   DIFDOWN FLUX  DIRDOWN FLUX  DOWNWARD FLUX   NET FLUX    HEATING RATE
          mb          W/m2          W/m2          W/m2        W/m2          W/m2       degree/day
  51    .06700        1.7842        0.0000        9.7841        9.7841       7.999900       0.00000
  50    .07753        1.7842        0.0000        9.7841        9.7841       7.999866       0.02761
  49    .09103        1.7842        0.0000        9.7840        9.7840       7.999821       0.02810
  48    0.1069        1.7842        0.0000        9.7840        9.7840       7.999767       0.02858
  47    0.1255        1.7842        0.0000        9.7839        9.7839       7.999703       0.02902
  46    0.1487        1.7842        0.0000        9.7838        9.7838       7.999619       0.03057
  45    0.1794        1.7842        0.0000        9.7837        9.7837       7.999500       0.03264
  44    0.2165        1.7842        0.0000        9.7835        9.7836       7.999354       0.03325
  43    0.2613        1.7842        0.0000        9.7834        9.7834       7.999176       0.03367
  42    0.3336        1.7842        0.0000        9.7831        9.7831       7.998871       0.03552
  41    0.4307        1.7842        0.0000        9.7826        9.7826       7.998454       0.03627
  40    0.5894        1.7842        0.0000        9.7819        9.7819       7.997758       0.03702
  39     1.339        1.7842        0.0000        9.7785        9.7786       7.994401       0.03779
  38     1.782        1.7842        0.0000        9.7766        9.7766       7.992453       0.03709
  37     2.292        1.7842        0.0001        9.7743        9.7744       7.990240       0.03666
  36     2.964        1.7841        0.0001        9.7715        9.7715       7.987402       0.03563
  35     3.853        1.7841        0.0001        9.7678        9.7679       7.983770       0.03447
  34     5.035        1.7841        0.0001        9.7631        9.7632       7.979145       0.03303
  33     6.613        1.7841        0.0002        9.7572        9.7574       7.973297       0.03127
  32     8.786        1.7840        0.0002        9.7498        9.7500       7.966016       0.02827
  31     11.80        1.7840        0.0003        9.7403        9.7406       7.956656       0.02621
  30     15.07        1.7839        0.0004        9.7313        9.7317       7.947791       0.02289
  29     18.79        1.7838        0.0005        9.7224        9.7229       7.939048       0.01982
  28     23.16        1.7837        0.0006        9.7133        9.7139       7.930217       0.01708
  27     28.12        1.7836        0.0007        9.7045        9.7052       7.921553       0.01473
  26     33.73        1.7835        0.0009        9.6959        9.6968       7.913236       0.01250
  25     40.54        1.7834        0.0010        9.6870        9.6881       7.904638       0.01067
  24     48.69        1.7833        0.0013        9.6777        9.6790       7.895691       0.00926
  23     57.69        1.7831        0.0015        9.6687        9.6702       7.887079       0.00807
  22     68.43        1.7829        0.0018        9.6591        9.6609       7.877918       0.00720
  21     81.20        1.7827        0.0021        9.6483        9.6504       7.867649       0.00679
  20     96.49        1.7825        0.0025        9.6356        9.6381       7.855544       0.00668
  19     114.6        1.7822        0.0029        9.6198        9.6227       7.840486       0.00703
  18     136.5        1.7819        0.0035        9.5972        9.6007       7.818809       0.00834
  17     162.9        1.7815        0.0041        9.5537        9.5579       7.776361       0.01357
  16     196.4        1.7811        0.0050        9.4430        9.4479       7.666889       0.02756
  15     218.7        1.7808        0.0055        9.3121        9.3176       7.536866       0.04937
  14     243.0        1.7805        0.0060        9.0963        9.1023       7.321812       0.07459
  13     269.0        1.7802        0.0065        8.7699        8.7765       6.996252       0.10561
  12     297.5        1.7800        0.0070        8.3579        8.3649       6.584903       0.12200
  11     328.5        1.7799        0.0074        7.8557        7.8631       6.083246       0.13640
  10     361.9        1.7799        0.0078        7.3303        7.3381       5.558208       0.13284
   9     398.1        1.7801        0.0081        6.8243        6.8324       5.052373       0.11785
   8     437.6        1.7805        0.0084        6.3647        6.3730       4.592557       0.09831
   7     480.5        1.7813        0.0086        5.9650        5.9736       4.192307       0.07861
   6     533.0        1.7828        0.0090        5.6156        5.6246       3.841739       0.05640
   5     589.8        1.7853        0.0094        5.3463        5.3556       3.570320       0.04029
   4     651.6        1.7892        0.0099        5.0931        5.1030       3.313749       0.03509
   3     718.7        1.7948        0.0105        4.8408        4.8513       3.056460       0.03233
   2     792.3        1.8022        0.0111        4.6138        4.6249       2.822742       0.02680
   1     891.5        1.8149        0.0120        4.3793        4.3913       2.576355       0.02097
   0    1013.0        1.8382        0.0129        4.1608        4.1737       2.335573       0.01672



 Wavenumbers:  6150. -  7700. cm-1, ATM      1
 LEVEL PRESSURE   UPWARD FLUX   DIFDOWN FLUX  DIRDOWN FLUX  DOWNWARD FLUX   NET FLUX    HEATING RATE
          mb          W/m2          W/m2          W/m2        W/m2          W/m2       degree/day
  51    .06700        2.5527        0.0000       18.0961       18.0961      15.543394       0.00000
  50    .07753        2.5527        0.0000       18.0960       18.0960      15.543343       0.04143
  49    .09103        2.5527        0.0000       18.0959       18.0960      15.543276       0.04173
  48    0.1069        2.5527        0.0000       18.0959       18.0959      15.543197       0.04200
  47    0.1255        2.5527        0.0000       18.0958       18.0958      15.543104       0.04225
  46    0.1487        2.5527        0.0000       18.0956       18.0957      15.542983       0.04408
  45    0.1794        2.5527        0.0000       18.0955       18.0955      15.542813       0.04665
  44    0.2165        2.5527        0.0000       18.0953       18.0953      15.542606       0.04709
  43    0.2613        2.5527        0.0000       18.0950       18.0950      15.542355       0.04736
  42    0.3336        2.5527        0.0000       18.0945       18.0946      15.541929       0.04963
  41    0.4307        2.5526        0.0000       18.0940       18.0940      15.541350       0.05036
  40    0.5894        2.5526        0.0001       18.0930       18.0930      15.540387       0.05122
  39     1.339        2.5525        0.0001       18.0882       18.0883      15.535748       0.05222
  38     1.782        2.5525        0.0002       18.0854       18.0855      15.533042       0.05151
  37     2.292        2.5525        0.0002       18.0822       18.0824      15.529951       0.05119
  36     2.964        2.5524        0.0003       18.0780       18.0783      15.525959       0.05012
  35     3.853        2.5523        0.0004       18.0727       18.0731      15.520796       0.04899
  34     5.035        2.5522        0.0005       18.0658       18.0663      15.514127       0.04764
  33     6.613        2.5520        0.0007       18.0568       18.0576      15.505543       0.04589
  32     8.786        2.5518        0.0009       18.0454       18.0464      15.494555       0.04268
  31     11.80        2.5515        0.0013       18.0301       18.0314      15.479888       0.04106
  30     15.07        2.5512        0.0016       18.0149       18.0165      15.465351       0.03753
  29     18.79        2.5508        0.0020       17.9991       18.0011      15.450316       0.03409
  28     23.16        2.5504        0.0025       17.9822       17.9847      15.434344       0.03088
  27     28.12        2.5499        0.0030       17.9647       17.9677      15.417839       0.02806
  26     33.73        2.5493        0.0036       17.9469       17.9506      15.401249       0.02494
  25     40.54        2.5486        0.0044       17.9277       17.9321      15.383466       0.02206
  24     48.69        2.5478        0.0052       17.9071       17.9123      15.364523       0.01960
  23     57.69        2.5469        0.0062       17.8869       17.8931      15.346209       0.01717
  22     68.43        2.5459        0.0074       17.8655       17.8728      15.326986       0.01511
  21     81.20        2.5446        0.0087       17.8420       17.8507      15.306105       0.01380
  20     96.49        2.5431        0.0104       17.8153       17.8256      15.282542       0.01301
  19     114.6        2.5413        0.0123       17.7836       17.7959      15.254622       0.01304
  18     136.5        2.5392        0.0146       17.7414       17.7560      15.216863       0.01452
  17     162.9        2.5366        0.0173       17.6693       17.6866      15.149968       0.02138
  16     196.4        2.5334        0.0208       17.5109       17.5317      14.998347       0.03816
  15     218.7        2.5313        0.0230       17.3315       17.3545      14.823260       0.06647
  14     243.0        2.5290        0.0253       17.0109       17.0362      14.507159       0.10963
  13     269.0        2.5267        0.0275       16.4536       16.4812      13.954416       0.17931
  12     297.5        2.5245        0.0296       15.7655       15.7951      13.270643       0.20280
  11     328.5        2.5222        0.0315       14.9176       14.9491      12.426894       0.22941
  10     361.9        2.5202        0.0332       13.9572       13.9904      11.470142       0.24207
   9     398.1        2.5186        0.0347       12.9820       13.0166      10.498047       0.22648
   8     437.6        2.5174        0.0358       12.0124       12.0483       9.530843       0.20679
   7     480.5        2.5172        0.0367       11.0555       11.0922       8.574969       0.18773
   6     533.0        2.5187        0.0376       10.0633       10.1010       7.582299       0.15969
   5     589.8        2.5226        0.0385        9.1864        9.2249       6.702241       0.13063
   4     651.6        2.5304        0.0393        8.4022        8.4415       5.911098       0.10819
   3     718.7        2.5429        0.0403        7.7347        7.7750       5.232132       0.08533
   2     792.3        2.5605        0.0416        7.1780        7.2195       4.659082       0.06572
   1     891.5        2.5928        0.0433        6.5878        6.6311       4.038213       0.05283
   0    1013.0        2.6551        0.0451        5.9949        6.0401       3.385007       0.04536



 Wavenumbers:  7700. -  8050. cm-1, ATM      1
 LEVEL PRESSURE   UPWARD FLUX   DIFDOWN FLUX  DIRDOWN FLUX  DOWNWARD FLUX   NET FLUX    HEATING RATE
          mb          W/m2          W/m2          W/m2        W/m2          W/m2       degree/day
  51    .06700        1.2894        0.0000        4.2766        4.2766       2.987207       0.00000
  50    .07753        1.2894        0.0000        4.2766        4.2766       2.987188       0.01485
  49    .09103        1.2894        0.0000        4.2766        4.2766       2.987165       0.01455
  48    0.1069        1.2894        0.0000        4.2766        4.2766       2.987138       0.01425
  47    0.1255        1.2894        0.0000        4.2765        4.2765       2.987107       0.01394
  46    0.1487        1.2894        0.0000        4.2765        4.2765       2.987069       0.01415
  45    0.1794        1.2894        0.0000        4.2764        4.2765       2.987015       0.01456
  44    0.2165        1.2894        0.0000        4.2764        4.2764       2.986953       0.01428
  43    0.2613        1.2894        0.0000        4.2763        4.2763       2.986878       0.01401
  42    0.3336        1.2894        0.0000        4.2762        4.2762       2.986755       0.01433
  41    0.4307        1.2894        0.0000        4.2760        4.2760       2.986592       0.01418
  40    0.5894        1.2895        0.0000        4.2758        4.2758       2.986326       0.01416
  39     1.339        1.2895        0.0001        4.2745        4.2745       2.985068       0.01417
  38     1.782        1.2895        0.0001        4.2737        4.2738       2.984329       0.01406
  37     2.292        1.2895        0.0001        4.2729        4.2730       2.983475       0.01415
  36     2.964        1.2895        0.0001        4.2718        4.2719       2.982354       0.01407
  35     3.853        1.2896        0.0002        4.2703        4.2704       2.980876       0.01403
  34     5.035        1.2896        0.0002        4.2683        4.2685       2.978915       0.01401
  33     6.613        1.2897        0.0003        4.2657        4.2660       2.976302       0.01397
  32     8.786        1.2897        0.0004        4.2622        4.2625       2.972792       0.01363
  31     11.80        1.2899        0.0005        4.2571        4.2576       2.967795       0.01399
  30     15.07        1.2900        0.0007        4.2518        4.2524       2.962460       0.01377
  29     18.79        1.2901        0.0008        4.2458        4.2466       2.956472       0.01358
  28     23.16        1.2903        0.0010        4.2388        4.2398       2.949530       0.01342
  27     28.12        1.2904        0.0012        4.2309        4.2321       2.941659       0.01338
  26     33.73        1.2906        0.0015        4.2221        4.2236       2.932937       0.01311
  25     40.54        1.2909        0.0018        4.2117        4.2134       2.922520       0.01292
  24     48.69        1.2912        0.0021        4.1992        4.2013       2.910131       0.01282
  23     57.69        1.2915        0.0025        4.1858        4.1883       2.896733       0.01256
  22     68.43        1.2919        0.0029        4.1700        4.1730       2.881055       0.01233
  21     81.20        1.2924        0.0035        4.1517        4.1552       2.862759       0.01209
  20     96.49        1.2930        0.0041        4.1304        4.1345       2.841474       0.01175
  19     114.6        1.2937        0.0049        4.1057        4.1106       2.816864       0.01149
  18     136.5        1.2946        0.0058        4.0774        4.0832       2.788625       0.01086
  17     162.9        1.2957        0.0068        4.0449        4.0518       2.756121       0.01039
  16     196.4        1.2971        0.0082        4.0045        4.0127       2.715651       0.01019
  15     218.7        1.2980        0.0091        3.9789        3.9880       2.689981       0.00975
  14     243.0        1.2991        0.0101        3.9518        3.9619       2.662791       0.00943
  13     269.0        1.3003        0.0111        3.9231        3.9342       2.633967       0.00935
  12     297.5        1.3016        0.0122        3.8928        3.9050       2.603398       0.00907
  11     328.5        1.3031        0.0134        3.8605        3.8739       2.570822       0.00886
  10     361.9        1.3049        0.0147        3.8262        3.8409       2.536015       0.00881
   9     398.1        1.3069        0.0160        3.7894        3.8054       2.498569       0.00872
   8     437.6        1.3092        0.0175        3.7498        3.7673       2.458074       0.00866
   7     480.5        1.3120        0.0191        3.7065        3.7256       2.413593       0.00874
   6     533.0        1.3158        0.0209        3.6519        3.6728       2.357056       0.00910
   5     589.8        1.3204        0.0229        3.5908        3.6138       2.293329       0.00946
   4     651.6        1.3262        0.0251        3.5221        3.5472       2.220971       0.00990
   3     718.7        1.3332        0.0273        3.4454        3.4727       2.139452       0.01024
   2     792.3        1.3415        0.0296        3.3610        3.3906       2.049081       0.01036
   1     891.5        1.3542        0.0326        3.2433        3.2759       1.921661       0.01084
   0    1013.0        1.3724        0.0361        3.0916        3.1277       1.755267       0.01155



 Wavenumbers:  8050. - 12850. cm-1, ATM      1
 LEVEL PRESSURE   UPWARD FLUX   DIFDOWN FLUX  DIRDOWN FLUX  DOWNWARD FLUX   NET FLUX    HEATING RATE
          mb          W/m2          W/m2          W/m2        W/m2          W/m2       degree/day
  51    .06700       17.4618        0.0000       59.8761       59.8761      42.414322       0.00000
  50    .07753       17.4618        0.0000       59.8761       59.8761      42.414322      -0.00000
  49    .09103       17.4618        0.0001       59.8760       59.8761      42.414322       0.00000
  48    0.1069       17.4617        0.0001       59.8760       59.8760      42.414322      -0.00000
  47    0.1255       17.4617        0.0001       59.8759       59.8760      42.414322      -0.00000
  46    0.1487       17.4616        0.0002       59.8758       59.8760      42.414322       0.00000
  45    0.1794       17.4616        0.0002       59.8757       59.8759      42.414322       0.00000
  44    0.2165       17.4615        0.0003       59.8755       59.8758      42.414322       0.00000
  43    0.2613       17.4614        0.0004       59.8754       59.8758      42.414322      -0.00000
  42    0.3336       17.4613        0.0006       59.8751       59.8756      42.414322       0.00000
  41    0.4307       17.4611        0.0008       59.8747       59.8755      42.414322       0.00000
  40    0.5894       17.4609        0.0011       59.8741       59.8752      42.414322       0.00000
  39     1.339       17.4595        0.0027       59.8711       59.8738      42.414322       0.00000
  38     1.782       17.4587        0.0037       59.8694       59.8730      42.414322      -0.00000
  37     2.292       17.4578        0.0047       59.8673       59.8721      42.414322       0.00000
  36     2.964       17.4566        0.0062       59.8647       59.8709      42.414322      -0.00000
  35     3.853       17.4550        0.0081       59.8612       59.8693      42.414322       0.00000
  34     5.035       17.4528        0.0106       59.8566       59.8672      42.414322       0.00000
  33     6.613       17.4500        0.0139       59.8504       59.8643      42.414322      -0.00000
  32     8.786       17.4461        0.0185       59.8420       59.8605      42.414322      -0.00000
  31     11.80       17.4407        0.0249       59.8300       59.8550      42.414322       0.00000
  30     15.07       17.4347        0.0319       59.8172       59.8491      42.414322      -0.00000
  29     18.79       17.4281        0.0398       59.8026       59.8424      42.414322       0.00000
  28     23.16       17.4203        0.0490       59.7856       59.8346      42.414322       0.00000
  27     28.12       17.4113        0.0595       59.7661       59.8256      42.414322       0.00000
  26     33.73       17.4013        0.0713       59.7443       59.8156      42.414322      -0.00000
  25     40.54       17.3892        0.0856       59.7179       59.8035      42.414322       0.00000
  24     48.69       17.3746        0.1028       59.6861       59.7889      42.414322       0.00000
  23     57.69       17.3585        0.1218       59.6511       59.7728      42.414322      -0.00000
  22     68.43       17.3393        0.1443       59.6093       59.7536      42.414322       0.00000
  21     81.20       17.3164        0.1713       59.5595       59.7308      42.414322      -0.00000
  20     96.49       17.2891        0.2034       59.5000       59.7035      42.414322       0.00000
  19     114.6       17.2567        0.2416       59.4218       59.6634      42.406691       0.00356
  18     136.5       17.2182        0.2869       59.3271       59.6140      42.395786       0.00419
  17     162.9       17.1724        0.3409       59.2054       59.5463      42.373902       0.00699
  16     196.4       17.1128        0.4109       59.0190       59.4299      42.317087       0.01430
  15     218.7       17.0737        0.4569       58.8649       59.3218      42.248062       0.02621
  14     243.0       17.0313        0.5067       58.6453       59.1520      42.120742       0.04416
  13     269.0       16.9855        0.5604       58.3063       58.8667      41.881160       0.07772
  12     297.5       16.9367        0.6178       57.8509       58.4687      41.532008       0.10355
  11     328.5       16.8848        0.6790       57.2242       57.9032      41.018411       0.13965
  10     361.9       16.8305        0.7438       56.4018       57.1456      40.315104       0.17794
   9     398.1       16.7741        0.8118       55.3846       56.1964      39.422284       0.20801
   8     437.6       16.7169        0.8826       54.1448       55.0274      38.310439       0.23772
   7     480.5       16.6610        0.9551       52.6391       53.5942      36.933131       0.27050
   6     533.0       16.6012        1.0400       50.7275       51.7674      35.166257       0.28423
   5     589.8       16.5494        1.1267       48.6605       49.7872      33.237715       0.28626
   4     651.6       16.5120        1.2146       46.4311       47.6457      31.133699       0.28773
   3     718.7       16.4922        1.3043       44.2200       45.5243      29.032084       0.26411
   2     792.3       16.4927        1.3963       42.1469       43.5432      27.050495       0.22727
   1     891.5       16.5363        1.5139       39.6691       41.1829      24.646603       0.20456
   0    1013.0       16.6918        1.6426       36.9176       38.5602      21.868376       0.19291



 Wavenumbers: 12850. - 16000. cm-1, ATM      1
 LEVEL PRESSURE   UPWARD FLUX   DIFDOWN FLUX  DIRDOWN FLUX  DOWNWARD FLUX   NET FLUX    HEATING RATE
          mb          W/m2          W/m2          W/m2        W/m2          W/m2       degree/day
  51    .06700       20.0665        0.0000       37.5177       37.5177      17.451147       0.00000
  50    .07753       20.0665        0.0001       37.5168       37.5169      17.450375       0.61882
  49    .09103       20.0665        0.0001       37.5158       37.5159      17.449424       0.59434
  48    0.1069       20.0664        0.0002       37.5146       37.5148      17.448356       0.56850
  47    0.1255       20.0664        0.0003       37.5132       37.5135      17.447160       0.54238
  46    0.1487       20.0663        0.0004       37.5116       37.5120      17.445694       0.53438
  45    0.1794       20.0662        0.0005       37.5094       37.5100      17.443768       0.52870
  44    0.2165       20.0661        0.0007       37.5070       37.5077      17.441597       0.49390
  43    0.2613       20.0660        0.0009       37.5042       37.5051      17.439163       0.45866
  42    0.3336       20.0658        0.0013       37.5000       37.5012      17.435425       0.43588
  41    0.4307       20.0656        0.0017       37.4948       37.4965      17.430947       0.38929
  40    0.5894       20.0653        0.0025       37.4873       37.4898      17.424471       0.34439
  39     1.339       20.0645        0.0060       37.4561       37.4621      17.397614       0.30237
  38     1.782       20.0646        0.0081       37.4370       37.4451      17.380498       0.32586
  37     2.292       20.0651        0.0105       37.4123       37.4228      17.357659       0.37827
  36     2.964       20.0666        0.0137       37.3754       37.3891      17.322432       0.44221
  35     3.853       20.0696        0.0179       37.3201       37.3379      17.268317       0.51356
  34     5.035       20.0746        0.0234       37.2404       37.2638      17.189201       0.56517
  33     6.613       20.0818        0.0308       37.1317       37.1624      17.080612       0.58052
  32     8.786       20.0910        0.0407       36.9907       37.0313      16.940367       0.54466
  31     11.80       20.1021        0.0548       36.8057       36.8605      16.758347       0.50960
  30     15.07       20.1117        0.0698       36.6261       36.6959      16.584167       0.44970
  29     18.79       20.1205        0.0868       36.4406       36.5273      16.406803       0.40214
  28     23.16       20.1284        0.1064       36.2436       36.3501      16.221659       0.35801
  27     28.12       20.1347        0.1288       36.0409       36.1697      16.035065       0.31720
  26     33.73       20.1376        0.1538       35.8440       35.9978      15.860189       0.26293
  25     40.54       20.1366        0.1839       35.6400       35.8239      15.687297       0.21449
  24     48.69       20.1309        0.2199       35.4269       35.6468      15.515929       0.17734
  23     57.69       20.1203        0.2594       35.2234       35.4828      15.362489       0.14383
  22     68.43       20.1030        0.3062       35.0126       35.3188      15.215840       0.11529
  21     81.20       20.0760        0.3618       34.8024       35.1642      15.088185       0.08435
  20     96.49       20.0380        0.4279       34.5883       35.0162      14.978178       0.06072
  19     114.6       19.9941        0.5066       34.3469       34.8535      14.859393       0.05546
  18     136.5       19.9394        0.5993       34.0732       34.6725      14.733163       0.04854
  17     162.9       19.8719        0.7091       33.7589       34.4680      14.596141       0.04380
  16     196.4       19.7792        0.8505       33.3782       34.2287      14.449470       0.03692
  15     218.7       19.7166        0.9429       33.1386       34.0815      14.364837       0.03213
  14     243.0       19.6479        1.0427       32.8831       33.9258      14.277874       0.03016
  13     269.0       19.5729        1.1503       32.6098       33.7601      14.187137       0.02943
  12     297.5       19.4916        1.2660       32.3158       33.5818      14.090211       0.02875
  11     328.5       19.4040        1.3902       31.9947       33.3849      13.980887       0.02972
  10     361.9       19.3105        1.5231       31.6417       33.1648      13.854329       0.03202
   9     398.1       19.2111        1.6649       31.2522       32.9171      13.705989       0.03456
   8     437.6       19.1065        1.8158       30.8176       32.6334      13.526908       0.03829
   7     480.5       18.9980        1.9757       30.3258       32.3016      13.303555       0.04387
   6     533.0       18.8704        2.1697       29.6909       31.8607      12.990253       0.05040
   5     589.8       18.7407        2.3744       28.9912       31.3656      12.624924       0.05423
   4     651.6       18.6116        2.5888       28.2287       30.8175      12.205888       0.05730
   3     718.7       18.4845        2.8128       27.4198       30.2326      11.748075       0.05753
   2     792.3       18.3614        3.0458       26.5759       29.6217      11.260280       0.05594
   1     891.5       18.2201        3.3486       25.4522       28.8008      10.580693       0.05783
   0    1013.0       18.0972        3.6933       24.1013       27.7946       9.697340       0.06134



 Wavenumbers: 16000. - 22650. cm-1, ATM      1
 LEVEL PRESSURE   UPWARD FLUX   DIFDOWN FLUX  DIRDOWN FLUX  DOWNWARD FLUX   NET FLUX    HEATING RATE
          mb          W/m2          W/m2          W/m2        W/m2          W/m2       degree/day
  51    .06700       43.5098        0.0000       59.8178       59.8178      16.307963       0.00000
  50    .07753       43.5096        0.0003       59.8172       59.8175      16.307861       0.08191
  49    .09103       43.5094        0.0007       59.8165       59.8171      16.307713       0.09290
  48    0.1069       43.5092        0.0011       59.8156       59.8167      16.307514       0.10594
  47    0.1255       43.5089        0.0016       59.8146       59.8162      16.307247       0.12075
  46    0.1487       43.5086        0.0022       59.8133       59.8154      16.306855       0.14309
  45    0.1794       43.5081        0.0030       59.8114       59.8144      16.306241       0.16847
  44    0.2165       43.5076        0.0040       59.8090       59.8130      16.305409       0.18934
  43    0.2613       43.5070        0.0052       59.8062       59.8113      16.304279       0.21286
  42    0.3336       43.5062        0.0071       59.8012       59.8083      16.302133       0.25030
  41    0.4307       43.5050        0.0097       59.7943       59.8039      16.298897       0.28135
  40    0.5894       43.5034        0.0139       59.7822       59.7961      16.292726       0.32814
  39     1.339       43.4986        0.0337       59.7120       59.7457      16.247162       0.51297
  38     1.782       43.4980        0.0453       59.6610       59.7064      16.208378       0.73837
  37     2.292       43.4994        0.0588       59.5929       59.6517      16.152287       0.92902
  36     2.964       43.5046        0.0765       59.4896       59.5661      16.061532       1.13924
  35     3.853       43.5159        0.0997       59.3340       59.4337      15.917808       1.36397
  34     5.035       43.5355        0.1306       59.1089       59.2395      15.704009       1.52729
  33     6.613       43.5640        0.1716       58.8005       58.9721      15.408119       1.58183
  32     8.786       43.6002        0.2266       58.3988       58.6255      15.025225       1.48702
  31     11.80       43.6435        0.3049       57.8679       58.1728      14.529264       1.38854
  30     15.07       43.6800        0.3883       57.3477       57.7361      14.056037       1.22178
  29     18.79       43.7125        0.4820       56.8055       57.2874      13.574984       1.09069
  28     23.16       43.7401        0.5905       56.2235       56.8140      13.073867       0.96900
  27     28.12       43.7600        0.7137       55.6165       56.3302      12.570240       0.85613
  26     33.73       43.7651        0.8505       55.0160       55.8665      12.101465       0.70482
  25     40.54       43.7515        1.0146       54.3792       55.3938      11.642359       0.56957
  24     48.69       43.7163        1.2107       53.6977       54.9084      11.192138       0.46591
  23     57.69       43.6596        1.4241       53.0311       54.4552      10.795621       0.37167
  22     68.43       43.5730        1.6759       52.3239       53.9999      10.426867       0.28989
  21     81.20       43.4436        1.9731       51.5951       53.5682      10.124666       0.19969
  20     96.49       43.2657        2.3235       50.8320       53.1554       9.889689       0.12969
  19     114.6       43.0450        2.7337       49.9869       52.7206       9.675597       0.09997
  18     136.5       42.7789        3.2121       49.0339       52.2460       9.467136       0.08016
  17     162.9       42.4600        3.7709       47.9498       51.7207       9.260716       0.06598
  16     196.4       42.0385        4.4791       46.6369       51.1160       9.077521       0.04611
  15     218.7       41.7609        4.9345       45.8147       50.7493       8.988330       0.03386
  14     243.0       41.4612        5.4210       44.9465       50.3674       8.906254       0.02847
  13     269.0       41.1389        5.9383       44.0331       49.9713       8.832385       0.02396
  12     297.5       40.7942        6.4861       43.0749       49.5609       8.766735       0.01947
  11     328.5       40.4276        7.0653       42.0651       49.1304       8.702738       0.01740
  10     361.9       40.0399        7.6744       41.0055       48.6799       8.640015       0.01587
   9     398.1       39.6309        8.3136       39.8950       48.2086       8.577697       0.01452
   8     437.6       39.2015        8.9817       38.7333       47.7150       8.513412       0.01374
   7     480.5       38.7527        9.6772       37.5205       47.1977       8.445047       0.01343
   6     533.0       38.2161       10.5052       36.0707       46.5759       8.359754       0.01372
   5     589.8       37.6578       11.3638       34.5582       45.9220       8.264124       0.01419
   4     651.6       37.0808       12.2486       32.9873       45.2358       8.155079       0.01491
   3     718.7       36.4878       13.1541       31.3691       44.5233       8.035433       0.01504
   2     792.3       35.8823       14.0754       29.7129       43.7883       7.905970       0.01485
   1     891.5       35.1138       15.2411       27.5964       42.8375       7.723721       0.01551
   0    1013.0       34.2616       16.5306       25.2215       41.7521       7.490447       0.01620



 Wavenumbers: 22650. - 29000. cm-1, ATM      1
 LEVEL PRESSURE   UPWARD FLUX   DIFDOWN FLUX  DIRDOWN FLUX  DOWNWARD FLUX   NET FLUX    HEATING RATE
          mb          W/m2          W/m2          W/m2        W/m2          W/m2       degree/day
  51    .06700       19.6401        0.0000       22.5731       22.5731       2.932933       0.00000
  50    .07753       19.6399        0.0003       22.5725       22.5728       2.932933       0.00000
  49    .09103       19.6396        0.0008       22.5718       22.5726       2.932933       0.00000
  48    0.1069       19.6393        0.0013       22.5710       22.5723       2.932933       0.00000
  47    0.1255       19.6390        0.0018       22.5701       22.5719       2.932933       0.00000
  46    0.1487       19.6385        0.0025       22.5689       22.5715       2.932933       0.00000
  45    0.1794       19.6379        0.0035       22.5674       22.5709       2.932933      -0.00000
  44    0.2165       19.6372        0.0046       22.5655       22.5701       2.932933       0.00000
  43    0.2613       19.6363        0.0060       22.5633       22.5693       2.932933       0.00000
  42    0.3336       19.6349        0.0082       22.5596       22.5679       2.932933      -0.00000
  41    0.4307       19.6330        0.0112       22.5548       22.5660       2.932933       0.00000
  40    0.5894       19.6300        0.0161       22.5468       22.5629       2.932933       0.00000
  39     1.339       19.6155        0.0391       22.5093       22.5484       2.932933      -0.00000
  38     1.782       19.6070        0.0526       22.4873       22.5399       2.932933       0.00000
  37     2.292       19.5971        0.0682       22.4618       22.5300       2.932933       0.00000
  36     2.964       19.5842        0.0887       22.4284       22.5171       2.932933       0.00000
  35     3.853       19.5672        0.1157       22.3844       22.5001       2.932933      -0.00000
  34     5.035       19.5446        0.1516       22.3259       22.4775       2.932933       0.00000
  33     6.613       19.5145        0.1993       22.2481       22.4474       2.932933       0.00000
  32     8.786       19.4741        0.2634       22.1436       22.4070       2.932933      -0.00000
  31     11.80       19.4165        0.3545       21.9949       22.3494       2.932933      -0.00000
  30     15.07       19.3551        0.4517       21.8363       22.2880       2.932933       0.00000
  29     18.79       19.2862        0.5607       21.6584       22.2192       2.932933       0.00000
  28     23.16       19.2064        0.6870       21.4524       22.1393       2.932933      -0.00000
  27     28.12       19.1159        0.8299       21.2190       22.0489       2.932933       0.00000
  26     33.73       19.0158        0.9879       20.9608       21.9487       2.932933       0.00000
  25     40.54       18.8963        1.1763       20.6529       21.8292       2.932933       0.00000
  24     48.69       18.7544        1.3997       20.2877       21.6874       2.932933       0.00000
  23     57.69       18.6013        1.6404       19.8939       21.5343       2.932933      -0.00000
  22     68.43       18.4226        1.9207       19.4349       21.3556       2.932933       0.00000
  21     81.20       18.2149        2.2459       18.9020       21.1478       2.932933      -0.00000
  20     96.49       17.9745        2.6211       18.2863       20.9074       2.932933       0.00000
  19     114.6       17.6989        3.0498       17.5820       20.6318       2.932933       0.00000
  18     136.5       17.3852        3.5356       16.7826       20.3181       2.932933       0.00000
  17     162.9       17.0295        4.0835       15.8790       19.9625       2.932933      -0.00000
  16     196.4       16.5953        4.7476       14.7806       19.5283       2.932933       0.00000
  15     218.7       16.3260        5.1566       14.1024       19.2590       2.932933       0.00000
  14     243.0       16.0468        5.5780       13.4017       18.9797       2.932933       0.00000
  13     269.0       15.7587        6.0096       12.6821       18.6917       2.932933      -0.00000
  12     297.5       15.4639        6.4478       11.9490       18.3968       2.932933       0.00000
  11     328.5       15.1628        6.8911       11.2046       18.0958       2.932933      -0.00000
  10     361.9       14.8579        7.3353       10.4555       17.7908       2.932933      -0.00000
   9     398.1       14.5505        7.7776        9.7058       17.4834       2.932933       0.00000
   8     437.6       14.2424        8.2144        8.9609       17.1753       2.932933       0.00000
   7     480.5       13.9353        8.6427        8.2255       16.8682       2.932933      -0.00000
   6     533.0       13.5874        9.1174        7.4030       16.5204       2.932933       0.00000
   5     589.8       13.2454        9.5718        6.6065       16.1783       2.932933       0.00000
   4     651.6       12.9124        9.9997        5.8456       15.8454       2.932933      -0.00000
   3     718.7       12.5898       10.3981        5.1246       15.5228       2.932933       0.00000
   2     792.3       12.2804       10.7618        4.4516       15.2134       2.932933       0.00000
   1     891.5       11.9128       11.1647        3.6810       14.8457       2.932933      -0.00000
   0    1013.0       11.5337       11.5380        2.9286       14.4666       2.932933       0.00000



 Wavenumbers: 29000. - 38000. cm-1, ATM      1
 LEVEL PRESSURE   UPWARD FLUX   DIFDOWN FLUX  DIRDOWN FLUX  DOWNWARD FLUX   NET FLUX    HEATING RATE
          mb          W/m2          W/m2          W/m2        W/m2          W/m2       degree/day
  51    .06700        2.6697        0.0000        7.9602        7.9602       5.290533       0.00000
  50    .07753        2.6694        0.0003        7.9559        7.9562       5.286742       3.03847
  49    .09103        2.6691        0.0006        7.9497        7.9504       5.281243       3.43720
  48    0.1069        2.6688        0.0010        7.9417        7.9427       5.273910       3.90356
  47    0.1255        2.6684        0.0015        7.9311        7.9326       5.264153       4.42323
  46    0.1487        2.6679        0.0021        7.9158        7.9178       5.249901       5.19485
  45    0.1794        2.6673        0.0029        7.8924        7.8952       5.227941       6.02863
  44    0.2165        2.6665        0.0038        7.8615        7.8653       5.198782       6.63315
  43    0.2613        2.6657        0.0049        7.8211        7.8260       5.160353       7.24378
  42    0.3336        2.6643        0.0066        7.7483        7.7550       5.090714       8.11916
  41    0.4307        2.6625        0.0089        7.6473        7.6562       4.993769       8.42918
  40    0.5894        2.6596        0.0125        7.4789        7.4914       4.831792       8.61372
  39     1.339        2.6487        0.0271        6.7697        6.7969       4.148175       7.69629
  38     1.782        2.6435        0.0345        6.4617        6.4962       3.852740       5.62460
  37     2.292        2.6384        0.0424        6.1653        6.2078       3.569400       4.69285
  36     2.964        2.6329        0.0520        5.8405        5.8926       3.259655       3.88824
  35     3.853        2.6274        0.0637        5.4960        5.5597       2.932364       3.10605
  34     5.035        2.6218        0.0781        5.1482        5.2264       2.604593       2.34146
  33     6.613        2.6158        0.0961        4.8119        4.9080       2.292149       1.67033
  32     8.786        2.6088        0.1190        4.4930        4.6120       2.003186       1.12223
  31     11.80        2.5990        0.1498        4.1736        4.3234       1.724432       0.78042
  30     15.07        2.5886        0.1811        3.9229        4.1040       1.515463       0.53952
  29     18.79        2.5770        0.2146        3.7028        3.9173       1.340388       0.39695
  28     23.16        2.5635        0.2517        3.4983        3.7500       1.186517       0.29754
  27     28.12        2.5480        0.2920        3.3094        3.6015       1.053480       0.22615
  26     33.73        2.5297        0.3354        3.1386        3.4741       0.944344       0.16409
  25     40.54        2.5066        0.3857        2.9693        3.3550       0.848447       0.11897
  24     48.69        2.4782        0.4436        2.7977        3.2413       0.763190       0.08823
  23     57.69        2.4466        0.5041        2.6366        3.1408       0.694181       0.06469
  22     68.43        2.4090        0.5725        2.4712        3.0437       0.634755       0.04672
  21     81.20        2.3636        0.6498        2.3031        2.9529       0.589328       0.03002
  20     96.49        2.3099        0.7364        2.1297        2.8662       0.556220       0.01827
  19     114.6        2.2497        0.8312        1.9466        2.7778       0.528083       0.01314
  18     136.5        2.1836        0.9332        1.7529        2.6861       0.502418       0.00987
  17     162.9        2.1123        1.0412        1.5498        2.5910       0.478701       0.00758
  16     196.4        2.0292        1.1631        1.3252        2.4883       0.459117       0.00493
  15     218.7        1.9802        1.2331        1.1972        2.4302       0.450067       0.00344
  14     243.0        1.9314        1.3013        1.0721        2.3734       0.442029       0.00279
  13     269.0        1.8833        1.3667        0.9516        2.3184       0.435098       0.00225
  12     297.5        1.8364        1.4287        0.8369        2.2656       0.429222       0.00174
  11     328.5        1.7910        1.4864        0.7284        2.2148       0.423815       0.00147
  10     361.9        1.7475        1.5393        0.6271        2.1664       0.418861       0.00125
   9     398.1        1.7062        1.5869        0.5336        2.1205       0.414330       0.00106
   8     437.6        1.6672        1.6289        0.4484        2.0773       0.410108       0.00090
   7     480.5        1.6305        1.6650        0.3718        2.0367       0.406224       0.00076
   6     533.0        1.5916        1.6988        0.2949        1.9937       0.402116       0.00066
   5     589.8        1.5558        1.7247        0.2293        1.9540       0.398252       0.00057
   4     651.6        1.5229        1.7428        0.1746        1.9174       0.394563       0.00050
   3     718.7        1.4926        1.7536        0.1300        1.8836       0.391026       0.00044
   2     792.3        1.4645        1.7576        0.0946        1.8522       0.387622       0.00039
   1     891.5        1.4318        1.7540        0.0613        1.8153       0.383492       0.00035
   0    1013.0        1.3977        1.7406        0.0362        1.7768       0.379010       0.00031



 Wavenumbers: 38000. - 50000. cm-1, ATM      1
 LEVEL PRESSURE   UPWARD FLUX   DIFDOWN FLUX  DIRDOWN FLUX  DOWNWARD FLUX   NET FLUX    HEATING RATE
          mb          W/m2          W/m2          W/m2        W/m2          W/m2       degree/day
  51    .06700        0.0040        0.0000        0.4910        0.4910       0.486966       0.00000
  50    .07753        0.0040        0.0001        0.4885        0.4886       0.484638       1.86603
  49    .09103        0.0039        0.0002        0.4851        0.4852       0.481330       2.06753
  48    0.1069        0.0038        0.0002        0.4805        0.4808       0.477009       2.30025
  47    0.1255        0.0037        0.0004        0.4747        0.4751       0.471373       2.55491
  46    0.1487        0.0036        0.0005        0.4664        0.4669       0.463310       2.93916
  45    0.1794        0.0034        0.0007        0.4539        0.4546       0.451152       3.33778
  44    0.2165        0.0032        0.0009        0.4378        0.4387       0.435417       3.57928
  43    0.2613        0.0030        0.0011        0.4173        0.4184       0.415321       3.78810
  42    0.3336        0.0027        0.0014        0.3817        0.3831       0.380400       4.07140
  41    0.4307        0.0024        0.0018        0.3355        0.3373       0.334891       3.95694
  40    0.5894        0.0019        0.0022        0.2665        0.2687       0.266807       3.62059
  39     1.339        0.0008        0.0024        0.0834        0.0858       0.084977       2.04707
  38     1.782        0.0005        0.0021        0.0479        0.0500       0.049494       0.67554
  37     2.292        0.0003        0.0017        0.0275        0.0292       0.028865       0.34167
  36     2.964        0.0002        0.0013        0.0145        0.0158       0.015605       0.16645
  35     3.853        0.0001        0.0010        0.0070        0.0080       0.007861       0.07350
  34     5.035        0.0000        0.0007        0.0029        0.0035       0.003505       0.03111
  33     6.613        0.0000        0.0004        0.0009        0.0014       0.001359       0.01147
  32     8.786        0.0000        0.0003        0.0002        0.0005       0.000494       0.00336
  31     11.80        0.0000        0.0001        0.0000        0.0002       0.000174       0.00089
  30     15.07        0.0000        0.0001        0.0000        0.0001       0.000077       0.00025
  29     18.79        0.0000        0.0000        0.0000        0.0000       0.000037       0.00009
  28     23.16        0.0000        0.0000        0.0000        0.0000       0.000018       0.00004
  27     28.12        0.0000        0.0000        0.0000        0.0000       0.000008       0.00002
  26     33.73        0.0000        0.0000        0.0000        0.0000       0.000004       0.00001
  25     40.54        0.0000        0.0000        0.0000        0.0000       0.000002       0.00000
  24     48.69        0.0000        0.0000        0.0000        0.0000       0.000001       0.00000
  23     57.69        0.0000        0.0000        0.0000        0.0000       0.000000       0.00000
  22     68.43        0.0000        0.0000        0.0000        0.0000       0.000000       0.00000
  21     81.20        0.0000        0.0000        0.0000        0.0000       0.000000       0.00000
  20     96.49        0.0000        0.0000        0.0000        0.0000       0.000000       0.00000
  19     114.6        0.0000        0.0000        0.0000        0.0000       0.000000       0.00000
  18     136.5        0.0000        0.0000        0.0000        0.0000       0.000000       0.00000
  17     162.9        0.0000        0.0000        0.0000        0.0000       0.000000       0.00000
  16     196.4        0.0000        0.0000        0.0000        0.0000       0.000000       0.00000
  15     218.7        0.0000        0.0000        0.0000        0.0000       0.000000       0.00000
  14     243.0        0.0000        0.0000        0.0000        0.0000       0.000000       0.00000
  13     269.0        0.0000        0.0000        0.0000        0.0000       0.000000       0.00000
  12     297.5        0.0000        0.0000        0.0000        0.0000       0.000000       0.00000
  11     328.5        0.0000        0.0000        0.0000        0.0000       0.000000       0.00000
  10     361.9        0.0000        0.0000        0.0000        0.0000       0.000000       0.00000
   9     398.1        0.0000        0.0000        0.0000        0.0000       0.000000       0.00000
   8     437.6        0.0000        0.0000        0.0000        0.0000       0.000000       0.00000
   7     480.5        0.0000        0.0000        0.0000        0.0000       0.000000       0.00000
   6     533.0        0.0000        0.0000        0.0000        0.0000       0.000000       0.00000
   5     589.8        0.0000        0.0000        0.0000        0.0000       0.000000       0.00000
   4     651.6        0.0000        0.0000        0.0000        0.0000       0.000000       0.00000
   3     718.7        0.0000        0.0000        0.0000        0.0000       0.000000       0.00000
   2     792.3        0.0000        0.0000        0.0000        0.0000       0.000000       0.00000
   1     891.5        0.0000        0.0000        0.0000        0.0000       0.000000       0.00000
   0    1013.0        0.0000        0.0000        0.0000        0.0000       0.000000       0.00000



 Wavenumbers:   820. -  2600. cm-1, ATM      1
 LEVEL PRESSURE   UPWARD FLUX   DIFDOWN FLUX  DIRDOWN FLUX  DOWNWARD FLUX   NET FLUX    HEATING RATE
          mb          W/m2          W/m2          W/m2        W/m2          W/m2       degree/day
  51    .06700        0.1272        0.0000        2.2967        2.2967       2.169510       0.00000
  50    .07753        0.1272        0.0000        2.2949        2.2949       2.167647       1.49329
  49    .09103        0.1272        0.0000        2.2941        2.2941       2.166909       0.46106
  48    0.1069        0.1272        0.0000        2.2934        2.2934       2.166153       0.40229
  47    0.1255        0.1272        0.0000        2.2926        2.2926       2.165394       0.34417
  46    0.1487        0.1272        0.0000        2.2918        2.2918       2.164569       0.30081
  45    0.1794        0.1272        0.0000        2.2908        2.2908       2.163608       0.26368
  44    0.2165        0.1272        0.0000        2.2898        2.2898       2.162595       0.23052
  43    0.2613        0.1272        0.0000        2.2887        2.2887       2.161451       0.21563
  42    0.3336        0.1272        0.0000        2.2868        2.2868       2.159569       0.21943
  41    0.4307        0.1272        0.0000        2.2843        2.2843       2.157063       0.21789
  40    0.5894        0.1272        0.0000        2.2803        2.2803       2.153029       0.21450
  39     1.339        0.1272        0.0000        2.2624        2.2624       2.135152       0.20126
  38     1.782        0.1272        0.0000        2.2527        2.2527       2.125450       0.18473
  37     2.292        0.1272        0.0000        2.2423        2.2423       2.115075       0.17184
  36     2.964        0.1272        0.0000        2.2298        2.2298       2.102532       0.15745
  35     3.853        0.1272        0.0000        2.2144        2.2144       2.087135       0.14611
  34     5.035        0.1272        0.0000        2.1956        2.1956       2.068329       0.13434
  33     6.613        0.1272        0.0000        2.1737        2.1737       2.046518       0.11660
  32     8.786        0.1272        0.0000        2.1507        2.1507       2.023519       0.08932
  31     11.80        0.1272        0.0000        2.1283        2.1283       2.001052       0.06290
  30     15.07        0.1272        0.0000        2.1117        2.1117       1.984449       0.04286
  29     18.79        0.1272        0.0000        2.0963        2.0963       1.969040       0.03494
  28     23.16        0.1272        0.0000        2.0794        2.0794       1.952205       0.03255
  27     28.12        0.1272        0.0000        2.0607        2.0607       1.933504       0.03179
  26     33.73        0.1272        0.0000        2.0405        2.0405       1.913284       0.03040
  25     40.54        0.1272        0.0000        2.0175        2.0175       1.890259       0.02857
  24     48.69        0.1272        0.0000        1.9916        1.9916       1.864399       0.02676
  23     57.69        0.1272        0.0000        1.9656        1.9656       1.838408       0.02436
  22     68.43        0.1272        0.0000        1.9379        1.9379       1.810621       0.02184
  21     81.20        0.1272        0.0000        1.9088        1.9088       1.781526       0.01923
  20     96.49        0.1272        0.0000        1.8786        1.8786       1.751323       0.01667
  19     114.6        0.1272        0.0000        1.8470        1.8471       1.719811       0.01471
  18     136.5        0.1273        0.0000        1.8127        1.8127       1.685414       0.01323
  17     162.9        0.1273        0.0000        1.7695        1.7695       1.642209       0.01381
  16     196.4        0.1273        0.0000        1.7086        1.7086       1.581302       0.01533
  15     218.7        0.1273        0.0000        1.6700        1.6701       1.542771       0.01463
  14     243.0        0.1273        0.0000        1.6163        1.6163       1.489019       0.01864
  13     269.0        0.1274        0.0000        1.5258        1.5258       1.398475       0.02937
  12     297.5        0.1275        0.0000        1.4002        1.4002       1.272778       0.03728
  11     328.5        0.1276        0.0000        1.2681        1.2682       1.140559       0.03595
  10     361.9        0.1278        0.0000        1.1643        1.1643       1.036471       0.02634
   9     398.1        0.1282        0.0000        1.0895        1.0896       0.961423       0.01748
   8     437.6        0.1286        0.0000        1.0193        1.0193       0.890711       0.01512
   7     480.5        0.1294        0.0000        0.9444        0.9445       0.815100       0.01485
   6     533.0        0.1306        0.0000        0.8606        0.8606       0.730032       0.01368
   5     589.8        0.1324        0.0000        0.7834        0.7834       0.651012       0.01173
   4     651.6        0.1352        0.0000        0.7081        0.7081       0.572959       0.01067
   3     718.7        0.1388        0.0000        0.6350        0.6351       0.496259       0.00964
   2     792.3        0.1433        0.0000        0.5656        0.5656       0.422378       0.00847
   1     891.5        0.1507        0.0000        0.4781        0.4782       0.327483       0.00808
   0    1013.0        0.1638        0.0000        0.3714        0.3715       0.207662       0.00832

  Modules and versions used in this calculation:

       rrtmg_sw.1col.f90:  $Revision$                    rrtmg_sw_init.f90:  $Revision$        
     rrtmgsw_cldprop.f90:  $Revision$                  rrtmgsw_cldprmc.f90:  NOT USED          
     rrtmg_sw_reftra.f90:  $Revision$                  rrtmg_sw_spcvrt.f90:  NOT USED          
     rrtmg_sw_spcvmc.f90:  NOT USED                    rrtmgsw_setcoef.f90:  NOT USED          
     rrtmg_sw_taumol.f90:  $Revision$                  rrtmg_sw_vrtqdr.f90:  NOT USED          
                rrtatm.f:  NOT USED                             util_xxx.f:  NOT USED          
                 extra.f:  NOT USED                       rrtmg_sw_k_g.f90:  $Revision$        

