

 Wavenumbers:   820. - 50000. cm-1, ATM      1
 LEVEL PRESSURE   UPWARD FLUX   DIFDOWN FLUX  DIRDOWN FLUX  DOWNWARD FLUX   NET FLUX    HEATING RATE
          mb          W/m2          W/m2          W/m2        W/m2          W/m2       degree/day
  51    .06700      194.9919        0.0000      465.4378      465.4378     270.445926       0.00000
  50    .07753      194.9913        0.0012      465.4212      465.4224     270.431045      11.92732
  49    .09103      194.9906        0.0027      465.4049      465.4076     270.417026       8.76242
  48    0.1069      194.9898        0.0044      465.3858      465.3902     270.400430       8.83373
  47    0.1255      194.9889        0.0064      465.3623      465.3687     270.379737       9.38145
  46    0.1487      194.9878        0.0089      465.3299      465.3388     270.350915      10.50569
  45    0.1794      194.9864        0.0123      465.2822      465.2945     270.308036      11.77133
  44    0.2165      194.9848        0.0163      465.2211      465.2374     270.252574      12.61682
  43    0.2613      194.9830        0.0210      465.1426      465.1636     270.180626      13.56179
  42    0.3336      194.9802        0.0288      465.0022      465.0309     270.050739      15.14362
  41    0.4307      194.9768        0.0390      464.8049      464.8439     269.867104      15.96659
  40    0.5894      194.9718        0.0554      464.4658      464.5213     269.549453      16.89228
  39     1.339      194.9602        0.1291      462.8370      462.9661     268.005900      17.37760
  38     1.782      194.9613        0.1704      462.0477      462.2181     267.256810      14.26148
  37     2.292      194.9695        0.2173      461.2864      461.5037     266.534215      11.96805
  36     2.964      194.9907        0.2783      460.4415      460.7198     265.729121      10.10637
  35     3.853      195.0331        0.3581      459.4841      459.8422     264.809086       8.73130
  34     5.035      195.1038        0.4631      458.4084      458.8715     263.767769       7.43874
  33     6.613      195.2059        0.6023      457.2071      457.8094     262.603479       6.22430
  32     8.786      195.3377        0.7887      455.8604      456.6491     261.311450       5.01778
  31     11.80      195.5017        1.0534      454.2634      455.3168     259.815144       4.18918
  30     15.07      195.6491        1.3355      452.8012      454.1367     258.487616       3.42742
  29     18.79      195.7901        1.6520      451.3349      452.9869     257.196834       2.92660
  28     23.16      195.9253        2.0191      449.7944      451.8135     255.888154       2.53056
  27     28.12      196.0456        2.4359      448.2008      450.6367     254.591100       2.20490
  26     33.73      196.1296        2.8994      446.6103      449.5097     253.380110       1.82076
  25     40.54      196.1724        3.4559      444.8921      448.3480     252.175592       1.49434
  24     48.69      196.1676        4.1218      443.0131      447.1349     250.967283       1.25041
  23     57.69      196.1080        4.8474      441.1261      445.9735     249.865441       1.03281
  22     68.43      195.9786        5.7042      439.0624      444.7666     248.787983       0.84703
  21     81.20      195.7434        6.7159      436.8367      443.5526     247.809191       0.64677
  20     96.49      195.3893        7.9086      434.4067      442.3152     246.925954       0.48748
  19     114.6      194.9422        9.3044      431.6496      440.9540     246.011774       0.42686
  18     136.5      194.3934       10.9301      428.4961      439.4262     245.032815       0.37643
  17     162.9      193.7270       12.8256      424.7872      437.6128     243.885815       0.36663
  16     196.4      192.8269       15.2232      419.9521      435.1753     242.348448       0.38697
  15     218.7      192.2269       16.7621      416.6554      433.4174     241.190463       0.43964
  14     243.0      191.5758       18.4025      412.7075      431.1100     239.534220       0.57444
  13     269.0      190.8727       20.1440      407.6142      427.7582     236.885528       0.85922
  12     297.5      190.1179       21.9849      401.6546      423.6396     233.521669       0.99768
  11     328.5      189.3152       23.9274      394.8775      418.8049     229.489707       1.09628
  10     361.9      188.4677       25.9660      387.2756      413.2416     224.773947       1.19313
   9     398.1      187.5762       28.1018      379.0498      407.1516     219.575410       1.21114
   8     437.6      186.6469       30.3299      370.2323      400.5622     213.915389       1.21015
   7     480.5      185.6889       32.6455      360.6601      393.3056     207.616677       1.23704
   6     533.0      184.5683       35.3982      349.2775      384.6756     200.107284       1.20802
   5     589.8      183.4366       38.2516      337.7080      375.9596     192.522954       1.12576
   4     651.6      182.3200       41.1927      325.9076      367.1003     184.780291       1.05883
   3     718.7      181.2335       44.2106      314.1794      358.3900     177.156521       0.95810
   2     792.3      180.1949       47.2912      302.7267      350.0180     169.823073       0.84106
   1     891.5      179.0334       51.2150      288.5511      339.7661     160.732723       0.77355
   0    1013.0      178.1599       55.5968      272.5792      328.1760     150.016053       0.74411



 Wavenumbers:  2600. -  3250. cm-1, ATM      1
 LEVEL PRESSURE   UPWARD FLUX   DIFDOWN FLUX  DIRDOWN FLUX  DOWNWARD FLUX   NET FLUX    HEATING RATE
          mb          W/m2          W/m2          W/m2        W/m2          W/m2       degree/day
  51    .06700        0.2023        0.0000        4.1021        4.1021       3.899832       0.00000
  50    .07753        0.2023        0.0000        4.1021        4.1021       3.899824       0.00640
  49    .09103        0.2023        0.0000        4.1021        4.1021       3.899814       0.00627
  48    0.1069        0.2023        0.0000        4.1021        4.1021       3.899802       0.00613
  47    0.1255        0.2023        0.0000        4.1021        4.1021       3.899789       0.00599
  46    0.1487        0.2023        0.0000        4.1020        4.1020       3.899773       0.00607
  45    0.1794        0.2023        0.0000        4.1020        4.1020       3.899750       0.00624
  44    0.2165        0.2023        0.0000        4.1020        4.1020       3.899723       0.00611
  43    0.2613        0.2023        0.0000        4.1020        4.1020       3.899691       0.00599
  42    0.3336        0.2023        0.0000        4.1019        4.1019       3.899638       0.00616
  41    0.4307        0.2023        0.0000        4.1018        4.1018       3.899567       0.00619
  40    0.5894        0.2023        0.0000        4.1017        4.1017       3.899448       0.00635
  39     1.339        0.2023        0.0000        4.1010        4.1010       3.898746       0.00791
  38     1.782        0.2023        0.0000        4.1005        4.1005       3.898210       0.01020
  37     2.292        0.2023        0.0000        4.0998        4.0998       3.897508       0.01163
  36     2.964        0.2023        0.0000        4.0988        4.0988       3.896499       0.01267
  35     3.853        0.2023        0.0000        4.0973        4.0973       3.895078       0.01348
  34     5.035        0.2023        0.0000        4.0954        4.0954       3.893140       0.01385
  33     6.613        0.2023        0.0000        4.0928        4.0928       3.890591       0.01363
  32     8.786        0.2023        0.0000        4.0896        4.0896       3.887372       0.01250
  31     11.80        0.2023        0.0000        4.0856        4.0856       3.883325       0.01133
  30     15.07        0.2023        0.0000        4.0819        4.0819       3.879658       0.00947
  29     18.79        0.2023        0.0000        4.0784        4.0784       3.876165       0.00792
  28     23.16        0.2023        0.0000        4.0748        4.0748       3.872575       0.00694
  27     28.12        0.2023        0.0000        4.0709        4.0709       3.868683       0.00662
  26     33.73        0.2023        0.0000        4.0663        4.0663       3.864026       0.00700
  25     40.54        0.2023        0.0000        4.0598        4.0598       3.857544       0.00804
  24     48.69        0.2022        0.0000        4.0507        4.0507       3.848466       0.00939
  23     57.69        0.2022        0.0000        4.0394        4.0394       3.837143       0.01061
  22     68.43        0.2022        0.0000        4.0246        4.0246       3.822366       0.01162
  21     81.20        0.2022        0.0000        4.0060        4.0061       3.803814       0.01226
  20     96.49        0.2023        0.0000        3.9836        3.9836       3.781335       0.01241
  19     114.6        0.2023        0.0000        3.9566        3.9566       3.754383       0.01259
  18     136.5        0.2023        0.0001        3.9264        3.9264       3.724180       0.01161
  17     162.9        0.2023        0.0001        3.8933        3.8934       3.691088       0.01058
  16     196.4        0.2023        0.0001        3.8543        3.8544       3.652092       0.00982
  15     218.7        0.2024        0.0001        3.8293        3.8293       3.626991       0.00953
  14     243.0        0.2024        0.0001        3.7997        3.7998       3.597407       0.01026
  13     269.0        0.2025        0.0001        3.7606        3.7607       3.558129       0.01274
  12     297.5        0.2027        0.0001        3.7089        3.7091       3.506360       0.01535
  11     328.5        0.2030        0.0001        3.6384        3.6385       3.435586       0.01924
  10     361.9        0.2033        0.0001        3.5422        3.5423       3.338975       0.02444
   9     398.1        0.2039        0.0001        3.4157        3.4159       3.211980       0.02959
   8     437.6        0.2046        0.0001        3.2588        3.2589       3.054302       0.03371
   7     480.5        0.2058        0.0001        3.0707        3.0709       2.865072       0.03716
   6     533.0        0.2077        0.0001        2.8450        2.8451       2.637459       0.03662
   5     589.8        0.2104        0.0002        2.6214        2.6215       2.411109       0.03360
   4     651.6        0.2144        0.0002        2.3914        2.3915       2.177158       0.03199
   3     718.7        0.2198        0.0002        2.1625        2.1627       1.942893       0.02944
   2     792.3        0.2269        0.0002        1.9498        1.9500       1.723135       0.02520
   1     891.5        0.2392        0.0002        1.7083        1.7085       1.469302       0.02160
   0    1013.0        0.2618        0.0002        1.4561        1.4562       1.194424       0.01909



 Wavenumbers:  3250. -  4000. cm-1, ATM      1
 LEVEL PRESSURE   UPWARD FLUX   DIFDOWN FLUX  DIRDOWN FLUX  DOWNWARD FLUX   NET FLUX    HEATING RATE
          mb          W/m2          W/m2          W/m2        W/m2          W/m2       degree/day
  51    .06700        0.0005        0.0000        6.9155        6.9155       6.915025       0.00000
  50    .07753        0.0005        0.0000        6.9111        6.9111       6.910600       3.54705
  49    .09103        0.0005        0.0000        6.9084        6.9084       6.907854       1.71594
  48    0.1069        0.0005        0.0000        6.9063        6.9063       6.905797       1.09507
  47    0.1255        0.0005        0.0000        6.9044        6.9044       6.903888       0.86540
  46    0.1487        0.0005        0.0000        6.9023        6.9023       6.901818       0.75451
  45    0.1794        0.0005        0.0000        6.8999        6.8999       6.899428       0.65615
  44    0.2165        0.0005        0.0000        6.8976        6.8976       6.897057       0.53947
  43    0.2613        0.0005        0.0000        6.8952        6.8952       6.894656       0.45251
  42    0.3336        0.0005        0.0000        6.8917        6.8917       6.891215       0.40121
  41    0.4307        0.0005        0.0000        6.8876        6.8876       6.887132       0.35500
  40    0.5894        0.0005        0.0000        6.8815        6.8815       6.880964       0.32803
  39     1.339        0.0005        0.0000        6.8588        6.8588       6.858336       0.25475
  38     1.782        0.0005        0.0000        6.8494        6.8494       6.848899       0.17966
  37     2.292        0.0005        0.0000        6.8403        6.8403       6.839839       0.15006
  36     2.964        0.0005        0.0000        6.8299        6.8299       6.829371       0.13140
  35     3.853        0.0005        0.0000        6.8169        6.8169       6.816416       0.12295
  34     5.035        0.0005        0.0000        6.8000        6.8000       6.799472       0.12105
  33     6.613        0.0005        0.0000        6.7770        6.7770       6.776548       0.12255
  32     8.786        0.0005        0.0000        6.7452        6.7452       6.744681       0.12376
  31     11.80        0.0005        0.0000        6.6982        6.6983       6.697769       0.13134
  30     15.07        0.0005        0.0000        6.6472        6.6472       6.646701       0.13185
  29     18.79        0.0005        0.0000        6.5902        6.5902       6.589727       0.12918
  28     23.16        0.0005        0.0000        6.5267        6.5267       6.526228       0.12279
  27     28.12        0.0005        0.0000        6.4598        6.4599       6.459403       0.11360
  26     33.73        0.0005        0.0000        6.3928        6.3928       6.392357       0.10081
  25     40.54        0.0004        0.0001        6.3202        6.3202       6.319761       0.09006
  24     48.69        0.0004        0.0001        6.2401        6.2402       6.239733       0.08282
  23     57.69        0.0004        0.0001        6.1564        6.1565       6.156037       0.07845
  22     68.43        0.0004        0.0001        6.0590        6.0591       6.058721       0.07650
  21     81.20        0.0004        0.0001        5.9457        5.9458       5.945429       0.07486
  20     96.49        0.0004        0.0001        5.8167        5.8168       5.816444       0.07119
  19     114.6        0.0004        0.0001        5.6657        5.6658       5.665435       0.07051
  18     136.5        0.0003        0.0002        5.4964        5.4965       5.496216       0.06507
  17     162.9        0.0003        0.0002        5.2829        5.2831       5.282766       0.06823
  16     196.4        0.0003        0.0002        4.9528        4.9530       4.952745       0.08307
  15     218.7        0.0002        0.0002        4.7194        4.7197       4.719411       0.08859
  14     243.0        0.0002        0.0002        4.4262        4.4264       4.426164       0.10171
  13     269.0        0.0002        0.0002        4.0107        4.0109       4.010729       0.13477
  12     297.5        0.0002        0.0002        3.5077        3.5079       3.507743       0.14918
  11     328.5        0.0002        0.0002        2.9761        2.9763       2.976146       0.14454
  10     361.9        0.0002        0.0002        2.4869        2.4871       2.486937       0.12377
   9     398.1        0.0001        0.0002        2.0686        2.0688       2.068676       0.09745
   8     437.6        0.0001        0.0002        1.6930        1.6931       1.693018       0.08032
   7     480.5        0.0001        0.0002        1.3397        1.3399       1.339727       0.06938
   6     533.0        0.0001        0.0001        0.9766        0.9767       0.976623       0.05841
   5     589.8        0.0001        0.0001        0.6622        0.6623       0.662125       0.04668
   4     651.6        0.0002        0.0001        0.4116        0.4117       0.411492       0.03427
   3     718.7        0.0002        0.0001        0.2312        0.2313       0.231045       0.02268
   2     792.3        0.0004        0.0000        0.1121        0.1121       0.111731       0.01368
   1     891.5        0.0009        0.0000        0.0328        0.0328       0.031936       0.00679
   0    1013.0        0.0038        0.0000        0.0040        0.0040       0.000202       0.00220



 Wavenumbers:  4000. -  4650. cm-1, ATM      1
 LEVEL PRESSURE   UPWARD FLUX   DIFDOWN FLUX  DIRDOWN FLUX  DOWNWARD FLUX   NET FLUX    HEATING RATE
          mb          W/m2          W/m2          W/m2        W/m2          W/m2       degree/day
  51    .06700        0.5196        0.0000        8.1209        8.1209       7.601281       0.00000
  50    .07753        0.5196        0.0000        8.1209        8.1209       7.601280       0.00079
  49    .09103        0.5196        0.0000        8.1209        8.1209       7.601279       0.00078
  48    0.1069        0.5196        0.0000        8.1209        8.1209       7.601278       0.00076
  47    0.1255        0.5196        0.0000        8.1209        8.1209       7.601276       0.00074
  46    0.1487        0.5196        0.0000        8.1209        8.1209       7.601274       0.00075
  45    0.1794        0.5196        0.0000        8.1209        8.1209       7.601271       0.00077
  44    0.2165        0.5196        0.0000        8.1209        8.1209       7.601268       0.00076
  43    0.2613        0.5196        0.0000        8.1209        8.1209       7.601264       0.00074
  42    0.3336        0.5196        0.0000        8.1209        8.1209       7.601257       0.00076
  41    0.4307        0.5196        0.0000        8.1209        8.1209       7.601248       0.00077
  40    0.5894        0.5196        0.0000        8.1209        8.1209       7.601234       0.00079
  39     1.339        0.5196        0.0000        8.1208        8.1208       7.601145       0.00100
  38     1.782        0.5196        0.0000        8.1207        8.1207       7.601075       0.00132
  37     2.292        0.5196        0.0000        8.1206        8.1206       7.600982       0.00155
  36     2.964        0.5196        0.0000        8.1205        8.1205       7.600842       0.00175
  35     3.853        0.5196        0.0000        8.1202        8.1203       7.600636       0.00196
  34     5.035        0.5196        0.0000        8.1199        8.1200       7.600331       0.00218
  33     6.613        0.5196        0.0000        8.1195        8.1195       7.599883       0.00240
  32     8.786        0.5196        0.0000        8.1188        8.1188       7.599222       0.00257
  31     11.80        0.5196        0.0000        8.1177        8.1178       7.598185       0.00290
  30     15.07        0.5196        0.0001        8.1165        8.1166       7.596972       0.00313
  29     18.79        0.5196        0.0001        8.1150        8.1151       7.595507       0.00332
  28     23.16        0.5196        0.0001        8.1132        8.1133       7.593694       0.00351
  27     28.12        0.5195        0.0001        8.1109        8.1111       7.591506       0.00372
  26     33.73        0.5195        0.0001        8.1082        8.1083       7.588817       0.00404
  25     40.54        0.5195        0.0001        8.1045        8.1047       7.585185       0.00451
  24     48.69        0.5195        0.0002        8.0997        8.0999       7.580369       0.00498
  23     57.69        0.5195        0.0002        8.0939        8.0941       7.574692       0.00532
  22     68.43        0.5194        0.0002        8.0868        8.0870       7.567618       0.00556
  21     81.20        0.5194        0.0003        8.0781        8.0783       7.558950       0.00573
  20     96.49        0.5194        0.0003        8.0675        8.0678       7.548461       0.00579
  19     114.6        0.5193        0.0004        8.0542        8.0546       7.535311       0.00614
  18     136.5        0.5193        0.0005        8.0382        8.0387       7.519439       0.00610
  17     162.9        0.5192        0.0006        8.0184        8.0189       7.499689       0.00631
  16     196.4        0.5192        0.0007        7.9905        7.9912       7.471936       0.00699
  15     218.7        0.5192        0.0008        7.9699        7.9707       7.451418       0.00779
  14     243.0        0.5193        0.0009        7.9437        7.9445       7.425245       0.00908
  13     269.0        0.5194        0.0010        7.9069        7.9079       7.388470       0.01193
  12     297.5        0.5196        0.0011        7.8566        7.8576       7.338065       0.01495
  11     328.5        0.5199        0.0012        7.7856        7.7868       7.266861       0.01936
  10     361.9        0.5203        0.0013        7.6892        7.6905       7.170176       0.02446
   9     398.1        0.5209        0.0014        7.5693        7.5706       7.049723       0.02806
   8     437.6        0.5217        0.0015        7.4304        7.4318       6.910145       0.02984
   7     480.5        0.5228        0.0016        7.2733        7.2749       6.752140       0.03103
   6     533.0        0.5246        0.0017        7.0700        7.0717       6.547079       0.03299
   5     589.8        0.5272        0.0019        6.8221        6.8239       6.296666       0.03717
   4     651.6        0.5311        0.0020        6.5243        6.5263       5.995169       0.04123
   3     718.7        0.5365        0.0021        6.2127        6.2148       5.678327       0.03982
   2     792.3        0.5435        0.0022        5.9221        5.9243       5.380825       0.03412
   1     891.5        0.5555        0.0024        5.5863        5.5887       5.033187       0.02958
   0    1013.0        0.5774        0.0025        5.2101        5.2126       4.635172       0.02764



 Wavenumbers:  4650. -  5150. cm-1, ATM      1
 LEVEL PRESSURE   UPWARD FLUX   DIFDOWN FLUX  DIRDOWN FLUX  DOWNWARD FLUX   NET FLUX    HEATING RATE
          mb          W/m2          W/m2          W/m2        W/m2          W/m2       degree/day
  51    .06700        0.3694        0.0000        7.6868        7.6868       7.317416       0.00000
  50    .07753        0.3694        0.0000        7.6866        7.6866       7.317181       0.18897
  49    .09103        0.3694        0.0000        7.6863        7.6863       7.316886       0.18393
  48    0.1069        0.3694        0.0000        7.6860        7.6860       7.316551       0.17861
  47    0.1255        0.3694        0.0000        7.6856        7.6856       7.316169       0.17318
  46    0.1487        0.3694        0.0000        7.6851        7.6851       7.315692       0.17381
  45    0.1794        0.3694        0.0000        7.6845        7.6845       7.315050       0.17630
  44    0.2165        0.3694        0.0000        7.6837        7.6837       7.314303       0.16989
  43    0.2613        0.3694        0.0000        7.6829        7.6829       7.313437       0.16328
  42    0.3336        0.3694        0.0000        7.6815        7.6815       7.312045       0.16222
  41    0.4307        0.3694        0.0000        7.6797        7.6797       7.310276       0.15383
  40    0.5894        0.3694        0.0000        7.6770        7.6770       7.307555       0.14470
  39     1.339        0.3694        0.0000        7.6665        7.6665       7.297086       0.11786
  38     1.782        0.3694        0.0000        7.6618        7.6618       7.292385       0.08951
  37     2.292        0.3694        0.0000        7.6573        7.6573       7.287942       0.07358
  36     2.964        0.3694        0.0000        7.6527        7.6527       7.283321       0.05801
  35     3.853        0.3694        0.0000        7.6480        7.6481       7.278654       0.04429
  34     5.035        0.3694        0.0000        7.6433        7.6434       7.273964       0.03350
  33     6.613        0.3694        0.0000        7.6384        7.6384       7.269026       0.02640
  32     8.786        0.3694        0.0000        7.6325        7.6326       7.263180       0.02270
  31     11.80        0.3694        0.0001        7.6242        7.6243       7.254897       0.02319
  30     15.07        0.3693        0.0001        7.6147        7.6147       7.245395       0.02453
  29     18.79        0.3693        0.0001        7.6029        7.6030       7.233708       0.02650
  28     23.16        0.3693        0.0001        7.5880        7.5881       7.218842       0.02875
  27     28.12        0.3693        0.0002        7.5696        7.5697       7.200430       0.03130
  26     33.73        0.3693        0.0002        7.5475        7.5476       7.178382       0.03315
  25     40.54        0.3692        0.0002        7.5192        7.5195       7.150217       0.03494
  24     48.69        0.3692        0.0003        7.4838        7.4840       7.114840       0.03661
  23     57.69        0.3692        0.0003        7.4441        7.4444       7.075262       0.03710
  22     68.43        0.3691        0.0004        7.3973        7.3977       7.028532       0.03674
  21     81.20        0.3691        0.0004        7.3434        7.3438       6.974711       0.03556
  20     96.49        0.3691        0.0005        7.2834        7.2839       6.914825       0.03305
  19     114.6        0.3690        0.0006        7.2187        7.2193       6.850260       0.03015
  18     136.5        0.3690        0.0007        7.1506        7.1513       6.782330       0.02612
  17     162.9        0.3690        0.0008        7.0787        7.0795       6.710544       0.02295
  16     196.4        0.3690        0.0010        6.9937        6.9948       6.625794       0.02133
  15     218.7        0.3690        0.0011        6.9392        6.9403       6.571332       0.02068
  14     243.0        0.3690        0.0012        6.8778        6.8791       6.510040       0.02126
  13     269.0        0.3691        0.0014        6.8043        6.8057       6.436519       0.02385
  12     297.5        0.3693        0.0015        6.7141        6.7156       6.346287       0.02676
  11     328.5        0.3697        0.0016        6.6045        6.6061       6.236426       0.02987
  10     361.9        0.3701        0.0018        6.4716        6.4734       6.103252       0.03369
   9     398.1        0.3708        0.0019        6.3129        6.3148       5.944069       0.03709
   8     437.6        0.3717        0.0020        6.1258        6.1278       5.756156       0.04018
   7     480.5        0.3730        0.0022        5.9065        5.9087       5.535729       0.04329
   6     533.0        0.3750        0.0023        5.6254        5.6277       5.252717       0.04553
   5     589.8        0.3779        0.0024        5.3273        5.3297       4.951758       0.04467
   4     651.6        0.3821        0.0025        5.0199        5.0225       4.640344       0.04259
   3     718.7        0.3877        0.0027        4.7212        4.7238       4.336107       0.03823
   2     792.3        0.3951        0.0028        4.4375        4.4403       4.045201       0.03336
   1     891.5        0.4077        0.0029        4.0976        4.1005       3.692732       0.02999
   0    1013.0        0.4299        0.0030        3.7269        3.7299       3.300011       0.02727



 Wavenumbers:  5150. -  6150. cm-1, ATM      1
 LEVEL PRESSURE   UPWARD FLUX   DIFDOWN FLUX  DIRDOWN FLUX  DOWNWARD FLUX   NET FLUX    HEATING RATE
          mb          W/m2          W/m2          W/m2        W/m2          W/m2       degree/day
  51    .06700        1.0285        0.0000       19.2709       19.2709      18.242459       0.00000
  50    .07753        1.0285        0.0000       19.2709       19.2709      18.242424       0.02761
  49    .09103        1.0285        0.0000       19.2708       19.2708      18.242379       0.02810
  48    0.1069        1.0285        0.0000       19.2708       19.2708      18.242326       0.02859
  47    0.1255        1.0285        0.0000       19.2707       19.2707      18.242262       0.02904
  46    0.1487        1.0285        0.0000       19.2706       19.2706      18.242178       0.03060
  45    0.1794        1.0285        0.0000       19.2705       19.2705      18.242059       0.03270
  44    0.2165        1.0285        0.0000       19.2704       19.2704      18.241912       0.03332
  43    0.2613        1.0285        0.0000       19.2702       19.2702      18.241733       0.03378
  42    0.3336        1.0285        0.0000       19.2699       19.2699      18.241427       0.03566
  41    0.4307        1.0285        0.0000       19.2694       19.2695      18.241007       0.03649
  40    0.5894        1.0284        0.0000       19.2687       19.2688      18.240305       0.03734
  39     1.339        1.0284        0.0000       19.2653       19.2653      18.236886       0.03850
  38     1.782        1.0284        0.0000       19.2633       19.2633      18.234876       0.03827
  37     2.292        1.0284        0.0001       19.2609       19.2610      18.232568       0.03823
  36     2.964        1.0284        0.0001       19.2579       19.2580      18.229570       0.03763
  35     3.853        1.0284        0.0001       19.2539       19.2540      18.225669       0.03702
  34     5.035        1.0283        0.0001       19.2488       19.2489      18.220590       0.03628
  33     6.613        1.0283        0.0002       19.2421       19.2423      18.213990       0.03528
  32     8.786        1.0283        0.0002       19.2335       19.2337      18.205441       0.03320
  31     11.80        1.0282        0.0003       19.2217       19.2220      18.193835       0.03249
  30     15.07        1.0281        0.0004       19.2100       19.2104      18.182232       0.02996
  29     18.79        1.0280        0.0005       19.1976       19.1981      18.170046       0.02763
  28     23.16        1.0280        0.0006       19.1843       19.1848      18.156894       0.02543
  27     28.12        1.0278        0.0007       19.1703       19.1710      18.143131       0.02340
  26     33.73        1.0277        0.0009       19.1560       19.1568      18.129112       0.02108
  25     40.54        1.0276        0.0010       19.1405       19.1415      18.113936       0.01883
  24     48.69        1.0274        0.0012       19.1238       19.1251      18.097634       0.01687
  23     57.69        1.0273        0.0015       19.1077       19.1091      18.081868       0.01478
  22     68.43        1.0270        0.0017       19.0908       19.0925      18.065500       0.01287
  21     81.20        1.0268        0.0020       19.0728       19.0748      18.048021       0.01155
  20     96.49        1.0265        0.0024       19.0528       19.0553      18.028765       0.01063
  19     114.6        1.0262        0.0029       19.0299       19.0328      18.006665       0.01032
  18     136.5        1.0258        0.0034       18.9997       19.0031      17.977356       0.01127
  17     162.9        1.0253        0.0041       18.9461       18.9502      17.924916       0.01676
  16     196.4        1.0247        0.0049       18.8183       18.8232      17.798510       0.03182
  15     218.7        1.0243        0.0054       18.6590       18.6644      17.640116       0.06014
  14     243.0        1.0239        0.0059       18.3574       18.3634      17.339454       0.10428
  13     269.0        1.0235        0.0064       17.8280       17.8344      16.810869       0.17147
  12     297.5        1.0232        0.0069       17.2041       17.2110      16.187800       0.18480
  11     328.5        1.0229        0.0073       16.4385       16.4459      15.423007       0.20795
  10     361.9        1.0226        0.0077       15.5445       15.5522      14.529523       0.22606
   9     398.1        1.0225        0.0080       14.6211       14.6291      13.606600       0.21502
   8     437.6        1.0226        0.0083       13.6974       13.7057      12.683137       0.19744
   7     480.5        1.0230        0.0085       12.8065       12.8151      11.792092       0.17500
   6     533.0        1.0239        0.0088       11.9563       11.9651      10.941238       0.13688
   5     589.8        1.0256        0.0092       11.3048       11.3141      10.288483       0.09689
   4     651.6        1.0285        0.0097       10.7919       10.8017       9.773130       0.07048
   3     718.7        1.0330        0.0103       10.3569       10.3673       9.334239       0.05516
   2     792.3        1.0394        0.0110        9.9464        9.9573       8.917964       0.04774
   1     891.5        1.0516        0.0118        9.4456        9.4574       8.405736       0.04359
   0    1013.0        1.0783        0.0127        8.9197        8.9324       7.854095       0.03830



 Wavenumbers:  6150. -  7700. cm-1, ATM      1
 LEVEL PRESSURE   UPWARD FLUX   DIFDOWN FLUX  DIRDOWN FLUX  DOWNWARD FLUX   NET FLUX    HEATING RATE
          mb          W/m2          W/m2          W/m2        W/m2          W/m2       degree/day
  51    .06700        1.5875        0.0000       35.6423       35.6423      34.054830       0.00000
  50    .07753        1.5875        0.0000       35.6422       35.6423      34.054778       0.04144
  49    .09103        1.5875        0.0000       35.6422       35.6422      34.054712       0.04174
  48    0.1069        1.5875        0.0000       35.6421       35.6421      34.054633       0.04202
  47    0.1255        1.5875        0.0000       35.6420       35.6420      34.054539       0.04227
  46    0.1487        1.5875        0.0000       35.6419       35.6419      34.054418       0.04411
  45    0.1794        1.5875        0.0000       35.6417       35.6417      34.054248       0.04670
  44    0.2165        1.5875        0.0000       35.6415       35.6415      34.054041       0.04716
  43    0.2613        1.5875        0.0000       35.6412       35.6412      34.053789       0.04746
  42    0.3336        1.5874        0.0000       35.6408       35.6408      34.053362       0.04977
  41    0.4307        1.5874        0.0000       35.6402       35.6402      34.052781       0.05056
  40    0.5894        1.5874        0.0001       35.6392       35.6392      34.051812       0.05151
  39     1.339        1.5873        0.0001       35.6343       35.6345      34.047119       0.05284
  38     1.782        1.5873        0.0002       35.6315       35.6317      34.044360       0.05253
  37     2.292        1.5872        0.0002       35.6282       35.6284      34.041187       0.05255
  36     2.964        1.5872        0.0003       35.6239       35.6242      34.037055       0.05187
  35     3.853        1.5871        0.0004       35.6183       35.6187      34.031655       0.05124
  34     5.035        1.5870        0.0005       35.6110       35.6115      34.024583       0.05052
  33     6.613        1.5868        0.0007       35.6014       35.6021      34.015311       0.04957
  32     8.786        1.5866        0.0009       35.5888       35.5897      34.003144       0.04725
  31     11.80        1.5863        0.0013       35.5714       35.5726      33.986367       0.04697
  30     15.07        1.5859        0.0016       35.5535       35.5551      33.969138       0.04448
  29     18.79        1.5856        0.0020       35.5341       35.5361      33.950580       0.04208
  28     23.16        1.5851        0.0025       35.5127       35.5151      33.930022       0.03975
  27     28.12        1.5846        0.0030       35.4894       35.4924      33.907756       0.03785
  26     33.73        1.5841        0.0036       35.4649       35.4685      33.884449       0.03504
  25     40.54        1.5834        0.0043       35.4373       35.4417      33.858291       0.03245
  24     48.69        1.5825        0.0052       35.4066       35.4118      33.829245       0.03006
  23     57.69        1.5816        0.0061       35.3757       35.3819      33.800252       0.02718
  22     68.43        1.5806        0.0073       35.3424       35.3497      33.769148       0.02445
  21     81.20        1.5793        0.0086       35.3058       35.3144      33.735180       0.02245
  20     96.49        1.5777        0.0102       35.2647       35.2750      33.697256       0.02093
  19     114.6        1.5759        0.0122       35.2174       35.2295      33.653631       0.02037
  18     136.5        1.5737        0.0144       35.1564       35.1708      33.597132       0.02173
  17     162.9        1.5711        0.0171       35.0564       35.0736      33.502433       0.03027
  16     196.4        1.5678        0.0206       34.8530       34.8736      33.305764       0.04950
  15     218.7        1.5656        0.0228       34.6349       34.6577      33.092008       0.08116
  14     243.0        1.5633        0.0251       34.2279       34.2530      32.689665       0.13955
  13     269.0        1.5610        0.0273       33.4105       33.4378      31.876863       0.26367
  12     297.5        1.5585        0.0293       32.3061       32.3355      30.776945       0.32622
  11     328.5        1.5562        0.0313       31.0185       31.0498      29.493578       0.34894
  10     361.9        1.5540        0.0330       29.4969       29.5300      27.975997       0.38396
   9     398.1        1.5520        0.0346       27.8070       27.8416      26.289558       0.39290
   8     437.6        1.5505        0.0358       26.0349       26.0707      24.520194       0.37830
   7     480.5        1.5499        0.0367       24.1835       24.2203      22.670373       0.36330
   6     533.0        1.5507        0.0376       22.1895       22.2271      20.676437       0.32076
   5     589.8        1.5538        0.0385       20.3982       20.4367      18.882933       0.26621
   4     651.6        1.5606        0.0394       18.7761       18.8155      17.254869       0.22264
   3     718.7        1.5720        0.0404       17.3787       17.4192      15.847190       0.17691
   2     792.3        1.5887        0.0417       16.2095       16.2512      14.662461       0.13588
   1     891.5        1.6214        0.0434       14.9445       14.9880      13.366555       0.11028
   0    1013.0        1.6911        0.0453       13.6480       13.6933      12.002155       0.09474



 Wavenumbers:  7700. -  8050. cm-1, ATM      1
 LEVEL PRESSURE   UPWARD FLUX   DIFDOWN FLUX  DIRDOWN FLUX  DOWNWARD FLUX   NET FLUX    HEATING RATE
          mb          W/m2          W/m2          W/m2        W/m2          W/m2       degree/day
  51    .06700        0.8779        0.0000        8.4233        8.4233       7.545486       0.00000
  50    .07753        0.8779        0.0000        8.4233        8.4233       7.545468       0.01467
  49    .09103        0.8779        0.0000        8.4233        8.4233       7.545445       0.01437
  48    0.1069        0.8779        0.0000        8.4233        8.4233       7.545419       0.01407
  47    0.1255        0.8779        0.0000        8.4232        8.4232       7.545388       0.01377
  46    0.1487        0.8779        0.0000        8.4232        8.4232       7.545350       0.01397
  45    0.1794        0.8779        0.0000        8.4231        8.4231       7.545298       0.01438
  44    0.2165        0.8779        0.0000        8.4231        8.4231       7.545236       0.01410
  43    0.2613        0.8779        0.0000        8.4230        8.4230       7.545162       0.01384
  42    0.3336        0.8779        0.0000        8.4229        8.4229       7.545041       0.01416
  41    0.4307        0.8779        0.0000        8.4227        8.4227       7.544880       0.01400
  40    0.5894        0.8779        0.0000        8.4225        8.4225       7.544617       0.01399
  39     1.339        0.8779        0.0001        8.4212        8.4212       7.543373       0.01401
  38     1.782        0.8779        0.0001        8.4204        8.4205       7.542642       0.01391
  37     2.292        0.8779        0.0001        8.4196        8.4197       7.541797       0.01400
  36     2.964        0.8779        0.0001        8.4185        8.4186       7.540687       0.01393
  35     3.853        0.8779        0.0002        8.4170        8.4171       7.539222       0.01391
  34     5.035        0.8779        0.0002        8.4150        8.4152       7.537276       0.01390
  33     6.613        0.8779        0.0003        8.4123        8.4126       7.534679       0.01388
  32     8.786        0.8780        0.0004        8.4088        8.4092       7.531185       0.01357
  31     11.80        0.8780        0.0005        8.4037        8.4042       7.526195       0.01397
  30     15.07        0.8781        0.0006        8.3983        8.3989       7.520850       0.01380
  29     18.79        0.8781        0.0008        8.3921        8.3929       7.514828       0.01365
  28     23.16        0.8782        0.0010        8.3850        8.3860       7.507818       0.01356
  27     28.12        0.8782        0.0012        8.3769        8.3781       7.499833       0.01358
  26     33.73        0.8783        0.0014        8.3678        8.3693       7.490936       0.01338
  25     40.54        0.8784        0.0017        8.3569        8.3587       7.480244       0.01326
  24     48.69        0.8785        0.0021        8.3439        8.3460       7.467437       0.01325
  23     57.69        0.8787        0.0024        8.3297        8.3321       7.453474       0.01309
  22     68.43        0.8788        0.0029        8.3129        8.3158       7.436987       0.01296
  21     81.20        0.8790        0.0034        8.2931        8.2966       7.417546       0.01285
  20     96.49        0.8793        0.0041        8.2699        8.2739       7.394661       0.01263
  19     114.6        0.8796        0.0048        8.2426        8.2474       7.367875       0.01251
  18     136.5        0.8799        0.0057        8.2109        8.2166       7.336650       0.01201
  17     162.9        0.8803        0.0068        8.1738        8.1805       7.300171       0.01166
  16     196.4        0.8809        0.0081        8.1267        8.1348       7.253882       0.01165
  15     218.7        0.8814        0.0090        8.0965        8.1055       7.224111       0.01130
  14     243.0        0.8818        0.0100        8.0641        8.0740       7.192222       0.01106
  13     269.0        0.8823        0.0110        8.0294        8.0404       7.158098       0.01107
  12     297.5        0.8830        0.0121        7.9924        8.0046       7.121604       0.01082
  11     328.5        0.8837        0.0134        7.9527        7.9661       7.082427       0.01065
  10     361.9        0.8845        0.0147        7.9101        7.9248       7.040297       0.01066
   9     398.1        0.8855        0.0160        7.8643        7.8803       6.994838       0.01059
   8     437.6        0.8866        0.0175        7.8146        7.8322       6.945503       0.01055
   7     480.5        0.8881        0.0191        7.7602        7.7793       6.891221       0.01066
   6     533.0        0.8902        0.0211        7.6913        7.7123       6.822161       0.01111
   5     589.8        0.8928        0.0231        7.6141        7.6372       6.744448       0.01154
   4     651.6        0.8961        0.0253        7.5272        7.5525       6.656405       0.01204
   3     718.7        0.9003        0.0277        7.4304        7.4581       6.557764       0.01240
   2     792.3        0.9054        0.0301        7.3244        7.3545       6.449159       0.01246
   1     891.5        0.9133        0.0333        7.1773        7.2106       6.297275       0.01292
   0    1013.0        0.9251        0.0371        6.9883        7.0254       6.100239       0.01368



 Wavenumbers:  8050. - 12850. cm-1, ATM      1
 LEVEL PRESSURE   UPWARD FLUX   DIFDOWN FLUX  DIRDOWN FLUX  DOWNWARD FLUX   NET FLUX    HEATING RATE
          mb          W/m2          W/m2          W/m2        W/m2          W/m2       degree/day
  51    .06700       21.2267        0.0000      117.9329      117.9329      96.706267       0.00000
  50    .07753       21.2266        0.0000      117.9329      117.9329      96.706267       0.00000
  49    .09103       21.2266        0.0001      117.9328      117.9329      96.706267       0.00000
  48    0.1069       21.2266        0.0001      117.9328      117.9329      96.706267       0.00000
  47    0.1255       21.2266        0.0001      117.9327      117.9328      96.706267       0.00000
  46    0.1487       21.2265        0.0002      117.9326      117.9328      96.706267      -0.00000
  45    0.1794       21.2265        0.0002      117.9325      117.9327      96.706267       0.00000
  44    0.2165       21.2264        0.0003      117.9323      117.9327      96.706267       0.00000
  43    0.2613       21.2263        0.0004      117.9322      117.9326      96.706267      -0.00000
  42    0.3336       21.2262        0.0006      117.9319      117.9325      96.706267       0.00000
  41    0.4307       21.2260        0.0008      117.9315      117.9323      96.706267       0.00000
  40    0.5894       21.2257        0.0011      117.9309      117.9320      96.706267       0.00000
  39     1.339       21.2244        0.0028      117.9279      117.9307      96.706267      -0.00000
  38     1.782       21.2236        0.0037      117.9262      117.9299      96.706267       0.00000
  37     2.292       21.2227        0.0048      117.9242      117.9290      96.706267       0.00000
  36     2.964       21.2215        0.0063      117.9215      117.9278      96.706267      -0.00000
  35     3.853       21.2200        0.0082      117.9180      117.9262      96.706267       0.00000
  34     5.035       21.2179        0.0107      117.9134      117.9241      96.706267      -0.00000
  33     6.613       21.2151        0.0142      117.9072      117.9213      96.706267       0.00000
  32     8.786       21.2113        0.0188      117.8988      117.9176      96.706267       0.00000
  31     11.80       21.2059        0.0253      117.8868      117.9122      96.706267      -0.00000
  30     15.07       21.2001        0.0324      117.8740      117.9064      96.706267       0.00000
  29     18.79       21.1936        0.0404      117.8594      117.8998      96.706267      -0.00000
  28     23.16       21.1859        0.0498      117.8424      117.8922      96.706267       0.00000
  27     28.12       21.1771        0.0605      117.8229      117.8834      96.706267      -0.00000
  26     33.73       21.1673        0.0725      117.8011      117.8735      96.706267       0.00000
  25     40.54       21.1554        0.0870      117.7746      117.8616      96.706267      -0.00000
  24     48.69       21.1410        0.1045      117.7427      117.8473      96.706267       0.00000
  23     57.69       21.1252        0.1238      117.7077      117.8314      96.706267      -0.00000
  22     68.43       21.1063        0.1468      117.6658      117.8126      96.706267       0.00000
  21     81.20       21.0838        0.1742      117.6159      117.7901      96.706267       0.00000
  20     96.49       21.0569        0.2069      117.5563      117.7632      96.706267      -0.00000
  19     114.6       21.0250        0.2458      117.4777      117.7236      96.698576       0.00359
  18     136.5       20.9871        0.2920      117.3825      117.6746      96.687491       0.00426
  17     162.9       20.9419        0.3472      117.2596      117.6068      96.664931       0.00721
  16     196.4       20.8831        0.4187      117.0688      117.4875      96.604387       0.01524
  15     218.7       20.8445        0.4658      116.9056      117.3714      96.526868       0.02943
  14     243.0       20.8025        0.5168      116.6583      117.1751      96.372601       0.05351
  13     269.0       20.7575        0.5718      116.2377      116.8095      96.051986       0.10401
  12     297.5       20.7095        0.6308      115.6558      116.2865      95.577041       0.14086
  11     328.5       20.6590        0.6939      114.8855      115.5793      94.920379       0.17854
  10     361.9       20.6066        0.7609      113.8560      114.6169      94.010261       0.23027
   9     398.1       20.5533        0.8316      112.5292      113.3607      92.807445       0.28023
   8     437.6       20.5009        0.9055      110.8547      111.7602      91.259316       0.33100
   7     480.5       20.4530        0.9816      108.7159      109.6975      89.244487       0.39570
   6     533.0       20.4081        1.0714      105.8337      106.9050      86.496956       0.44199
   5     589.8       20.3801        1.1637      102.6411      103.8048      83.424707       0.45602
   4     651.6       20.3803        1.2583       99.1671      100.4254      80.045144       0.46216
   3     718.7       20.4153        1.3559       95.5999       96.9558      76.540513       0.44044
   2     792.3       20.4916        1.4570       92.1023       93.5594      73.067770       0.39828
   1     891.5       20.6777        1.5873       87.7789       89.3662      68.688515       0.37265
   0    1013.0       21.1227        1.7318       82.8435       84.5753      63.452557       0.36356



 Wavenumbers: 12850. - 16000. cm-1, ATM      1
 LEVEL PRESSURE   UPWARD FLUX   DIFDOWN FLUX  DIRDOWN FLUX  DOWNWARD FLUX   NET FLUX    HEATING RATE
          mb          W/m2          W/m2          W/m2        W/m2          W/m2       degree/day
  51    .06700       35.8708        0.0000       73.8954       73.8954      38.024604       0.00000
  50    .07753       35.8708        0.0001       73.8945       73.8946      38.023824       0.62562
  49    .09103       35.8707        0.0001       73.8935       73.8936      38.022849       0.60944
  48    0.1069       35.8707        0.0002       73.8922       73.8924      38.021735       0.59260
  47    0.1255       35.8707        0.0003       73.8908       73.8911      38.020465       0.57576
  46    0.1487       35.8706        0.0004       73.8891       73.8895      38.018876       0.57937
  45    0.1794       35.8706        0.0006       73.8867       73.8873      38.016735       0.58773
  44    0.2165       35.8705        0.0008       73.8840       73.8848      38.014246       0.56617
  43    0.2613       35.8705        0.0010       73.8808       73.8818      38.011358       0.54441
  42    0.3336       35.8704        0.0014       73.8757       73.8771      38.006719       0.54083
  41    0.4307       35.8704        0.0019       73.8693       73.8712      38.000860       0.50949
  40    0.5894       35.8704        0.0027       73.8595       73.8622      37.991888       0.47708
  39     1.339       35.8716        0.0066       73.8188       73.8254      37.953814       0.42865
  38     1.782       35.8733        0.0089       73.7961       73.8050      37.931735       0.42036
  37     2.292       35.8762        0.0115       73.7689       73.7804      37.904230       0.45555
  36     2.964       35.8813        0.0150       73.7300       73.7450      37.863672       0.50913
  35     3.853       35.8900        0.0196       73.6731       73.6927      37.802722       0.57843
  34     5.035       35.9035        0.0256       73.5920       73.6176      37.714162       0.63263
  33     6.613       35.9224        0.0338       73.4811       73.5149      37.592422       0.65082
  32     8.786       35.9470        0.0447       73.3367       73.3813      37.434342       0.61393
  31     11.80       35.9783        0.0602       73.1456       73.2059      37.227542       0.57897
  30     15.07       36.0076        0.0769       72.9584       73.0353      37.027720       0.51590
  29     18.79       36.0367        0.0957       72.7631       72.8589      36.822153       0.46608
  28     23.16       36.0662        0.1176       72.5537       72.6714      36.605205       0.41951
  27     28.12       36.0945        0.1427       72.3359       72.4785      36.384017       0.37600
  26     33.73       36.1187        0.1706       72.1220       72.2926      36.173883       0.31594
  25     40.54       36.1391        0.2044       71.8978       72.1022      35.963124       0.26147
  24     48.69       36.1551        0.2450       71.6619       71.9069      35.751753       0.21874
  23     57.69       36.1645        0.2896       71.4358       71.7254      35.560933       0.17886
  22     68.43       36.1666        0.3426       71.2019       71.5445      35.377903       0.14389
  21     81.20       36.1569        0.4058       70.9692       71.3751      35.218130       0.10558
  20     96.49       36.1340        0.4812       70.7337       71.2149      35.080831       0.07578
  19     114.6       36.1076        0.5711       70.4719       71.0430      34.935464       0.06788
  18     136.5       36.0710        0.6776       70.1745       70.8521      34.781141       0.05934
  17     162.9       36.0226        0.8042       69.8295       70.6337      34.611139       0.05434
  16     196.4       35.9497        0.9680       69.4038       70.3718      34.422029       0.04760
  15     218.7       35.8982        1.0754       69.1313       70.2067      34.308460       0.04312
  14     243.0       35.8406        1.1919       68.8371       70.0290      34.188392       0.04164
  13     269.0       35.7767        1.3179       68.5189       69.8368      34.060038       0.04164
  12     297.5       35.7067        1.4539       68.1734       69.6272      33.920507       0.04138
  11     328.5       35.6314        1.6004       67.7934       69.3939      33.762487       0.04297
  10     361.9       35.5514        1.7579       67.3735       69.1314      33.580007       0.04617
   9     398.1       35.4673        1.9268       66.9066       68.8334      33.366078       0.04984
   8     437.6       35.3810        2.1074       66.3805       68.4879      33.106908       0.05541
   7     480.5       35.2956        2.2999       65.7751       68.0751      32.779415       0.06432
   6     533.0       35.2027        2.5351       64.9731       67.5082      32.305433       0.07625
   5     589.8       35.1177        2.7854       64.0600       66.8454      31.727649       0.08576
   4     651.6       35.0472        3.0501       63.0296       66.0797      31.032480       0.09507
   3     718.7       34.9946        3.3297       61.9050       65.2347      30.240165       0.09957
   2     792.3       34.9641        3.6240       60.7115       64.3355      29.371370       0.09964
   1     891.5       34.9763        4.0122       59.1098       63.1220      28.145742       0.10430
   0    1013.0       35.1012        4.4635       57.1685       61.6320      26.530844       0.11213



 Wavenumbers: 16000. - 22650. cm-1, ATM      1
 LEVEL PRESSURE   UPWARD FLUX   DIFDOWN FLUX  DIRDOWN FLUX  DOWNWARD FLUX   NET FLUX    HEATING RATE
          mb          W/m2          W/m2          W/m2        W/m2          W/m2       degree/day
  51    .06700       87.5326        0.0000      117.8180      117.8180      30.285465       0.00000
  50    .07753       87.5325        0.0003      117.8175      117.8178      30.285343       0.09830
  49    .09103       87.5323        0.0008      117.8167      117.8175      30.285164       0.11150
  48    0.1069       87.5322        0.0013      117.8159      117.8171      30.284925       0.12714
  47    0.1255       87.5321        0.0018      117.8149      117.8167      30.284606       0.14493
  46    0.1487       87.5319        0.0025      117.8135      117.8160      30.284135       0.17173
  45    0.1794       87.5317        0.0035      117.8116      117.8151      30.283398       0.20220
  44    0.2165       87.5315        0.0046      117.8093      117.8139      30.282399       0.22725
  43    0.2613       87.5314        0.0060      117.8064      117.8124      30.281044       0.25548
  42    0.3336       87.5312        0.0083      117.8014      117.8097      30.278467       0.30044
  41    0.4307       87.5312        0.0112      117.7945      117.8058      30.274583       0.33772
  40    0.5894       87.5314        0.0161      117.7825      117.7986      30.267175       0.39393
  39     1.339       87.5390        0.0392      117.7122      117.7514      30.212453       0.61606
  38     1.782       87.5481        0.0527      117.6612      117.7139      30.165847       0.88732
  37     2.292       87.5630        0.0684      117.5930      117.6614      30.098397       1.11714
  36     2.964       87.5892        0.0890      117.4894      117.5784      29.989162       1.37123
  35     3.853       87.6334        0.1161      117.3332      117.4493      29.815914       1.64415
  34     5.035       87.7013        0.1521      117.1068      117.2589      29.557629       1.84509
  33     6.613       87.7968        0.2002      116.7957      116.9959      29.199051       1.91696
  32     8.786       87.9207        0.2647      116.3890      116.6538      28.733094       1.80961
  31     11.80       88.0796        0.3569      115.8490      116.2058      28.126226       1.69904
  30     15.07       88.2290        0.4555      115.3171      115.7726      27.543606       1.50421
  29     18.79       88.3787        0.5666      114.7597      115.3264      26.947680       1.35115
  28     23.16       88.5315        0.6961      114.1583      114.8544      26.322845       1.20823
  27     28.12       88.6805        0.8436      113.5275      114.3711      25.690572       1.07482
  26     33.73       88.8103        1.0083      112.9000      113.9083      25.098010       0.89093
  25     40.54       88.9243        1.2068      112.2312      113.4380      24.513662       0.72495
  24     48.69       89.0203        1.4454      111.5114      112.9568      23.936503       0.59727
  23     57.69       89.0858        1.7067      110.8037      112.5103      23.424547       0.47988
  22     68.43       89.1206        2.0169      110.0488      112.0657      22.945062       0.37694
  21     81.20       89.1031        2.3854      109.2670      111.6524      22.549329       0.26149
  20     96.49       89.0277        2.8231      108.4440      111.2671      22.239479       0.17102
  19     114.6       88.9107        3.3399      107.5270      110.8669      21.956219       0.13226
  18     136.5       88.7539        3.9484      106.4838      110.4322      21.678256       0.10688
  17     162.9       88.5511        4.6670      105.2848      109.9517      21.400580       0.08876
  16     196.4       88.2529        5.5902      103.8142      109.4044      21.151592       0.06267
  15     218.7       88.0445        6.1912      102.8826      109.0738      21.029262       0.04644
  14     243.0       87.8128        6.8395      101.8892      108.7287      20.915877       0.03933
  13     269.0       87.5565        7.5366      100.8330      108.3696      20.813055       0.03335
  12     297.5       87.2748        8.2835       99.7123      107.9958      20.720951       0.02732
  11     328.5       86.9694        9.0831       98.5167      107.5998      20.630413       0.02462
  10     361.9       86.6401        9.9355       97.2455      107.1810      20.540878       0.02265
   9     398.1       86.2860       10.8431       95.8940      106.7370      20.451042       0.02093
   8     437.6       85.9076       11.8067       94.4582      106.2649      20.357332       0.02004
   7     480.5       85.5050       12.8271       92.9343      105.7614      20.256339       0.01983
   6     533.0       85.0150       14.0655       91.0776      105.1431      20.128103       0.02063
   5     589.8       84.4952       15.3790       89.0969      104.4759      19.980715       0.02188
   4     651.6       83.9479       16.7663       86.9892      103.7555      19.807635       0.02367
   3     718.7       83.3730       18.2260       84.7580      102.9839      19.610924       0.02472
   2     792.3       82.7730       19.7535       82.4097      102.1631      19.390105       0.02533
   1     891.5       81.9929       21.7562       79.3032      101.0594      19.066450       0.02754
   0    1013.0       81.1049       24.0751       75.6590       99.7342      18.629329       0.03035



 Wavenumbers: 22650. - 29000. cm-1, ATM      1
 LEVEL PRESSURE   UPWARD FLUX   DIFDOWN FLUX  DIRDOWN FLUX  DOWNWARD FLUX   NET FLUX    HEATING RATE
          mb          W/m2          W/m2          W/m2        W/m2          W/m2       degree/day
  51    .06700       39.8771        0.0000       44.4602       44.4602       4.583189       0.00000
  50    .07753       39.8769        0.0004       44.4597       44.4601       4.583189       0.00000
  49    .09103       39.8767        0.0009       44.4590       44.4599       4.583189       0.00000
  48    0.1069       39.8765        0.0015       44.4582       44.4597       4.583189       0.00000
  47    0.1255       39.8763        0.0022       44.4573       44.4594       4.583189       0.00000
  46    0.1487       39.8759        0.0030       44.4561       44.4591       4.583189       0.00000
  45    0.1794       39.8755        0.0042       44.4545       44.4587       4.583189      -0.00000
  44    0.2165       39.8750        0.0055       44.4527       44.4582       4.583189       0.00000
  43    0.2613       39.8744        0.0071       44.4505       44.4576       4.583189       0.00000
  42    0.3336       39.8734        0.0098       44.4468       44.4566       4.583189       0.00000
  41    0.4307       39.8721        0.0134       44.4419       44.4553       4.583189       0.00000
  40    0.5894       39.8700        0.0192       44.4340       44.4532       4.583189      -0.00000
  39     1.339       39.8598        0.0466       44.3964       44.4430       4.583189       0.00000
  38     1.782       39.8539        0.0627       44.3744       44.4371       4.583189      -0.00000
  37     2.292       39.8470        0.0814       44.3488       44.4302       4.583189       0.00000
  36     2.964       39.8380        0.1058       44.3153       44.4212       4.583189       0.00000
  35     3.853       39.8260        0.1381       44.2711       44.4092       4.583189       0.00000
  34     5.035       39.8102        0.1810       44.2124       44.3934       4.583189       0.00000
  33     6.613       39.7891        0.2382       44.1340       44.3722       4.583189       0.00000
  32     8.786       39.7606        0.3152       44.0286       44.3438       4.583189       0.00000
  31     11.80       39.7200        0.4250       43.8781       44.3031       4.583189       0.00000
  30     15.07       39.6764        0.5427       43.7170       44.2596       4.583189      -0.00000
  29     18.79       39.6274        0.6751       43.5355       44.2106       4.583189       0.00000
  28     23.16       39.5703        0.8292       43.3243       44.1535       4.583189      -0.00000
  27     28.12       39.5052        1.0047       43.0838       44.0884       4.583189       0.00000
  26     33.73       39.4328        1.2000       42.8160       44.0159       4.583189      -0.00000
  25     40.54       39.3456        1.4344       42.4944       43.9288       4.583189       0.00000
  24     48.69       39.2413        1.7149       42.1095       43.8245       4.583189      -0.00000
  23     57.69       39.1276        2.0203       41.6905       43.7108       4.583189       0.00000
  22     68.43       38.9933        2.3801       41.1963       43.5765       4.583189       0.00000
  21     81.20       38.8350        2.8034       40.6148       43.4182       4.583189       0.00000
  20     96.49       38.6489        3.3000       39.9320       43.2320       4.583189       0.00000
  19     114.6       38.4313        3.8788       39.1356       43.0144       4.583189       0.00000
  18     136.5       38.1781        4.5498       38.2115       42.7613       4.583189       0.00000
  17     162.9       37.8832        5.3278       37.1386       42.4664       4.583189      -0.00000
  16     196.4       37.5113        6.3035       35.7910       42.0945       4.583189       0.00000
  15     218.7       37.2732        6.9246       34.9318       41.8564       4.583189       0.00000
  14     243.0       37.0199        7.5825       34.0206       41.6031       4.583189       0.00000
  13     269.0       36.7516        8.2758       33.0590       41.3347       4.583189      -0.00000
  12     297.5       36.4686        9.0025       32.0493       41.0518       4.583189       0.00000
  11     328.5       36.1708        9.7625       30.9914       40.7540       4.583189       0.00000
  10     361.9       35.8589       10.5525       29.8897       40.4421       4.583189       0.00000
   9     398.1       35.5331       11.3712       28.7451       40.1163       4.583189       0.00000
   8     437.6       35.1943       12.2148       27.5627       39.7775       4.583189      -0.00000
   7     480.5       34.8431       13.0806       26.3456       39.4262       4.583189       0.00000
   6     533.0       34.4270       14.0936       24.9166       39.0102       4.583189       0.00000
   5     589.8       33.9970       15.1250       23.4552       38.5802       4.583189      -0.00000
   4     651.6       33.5554       16.1664       21.9722       38.1386       4.583189       0.00000
   3     718.7       33.1046       17.2083       20.4795       37.6878       4.583189       0.00000
   2     792.3       32.6469       18.2426       18.9875       37.2301       4.583189      -0.00000
   1     891.5       32.0671       19.5142       17.1361       36.6503       4.583189       0.00000
   0    1013.0       31.4230       20.8692       15.1370       36.0062       4.583189      -0.00000



 Wavenumbers: 29000. - 38000. cm-1, ATM      1
 LEVEL PRESSURE   UPWARD FLUX   DIFDOWN FLUX  DIRDOWN FLUX  DOWNWARD FLUX   NET FLUX    HEATING RATE
          mb          W/m2          W/m2          W/m2        W/m2          W/m2       degree/day
  51    .06700        5.7793        0.0000       15.6785       15.6785       9.899243       0.00000
  50    .07753        5.7791        0.0003       15.6742       15.6745       9.895442       3.04638
  49    .09103        5.7788        0.0007       15.6681       15.6687       9.889917       3.45316
  48    0.1069        5.7785        0.0011       15.6599       15.6611       9.882529       3.93268
  47    0.1255        5.7782        0.0016       15.6492       15.6509       9.872663       4.47282
  46    0.1487        5.7778        0.0022       15.6337       15.6360       9.858176       5.28061
  45    0.1794        5.7772        0.0031       15.6098       15.6129       9.835676       6.17681
  44    0.2165        5.7766        0.0041       15.5780       15.5821       9.805463       6.87296
  43    0.2613        5.7759        0.0053       15.5357       15.5409       9.765042       7.61920
  42    0.3336        5.7747        0.0072       15.4576       15.4648       9.690032       8.74539
  41    0.4307        5.7733        0.0097       15.3450       15.3547       9.581426       9.44310
  40    0.5894        5.7711        0.0137       15.1459       15.1596       9.388472      10.26103
  39     1.339        5.7638        0.0305       14.1080       14.1385       8.374702      11.41321
  38     1.782        5.7613        0.0392       13.5691       13.6083       7.846920      10.04812
  37     2.292        5.7600        0.0484       13.0422       13.0906       7.330578       8.55198
  36     2.964        5.7604        0.0598       12.4702       12.5299       6.769533       7.04280
  35     3.853        5.7638        0.0739       11.8594       11.9333       6.169456       5.69485
  34     5.035        5.7713        0.0916       11.2395       11.3311       5.559850       4.35477
  33     6.613        5.7832        0.1141       10.6392       10.7533       4.970127       3.15266
  32     8.786        5.7991        0.1432       10.0712       10.2144       4.415309       2.15471
  31     11.80        5.8192        0.1834        9.5130        9.6965       3.877217       1.50649
  30     15.07        5.8377        0.2250        9.0826        9.3077       3.469963       1.05145
  29     18.79        5.8560        0.2706        8.7060        8.9766       3.120634       0.79204
  28     23.16        5.8742        0.3221        8.3552        8.6772       2.803006       0.61419
  27     28.12        5.8915        0.3792        8.0303        8.4095       2.517970       0.48454
  26     33.73        5.9046        0.4417        7.7391        8.1809       2.276317       0.36333
  25     40.54        5.9128        0.5158        7.4546        7.9704       2.057661       0.27127
  24     48.69        5.9156        0.6030        7.1705        7.7734       1.857878       0.20674
  23     57.69        5.9118        0.6964        6.9076        7.6040       1.692216       0.15528
  22     68.43        5.8997        0.8051        6.6405        7.4456       1.545956       0.11498
  21     81.20        5.8738        0.9320        6.3730        7.3051       1.431217       0.07582
  20     96.49        5.8328        1.0795        6.0985        7.1780       1.345239       0.04745
  19     114.6        5.7807        1.2476        5.8030        7.0506       1.269925       0.03517
  18     136.5        5.7186        1.4373        5.4800        6.9173       1.198744       0.02737
  17     162.9        5.6461        1.6498        5.1266        6.7764       1.130333       0.02187
  16     196.4        5.5511        1.9071        4.7153        6.6225       1.071329       0.01485
  15     218.7        5.4899        2.0657        4.4672        6.5329       1.043013       0.01075
  14     243.0        5.4254        2.2283        4.2143        6.4426       1.017207       0.00895
  13     269.0        5.3577        2.3946        3.9574        6.3520       0.994314       0.00743
  12     297.5        5.2871        2.5631        3.6983        6.2614       0.974385       0.00591
  11     328.5        5.2145        2.7324        3.4377        6.1701       0.955567       0.00512
  10     361.9        5.1405        2.9006        3.1778        6.0784       0.937903       0.00447
   9     398.1        5.0652        3.0669        2.9197        5.9866       0.921391       0.00385
   8     437.6        4.9891        3.2300        2.6647        5.8948       0.905690       0.00336
   7     480.5        4.9127        3.3878        2.4159        5.8037       0.890995       0.00289
   6     533.0        4.8252        3.5608        2.1396        5.7004       0.875210       0.00254
   5     589.8        4.7384        3.7231        1.8755        5.5986       0.860171       0.00223
   4     651.6        4.6531        3.8724        1.6264        5.4988       0.845688       0.00198
   3     718.7        4.5696        4.0074        1.3939        5.4013       0.831723       0.00176
   2     792.3        4.4883        4.1262        1.1804        5.3066       0.818263       0.00154
   1     891.5        4.3901        4.2510        0.9411        5.1920       0.801930       0.00139
   0    1013.0        4.2865        4.3563        0.7145        5.0708       0.784247       0.00123



 Wavenumbers: 38000. - 50000. cm-1, ATM      1
 LEVEL PRESSURE   UPWARD FLUX   DIFDOWN FLUX  DIRDOWN FLUX  DOWNWARD FLUX   NET FLUX    HEATING RATE
          mb          W/m2          W/m2          W/m2        W/m2          W/m2       degree/day
  51    .06700        0.0055        0.0000        0.9670        0.9670       0.961557       0.00000
  50    .07753        0.0054        0.0001        0.9646        0.9646       0.959223       1.87018
  49    .09103        0.0053        0.0002        0.9611        0.9612       0.955897       2.07920
  48    0.1069        0.0053        0.0002        0.9565        0.9568       0.951530       2.32416
  47    0.1255        0.0052        0.0004        0.9506        0.9510       0.945800       2.59773
  46    0.1487        0.0051        0.0005        0.9421        0.9426       0.937529       3.01499
  45    0.1794        0.0049        0.0007        0.9291        0.9298       0.924888       3.47021
  44    0.2165        0.0047        0.0009        0.9121        0.9129       0.908213       3.79334
  43    0.2613        0.0045        0.0011        0.8897        0.8909       0.886340       4.12290
  42    0.3336        0.0042        0.0015        0.8495        0.8510       0.846821       4.60761
  41    0.4307        0.0038        0.0019        0.7936        0.7955       0.791657       4.79631
  40    0.5894        0.0033        0.0025        0.7000        0.7025       0.699232       4.91507
  39     1.339        0.0017        0.0032        0.3266        0.3298       0.328051       4.17882
  38     1.782        0.0012        0.0028        0.2066        0.2094       0.208165       2.28244
  37     2.292        0.0009        0.0024        0.1299        0.1323       0.131391       1.27158
  36     2.964        0.0006        0.0019        0.0776        0.0795       0.078945       0.65836
  35     3.853        0.0004        0.0015        0.0436        0.0451       0.044708       0.32491
  34     5.035        0.0002        0.0011        0.0236        0.0247       0.024454       0.14469
  33     6.613        0.0001        0.0008        0.0121        0.0129       0.012725       0.06270
  32     8.786        0.0001        0.0005        0.0055        0.0060       0.005939       0.02635
  31     11.80        0.0000        0.0003        0.0020        0.0023       0.002306       0.01017
  30     15.07        0.0000        0.0002        0.0008        0.0010       0.000954       0.00349
  29     18.79        0.0000        0.0001        0.0003        0.0004       0.000393       0.00127
  28     23.16        0.0000        0.0001        0.0001        0.0002       0.000156       0.00046
  27     28.12        0.0000        0.0000        0.0000        0.0001       0.000061       0.00016
  26     33.73        0.0000        0.0000        0.0000        0.0000       0.000024       0.00005
  25     40.54        0.0000        0.0000        0.0000        0.0000       0.000009       0.00002
  24     48.69        0.0000        0.0000        0.0000        0.0000       0.000003       0.00001
  23     57.69        0.0000        0.0000        0.0000        0.0000       0.000001       0.00000
  22     68.43        0.0000        0.0000        0.0000        0.0000       0.000000       0.00000
  21     81.20        0.0000        0.0000        0.0000        0.0000       0.000000       0.00000
  20     96.49        0.0000        0.0000        0.0000        0.0000       0.000000       0.00000
  19     114.6        0.0000        0.0000        0.0000        0.0000       0.000000       0.00000
  18     136.5        0.0000        0.0000        0.0000        0.0000       0.000000       0.00000
  17     162.9        0.0000        0.0000        0.0000        0.0000       0.000000       0.00000
  16     196.4        0.0000        0.0000        0.0000        0.0000       0.000000       0.00000
  15     218.7        0.0000        0.0000        0.0000        0.0000       0.000000       0.00000
  14     243.0        0.0000        0.0000        0.0000        0.0000       0.000000       0.00000
  13     269.0        0.0000        0.0000        0.0000        0.0000       0.000000       0.00000
  12     297.5        0.0000        0.0000        0.0000        0.0000       0.000000       0.00000
  11     328.5        0.0000        0.0000        0.0000        0.0000       0.000000       0.00000
  10     361.9        0.0000        0.0000        0.0000        0.0000       0.000000       0.00000
   9     398.1        0.0000        0.0000        0.0000        0.0000       0.000000       0.00000
   8     437.6        0.0000        0.0000        0.0000        0.0000       0.000000       0.00000
   7     480.5        0.0000        0.0000        0.0000        0.0000       0.000000       0.00000
   6     533.0        0.0000        0.0000        0.0000        0.0000       0.000000       0.00000
   5     589.8        0.0000        0.0000        0.0000        0.0000       0.000000       0.00000
   4     651.6        0.0000        0.0000        0.0000        0.0000       0.000000       0.00000
   3     718.7        0.0000        0.0000        0.0000        0.0000       0.000000       0.00000
   2     792.3        0.0000        0.0000        0.0000        0.0000       0.000000       0.00000
   1     891.5        0.0000        0.0000        0.0000        0.0000       0.000000       0.00000
   0    1013.0        0.0000        0.0000        0.0000        0.0000       0.000000       0.00000



 Wavenumbers:   820. -  2600. cm-1, ATM      1
 LEVEL PRESSURE   UPWARD FLUX   DIFDOWN FLUX  DIRDOWN FLUX  DOWNWARD FLUX   NET FLUX    HEATING RATE
          mb          W/m2          W/m2          W/m2        W/m2          W/m2       degree/day
  51    .06700        0.1144        0.0000        4.5237        4.5237       4.409271       0.00000
  50    .07753        0.1144        0.0000        4.5206        4.5206       4.406202       2.45992
  49    .09103        0.1144        0.0000        4.5198        4.5198       4.405373       0.51800
  48    0.1069        0.1144        0.0000        4.5189        4.5189       4.404449       0.49190
  47    0.1255        0.1144        0.0000        4.5179        4.5179       4.403435       0.45982
  46    0.1487        0.1144        0.0000        4.5167        4.5167       4.402241       0.43516
  45    0.1794        0.1144        0.0000        4.5152        4.5152       4.400780       0.40114
  44    0.2165        0.1144        0.0000        4.5137        4.5137       4.399257       0.34627
  43    0.2613        0.1144        0.0000        4.5121        4.5121       4.397654       0.30220
  42    0.3336        0.1144        0.0000        4.5097        4.5097       4.395258       0.27942
  41    0.4307        0.1144        0.0000        4.5066        4.5066       4.392231       0.26312
  40    0.5894        0.1144        0.0000        4.5017        4.5017       4.387296       0.26247
  39     1.339        0.1144        0.0000        4.4792        4.4792       4.364734       0.25401
  38     1.782        0.1144        0.0000        4.4667        4.4667       4.352241       0.23783
  37     2.292        0.1144        0.0000        4.4528        4.4528       4.338342       0.23021
  36     2.964        0.1144        0.0000        4.4354        4.4354       4.321008       0.21759
  35     3.853        0.1144        0.0000        4.4139        4.4139       4.299500       0.20412
  34     5.035        0.1144        0.0000        4.3873        4.3873       4.272862       0.19029
  33     6.613        0.1144        0.0000        4.3541        4.3541       4.239671       0.17744
  32     8.786        0.1144        0.0000        4.3135        4.3135       4.199085       0.15762
  31     11.80        0.1144        0.0000        4.2662        4.2662       4.151826       0.13231
  30     15.07        0.1144        0.0000        4.2294        4.2294       4.114971       0.09515
  29     18.79        0.1144        0.0000        4.2004        4.2004       4.085957       0.06578
  28     23.16        0.1144        0.0000        4.1758        4.1758       4.061413       0.04746
  27     28.12        0.1144        0.0000        4.1527        4.1527       4.038282       0.03932
  26     33.73        0.1144        0.0000        4.1288        4.1288       4.014341       0.03600
  25     40.54        0.1144        0.0000        4.1009        4.1009       3.986500       0.03454
  24     48.69        0.1144        0.0000        4.0684        4.0684       3.953966       0.03367
  23     57.69        0.1144        0.0000        4.0340        4.0340       3.919562       0.03225
  22     68.43        0.1144        0.0000        3.9952        3.9952       3.880734       0.03052
  21     81.20        0.1144        0.0000        3.9518        3.9518       3.837407       0.02863
  20     96.49        0.1144        0.0000        3.9036        3.9036       3.789203       0.02660
  19     114.6        0.1144        0.0000        3.8493        3.8493       3.734840       0.02538
  18     136.5        0.1145        0.0000        3.7851        3.7851       3.670691       0.02467
  17     162.9        0.1145        0.0000        3.6985        3.6985       3.584036       0.02770
  16     196.4        0.1145        0.0000        3.5697        3.5697       3.455200       0.03243
  15     218.7        0.1145        0.0000        3.4888        3.4888       3.374284       0.03072
  14     243.0        0.1146        0.0000        3.3913        3.3913       3.276757       0.03383
  13     269.0        0.1146        0.0000        3.2579        3.2579       3.143269       0.04330
  12     297.5        0.1147        0.0000        3.0755        3.0755       2.960789       0.05412
  11     328.5        0.1149        0.0000        2.8385        2.8385       2.723641       0.06448
  10     361.9        0.1152        0.0000        2.5917        2.5917       2.476551       0.06252
   9     398.1        0.1156        0.0000        2.3963        2.3964       2.280821       0.04560
   8     437.6        0.1161        0.0000        2.2566        2.2566       2.140500       0.03000
   7     480.5        0.1169        0.0000        2.1328        2.1328       2.015897       0.02447
   6     533.0        0.1183        0.0000        1.9829        1.9829       1.864678       0.02433
   5     589.8        0.1202        0.0000        1.8292        1.8292       1.709000       0.02311
   4     651.6        0.1231        0.0000        1.6806        1.6807       1.557587       0.02071
   3     718.7        0.1269        0.0000        1.5493        1.5493       1.422443       0.01698
   2     792.3        0.1316        0.0000        1.4335        1.4335       1.301898       0.01383
   1     891.5        0.1396        0.0000        1.2897        1.2898       1.150176       0.01291
   0    1013.0        0.1542        0.0000        1.1037        1.1038       0.949589       0.01393

  Modules and versions used in this calculation:

       rrtmg_sw.1col.f90:  $Revision$                    rrtmg_sw_init.f90:  $Revision$        
     rrtmgsw_cldprop.f90:  $Revision$                  rrtmgsw_cldprmc.f90:  NOT USED          
     rrtmg_sw_reftra.f90:  $Revision$                  rrtmg_sw_spcvrt.f90:  NOT USED          
     rrtmg_sw_spcvmc.f90:  NOT USED                    rrtmgsw_setcoef.f90:  NOT USED          
     rrtmg_sw_taumol.f90:  $Revision$                  rrtmg_sw_vrtqdr.f90:  NOT USED          
                rrtatm.f:  NOT USED                             util_xxx.f:  NOT USED          
                 extra.f:  NOT USED                       rrtmg_sw_k_g.f90:  $Revision$        

