

 Wavenumbers:   820. - 50000. cm-1, ATM      1
 LEVEL PRESSURE   UPWARD FLUX   DIFDOWN FLUX  DIRDOWN FLUX  DOWNWARD FLUX   NET FLUX    HEATING RATE
          mb          W/m2          W/m2          W/m2        W/m2          W/m2       degree/day
  51    .06700      268.4347        0.0000      680.4246      680.4246     411.989876       0.00000
  50    .07753      268.4343        0.0013      680.4063      680.4076     411.973362      13.23626
  49    .09103      268.4338        0.0030      680.3892      680.3921     411.958372       9.36892
  48    0.1069      268.4332        0.0049      680.3693      680.3742     411.940985       9.25536
  47    0.1255      268.4326        0.0070      680.3451      680.3521     411.919559       9.71334
  46    0.1487      268.4319        0.0098      680.3119      680.3216     411.889796      10.84909
  45    0.1794      268.4309        0.0135      680.2628      680.2764     411.845423      12.18121
  44    0.2165      268.4300        0.0179      680.1999      680.2178     411.787871      13.09211
  43    0.2613      268.4290        0.0232      680.1188      680.1420     411.713002      14.11252
  42    0.3336      268.4275        0.0318      679.9729      680.0047     411.577116      15.84295
  41    0.4307      268.4261        0.0431      679.7658      679.8090     411.382888      16.88768
  40    0.5894      268.4245        0.0614      679.4021      679.4635     411.038976      18.28881
  39     1.339      268.4332        0.1438      677.4741      677.6179     409.184659      20.87624
  38     1.782      268.4495        0.1901      676.4299      676.6200     408.170553      19.30694
  37     2.292      268.4783        0.2429      675.3901      675.6330     407.154772      16.82399
  36     2.964      268.5311        0.3110      674.2576      674.5686     406.037492      14.02523
  35     3.853      268.6220        0.4007      673.0210      673.4217     404.799676      11.74710
  34     5.035      268.7633        0.5189      671.6729      672.1918     403.428554       9.79473
  33     6.613      268.9631        0.6760      670.2115      670.8874     401.924323       8.04162
  32     8.786      269.2230        0.8877      668.6184      669.5060     400.283032       6.37418
  31     11.80      269.5576        1.1882      666.7696      667.9578     398.400180       5.27139
  30     15.07      269.8737        1.5086      665.1048      666.6134     396.739745       4.28692
  29     18.79      270.1921        1.8692      663.4575      665.3267     395.134599       3.63936
  28     23.16      270.5196        2.2882      661.7461      664.0343     393.514713       3.13234
  27     28.12      270.8419        2.7652      659.9909      662.7560     391.914134       2.72088
  26     33.73      271.1260        3.2970      658.2492      661.5462     390.420279       2.24605
  25     40.54      271.3797        3.9377      656.3755      660.3131     388.933477       1.84455
  24     48.69      271.5987        4.7062      654.3334      659.0397     387.440962       1.54452
  23     57.69      271.7549        5.5464      652.2888      657.8352     386.080319       1.27540
  22     68.43      271.8490        6.5423      650.0558      656.5981     384.749115       1.04650
  21     81.20      271.8330        7.7232      647.6465      655.3697     383.536704       0.80114
  20     96.49      271.6947        9.1217      645.0084      654.1300     382.435358       0.60786
  19     114.6      271.4792       10.7670      642.0012      652.7683     381.289065       0.53524
  18     136.5      271.1839       12.6939      638.5422      651.2361     380.052179       0.47561
  17     162.9      270.7974       14.9554      634.4394      649.3948     378.597338       0.46503
  16     196.4      270.2171       17.8397      629.0226      646.8623     376.645146       0.49139
  15     218.7      269.8085       19.7041      625.2984      645.0025     375.194020       0.55094
  14     243.0      269.3536       21.7040      620.8007      642.5048     373.151130       0.70854
  13     269.0      268.8505       23.8414      614.8698      638.7112     369.860610       1.06743
  12     297.5      268.2989       26.1147      607.7664      633.8812     365.582274       1.26891
  11     328.5      267.7048       28.5303      599.6553      628.1856     360.480730       1.38710
  10     361.9      267.0706       31.0845      590.5068      621.5913     354.520741       1.50794
   9     398.1      266.3976       33.7812      580.4058      614.1870     347.789483       1.56823
   8     437.6      265.6927       36.6199      569.3974      606.0173     340.324607       1.59604
   7     480.5      264.9674       39.5968      557.3107      596.9075     331.940110       1.64668
   6     533.0      264.1250       43.1700      542.7692      585.9391     321.814133       1.62895
   5     589.8      263.2877       46.9183      527.8219      574.7402     311.452450       1.53801
   4     651.6      262.4880       50.8235      512.5138      563.3373     300.849261       1.45001
   3     718.7      261.7443       54.8798      497.3453      552.2250     290.480713       1.30304
   2     792.3      261.0805       59.0745      482.5018      541.5763     280.495841       1.14515
   1     891.5      260.4666       64.4964      463.9074      528.4037     267.937131       1.06869
   0    1013.0      260.4331       70.6638      442.5799      513.2437     252.810571       1.05031



 Wavenumbers:  2600. -  3250. cm-1, ATM      1
 LEVEL PRESSURE   UPWARD FLUX   DIFDOWN FLUX  DIRDOWN FLUX  DOWNWARD FLUX   NET FLUX    HEATING RATE
          mb          W/m2          W/m2          W/m2        W/m2          W/m2       degree/day
  51    .06700        0.1557        0.0000        5.9969        5.9969       5.841169       0.00000
  50    .07753        0.1557        0.0000        5.9969        5.9969       5.841161       0.00640
  49    .09103        0.1557        0.0000        5.9968        5.9968       5.841151       0.00627
  48    0.1069        0.1557        0.0000        5.9968        5.9968       5.841139       0.00613
  47    0.1255        0.1557        0.0000        5.9968        5.9968       5.841126       0.00600
  46    0.1487        0.1557        0.0000        5.9968        5.9968       5.841109       0.00608
  45    0.1794        0.1557        0.0000        5.9968        5.9968       5.841087       0.00625
  44    0.2165        0.1557        0.0000        5.9967        5.9967       5.841060       0.00612
  43    0.2613        0.1557        0.0000        5.9967        5.9967       5.841028       0.00600
  42    0.3336        0.1557        0.0000        5.9967        5.9967       5.840975       0.00617
  41    0.4307        0.1557        0.0000        5.9966        5.9966       5.840904       0.00620
  40    0.5894        0.1557        0.0000        5.9965        5.9965       5.840784       0.00637
  39     1.339        0.1557        0.0000        5.9958        5.9958       5.840075       0.00798
  38     1.782        0.1557        0.0000        5.9952        5.9952       5.839530       0.01038
  37     2.292        0.1557        0.0000        5.9945        5.9945       5.838810       0.01192
  36     2.964        0.1557        0.0000        5.9935        5.9935       5.837763       0.01314
  35     3.853        0.1557        0.0000        5.9920        5.9920       5.836268       0.01419
  34     5.035        0.1557        0.0000        5.9899        5.9899       5.834178       0.01493
  33     6.613        0.1557        0.0000        5.9870        5.9870       5.831328       0.01524
  32     8.786        0.1557        0.0000        5.9833        5.9833       5.827566       0.01461
  31     11.80        0.1557        0.0000        5.9782        5.9782       5.822546       0.01406
  30     15.07        0.1557        0.0000        5.9734        5.9734       5.817722       0.01245
  29     18.79        0.1557        0.0000        5.9686        5.9687       5.812968       0.01078
  28     23.16        0.1557        0.0000        5.9638        5.9638       5.808118       0.00938
  27     28.12        0.1557        0.0000        5.9588        5.9588       5.803133       0.00847
  26     33.73        0.1557        0.0000        5.9533        5.9533       5.797606       0.00831
  25     40.54        0.1557        0.0000        5.9461        5.9461       5.790428       0.00891
  24     48.69        0.1557        0.0000        5.9364        5.9364       5.780768       0.01000
  23     57.69        0.1557        0.0000        5.9245        5.9245       5.768823       0.01120
  22     68.43        0.1557        0.0000        5.9088        5.9088       5.753112       0.01235
  21     81.20        0.1557        0.0000        5.8886        5.8886       5.732946       0.01332
  20     96.49        0.1557        0.0000        5.8634        5.8634       5.707734       0.01392
  19     114.6        0.1557        0.0000        5.8320        5.8320       5.676357       0.01465
  18     136.5        0.1557        0.0000        5.7951        5.7951       5.639453       0.01419
  17     162.9        0.1557        0.0001        5.7524        5.7524       5.596722       0.01366
  16     196.4        0.1557        0.0001        5.6991        5.6992       5.543427       0.01342
  15     218.7        0.1558        0.0001        5.6639        5.6640       5.508214       0.01337
  14     243.0        0.1558        0.0001        5.6226        5.6227       5.466887       0.01433
  13     269.0        0.1559        0.0001        5.5692        5.5693       5.413365       0.01736
  12     297.5        0.1560        0.0001        5.5027        5.5028       5.346775       0.01975
  11     328.5        0.1562        0.0001        5.4184        5.4185       5.262278       0.02297
  10     361.9        0.1566        0.0001        5.3088        5.3089       5.152362       0.02781
   9     398.1        0.1570        0.0001        5.1646        5.1647       5.007715       0.03370
   8     437.6        0.1577        0.0001        4.9782        4.9783       4.820665       0.03999
   7     480.5        0.1587        0.0001        4.7405        4.7407       4.582019       0.04687
   6     533.0        0.1603        0.0001        4.4369        4.4370       4.276748       0.04911
   5     589.8        0.1627        0.0001        4.1286        4.1287       3.966078       0.04611
   4     651.6        0.1661        0.0001        3.8185        3.8186       3.652496       0.04288
   3     718.7        0.1709        0.0001        3.5136        3.5137       3.342821       0.03892
   2     792.3        0.1773        0.0001        3.2205        3.2206       3.043325       0.03435
   1     891.5        0.1887        0.0001        2.8701        2.8702       2.681565       0.03078
   0    1013.0        0.2110        0.0001        2.4914        2.4916       2.280536       0.02785



 Wavenumbers:  3250. -  4000. cm-1, ATM      1
 LEVEL PRESSURE   UPWARD FLUX   DIFDOWN FLUX  DIRDOWN FLUX  DOWNWARD FLUX   NET FLUX    HEATING RATE
          mb          W/m2          W/m2          W/m2        W/m2          W/m2       degree/day
  51    .06700        0.0011        0.0000       10.1098       10.1098      10.108747       0.00000
  50    .07753        0.0011        0.0000       10.1049       10.1049      10.103805       3.96117
  49    .09103        0.0011        0.0000       10.1013       10.1013      10.100218       2.24192
  48    0.1069        0.0011        0.0000       10.0986       10.0986      10.097534       1.42869
  47    0.1255        0.0011        0.0000       10.0962       10.0962      10.095165       1.07394
  46    0.1487        0.0011        0.0000       10.0937       10.0937      10.092630       0.92425
  45    0.1794        0.0011        0.0000       10.0907       10.0907      10.089627       0.82433
  44    0.2165        0.0011        0.0000       10.0876       10.0876      10.086557       0.69838
  43    0.2613        0.0011        0.0000       10.0845       10.0845      10.083420       0.59138
  42    0.3336        0.0011        0.0000       10.0801       10.0801      10.079029       0.51189
  41    0.4307        0.0011        0.0000       10.0752       10.0752      10.074081       0.43022
  40    0.5894        0.0011        0.0000       10.0680       10.0680      10.066924       0.38061
  39     1.339        0.0011        0.0000       10.0405       10.0405      10.039420       0.30965
  38     1.782        0.0011        0.0000       10.0282       10.0282      10.027150       0.23359
  37     2.292        0.0011        0.0000       10.0164       10.0164      10.015340       0.19560
  36     2.964        0.0011        0.0000       10.0031       10.0031      10.002063       0.16667
  35     3.853        0.0011        0.0000        9.9874        9.9874       9.986370       0.14893
  34     5.035        0.0011        0.0000        9.9678        9.9678       9.966728       0.14031
  33     6.613        0.0011        0.0000        9.9418        9.9418       9.940757       0.13884
  32     8.786        0.0011        0.0000        9.9057        9.9058       9.904690       0.14007
  31     11.80        0.0011        0.0000        9.8521        9.8521       9.851050       0.15018
  30     15.07        0.0011        0.0000        9.7926        9.7927       9.791601       0.15348
  29     18.79        0.0011        0.0000        9.7241        9.7242       9.723121       0.15527
  28     23.16        0.0010        0.0000        9.6448        9.6448       9.643742       0.15349
  27     28.12        0.0010        0.0000        9.5573        9.5573       9.556272       0.14869
  26     33.73        0.0010        0.0000        9.4661        9.4661       9.465068       0.13713
  25     40.54        0.0010        0.0001        9.3662        9.3663       9.365246       0.12384
  24     48.69        0.0010        0.0001        9.2589        9.2590       9.257957       0.11103
  23     57.69        0.0010        0.0001        9.1520        9.1521       9.151056       0.10020
  22     68.43        0.0010        0.0001        9.0322        9.0323       9.031327       0.09412
  21     81.20        0.0010        0.0001        8.8934        8.8935       8.892509       0.09173
  20     96.49        0.0010        0.0001        8.7312        8.7313       8.730385       0.08948
  19     114.6        0.0009        0.0001        8.5354        8.5355       8.534554       0.09144
  18     136.5        0.0009        0.0002        8.3102        8.3103       8.309424       0.08657
  17     162.9        0.0009        0.0002        8.0243        8.0244       8.023568       0.09137
  16     196.4        0.0008        0.0002        7.5733        7.5735       7.572697       0.11349
  15     218.7        0.0008        0.0002        7.2407        7.2409       7.240107       0.12627
  14     243.0        0.0008        0.0002        6.8143        6.8146       6.813754       0.14787
  13     269.0        0.0008        0.0002        6.2281        6.2283       6.227561       0.19016
  12     297.5        0.0008        0.0002        5.5434        5.5436       5.542847       0.20308
  11     328.5        0.0007        0.0002        4.7959        4.7961       4.795393       0.20323
  10     361.9        0.0007        0.0002        4.0632        4.0634       4.062677       0.18538
   9     398.1        0.0007        0.0002        3.4246        3.4248       3.424086       0.14878
   8     437.6        0.0007        0.0002        2.8527        2.8529       2.852130       0.12229
   7     480.5        0.0008        0.0001        2.3146        2.3148       2.314006       0.10569
   6     533.0        0.0008        0.0001        1.7676        1.7677       1.766889       0.08801
   5     589.8        0.0010        0.0001        1.2847        1.2848       1.283786       0.07171
   4     651.6        0.0012        0.0001        0.8688        0.8688       0.867603       0.05691
   3     718.7        0.0018        0.0000        0.5555        0.5556       0.553773       0.03944
   2     792.3        0.0029        0.0000        0.3309        0.3309       0.327957       0.02590
   1     891.5        0.0068        0.0000        0.1419        0.1419       0.135176       0.01640
   0    1013.0        0.0284        0.0000        0.0337        0.0337       0.005270       0.00902



 Wavenumbers:  4000. -  4650. cm-1, ATM      1
 LEVEL PRESSURE   UPWARD FLUX   DIFDOWN FLUX  DIRDOWN FLUX  DOWNWARD FLUX   NET FLUX    HEATING RATE
          mb          W/m2          W/m2          W/m2        W/m2          W/m2       degree/day
  51    .06700        0.3261        0.0000       11.8720       11.8720      11.545892       0.00000
  50    .07753        0.3261        0.0000       11.8720       11.8720      11.545891       0.00079
  49    .09103        0.3261        0.0000       11.8720       11.8720      11.545889       0.00078
  48    0.1069        0.3261        0.0000       11.8720       11.8720      11.545888       0.00076
  47    0.1255        0.3261        0.0000       11.8720       11.8720      11.545886       0.00074
  46    0.1487        0.3261        0.0000       11.8720       11.8720      11.545884       0.00075
  45    0.1794        0.3261        0.0000       11.8720       11.8720      11.545881       0.00077
  44    0.2165        0.3261        0.0000       11.8720       11.8720      11.545878       0.00076
  43    0.2613        0.3261        0.0000       11.8720       11.8720      11.545874       0.00074
  42    0.3336        0.3261        0.0000       11.8720       11.8720      11.545868       0.00076
  41    0.4307        0.3261        0.0000       11.8720       11.8720      11.545859       0.00077
  40    0.5894        0.3261        0.0000       11.8719       11.8719      11.545844       0.00079
  39     1.339        0.3261        0.0000       11.8718       11.8718      11.545755       0.00100
  38     1.782        0.3261        0.0000       11.8718       11.8718      11.545686       0.00132
  37     2.292        0.3261        0.0000       11.8717       11.8717      11.545592       0.00155
  36     2.964        0.3261        0.0000       11.8715       11.8715      11.545453       0.00175
  35     3.853        0.3261        0.0000       11.8713       11.8713      11.545246       0.00196
  34     5.035        0.3261        0.0000       11.8710       11.8710      11.544941       0.00218
  33     6.613        0.3261        0.0000       11.8705       11.8706      11.544492       0.00240
  32     8.786        0.3261        0.0000       11.8699       11.8699      11.543829       0.00257
  31     11.80        0.3261        0.0000       11.8688       11.8688      11.542787       0.00292
  30     15.07        0.3260        0.0001       11.8676       11.8676      11.541565       0.00315
  29     18.79        0.3260        0.0001       11.8661       11.8661      11.540088       0.00335
  28     23.16        0.3260        0.0001       11.8642       11.8643      11.538254       0.00355
  27     28.12        0.3260        0.0001       11.8619       11.8620      11.536034       0.00377
  26     33.73        0.3260        0.0001       11.8592       11.8593      11.533297       0.00412
  25     40.54        0.3260        0.0001       11.8554       11.8555      11.529584       0.00461
  24     48.69        0.3259        0.0002       11.8504       11.8506      11.524638       0.00512
  23     57.69        0.3259        0.0002       11.8445       11.8447      11.518776       0.00549
  22     68.43        0.3259        0.0002       11.8371       11.8373      11.511436       0.00577
  21     81.20        0.3258        0.0003       11.8280       11.8282      11.502401       0.00597
  20     96.49        0.3258        0.0003       11.8169       11.8172      11.491411       0.00607
  19     114.6        0.3258        0.0004       11.8029       11.8033      11.477564       0.00647
  18     136.5        0.3257        0.0005       11.7860       11.7865      11.460771       0.00646
  17     162.9        0.3257        0.0006       11.7649       11.7655      11.439796       0.00670
  16     196.4        0.3256        0.0007       11.7350       11.7357      11.410101       0.00747
  15     218.7        0.3256        0.0008       11.7127       11.7135      11.387861       0.00844
  14     243.0        0.3256        0.0009       11.6837       11.6845      11.358915       0.01004
  13     269.0        0.3256        0.0009       11.6419       11.6428      11.317168       0.01354
  12     297.5        0.3257        0.0010       11.5851       11.5862      11.260443       0.01682
  11     328.5        0.3259        0.0011       11.5061       11.5073      11.181361       0.02150
  10     361.9        0.3262        0.0012       11.3956       11.3969      11.070687       0.02800
   9     398.1        0.3265        0.0013       11.2501       11.2515      10.924949       0.03395
   8     437.6        0.3271        0.0015       11.0711       11.0726      10.745543       0.03836
   7     480.5        0.3278        0.0016       10.8624       10.8639      10.536141       0.04113
   6     533.0        0.3290        0.0017       10.6052       10.6069      10.277917       0.04154
   5     589.8        0.3308        0.0018       10.3111       10.3129       9.982048       0.04392
   4     651.6        0.3336        0.0019        9.9503        9.9522       9.618673       0.04969
   3     718.7        0.3374        0.0020        9.5475        9.5495       9.212118       0.05109
   2     792.3        0.3424        0.0021        9.1478        9.1499       8.807514       0.04640
   1     891.5        0.3513        0.0023        8.6704        8.6728       8.321481       0.04136
   0    1013.0        0.3683        0.0024        8.1452        8.1477       7.779367       0.03764



 Wavenumbers:  4650. -  5150. cm-1, ATM      1
 LEVEL PRESSURE   UPWARD FLUX   DIFDOWN FLUX  DIRDOWN FLUX  DOWNWARD FLUX   NET FLUX    HEATING RATE
          mb          W/m2          W/m2          W/m2        W/m2          W/m2       degree/day
  51    .06700        0.2413        0.0000       11.2374       11.2374      10.996079       0.00000
  50    .07753        0.2413        0.0000       11.2372       11.2372      10.995843       0.18915
  49    .09103        0.2413        0.0000       11.2369       11.2369      10.995547       0.18451
  48    0.1069        0.2413        0.0000       11.2365       11.2365      10.995210       0.17963
  47    0.1255        0.2413        0.0000       11.2361       11.2361      10.994825       0.17468
  46    0.1487        0.2413        0.0000       11.2357       11.2357      10.994342       0.17592
  45    0.1794        0.2413        0.0000       11.2350       11.2350      10.993689       0.17925
  44    0.2165        0.2413        0.0000       11.2342       11.2342      10.992926       0.17371
  43    0.2613        0.2413        0.0000       11.2334       11.2334      10.992034       0.16805
  42    0.3336        0.2413        0.0000       11.2319       11.2319      10.990589       0.16851
  41    0.4307        0.2413        0.0000       11.2300       11.2300      10.988726       0.16192
  40    0.5894        0.2413        0.0000       11.2271       11.2271      10.985814       0.15486
  39     1.339        0.2413        0.0000       11.2152       11.2152      10.973869       0.13448
  38     1.782        0.2413        0.0000       11.2094       11.2094      10.968064       0.11053
  37     2.292        0.2413        0.0000       11.2036       11.2036      10.962269       0.09598
  36     2.964        0.2413        0.0000       11.1972       11.1972      10.955886       0.08013
  35     3.853        0.2413        0.0000       11.1904       11.1904      10.949089       0.06451
  34     5.035        0.2413        0.0000       11.1833       11.1834      10.942083       0.05005
  33     6.613        0.2413        0.0000       11.1762       11.1762      10.934941       0.03818
  32     8.786        0.2413        0.0000       11.1686       11.1686      10.927336       0.02954
  31     11.80        0.2413        0.0001       11.1591       11.1591      10.917860       0.02653
  30     15.07        0.2412        0.0001       11.1489       11.1490      10.907771       0.02605
  29     18.79        0.2412        0.0001       11.1368       11.1369      10.895633       0.02752
  28     23.16        0.2412        0.0001       11.1213       11.1214      10.880198       0.02985
  27     28.12        0.2412        0.0002       11.1019       11.1021      10.860920       0.03277
  26     33.73        0.2412        0.0002       11.0785       11.0787      10.837546       0.03514
  25     40.54        0.2411        0.0002       11.0481       11.0483      10.807175       0.03768
  24     48.69        0.2411        0.0003       11.0091       11.0093      10.768251       0.04028
  23     57.69        0.2411        0.0003       10.9644       10.9647      10.723664       0.04179
  22     68.43        0.2410        0.0004       10.9099       10.9103      10.669235       0.04279
  21     81.20        0.2410        0.0004       10.8447       10.8452      10.604194       0.04298
  20     96.49        0.2409        0.0005       10.7691       10.7696      10.528703       0.04167
  19     114.6        0.2409        0.0006       10.6839       10.6845      10.443645       0.03972
  18     136.5        0.2408        0.0007       10.5911       10.5918      10.350932       0.03565
  17     162.9        0.2408        0.0008       10.4913       10.4921      10.251323       0.03184
  16     196.4        0.2408        0.0010       10.3758       10.3768      10.136077       0.02901
  15     218.7        0.2408        0.0011       10.3049       10.3061      10.065307       0.02687
  14     243.0        0.2408        0.0012       10.2286       10.2299       9.989089       0.02643
  13     269.0        0.2408        0.0014       10.1410       10.1423       9.901518       0.02841
  12     297.5        0.2410        0.0015       10.0368       10.0383       9.797348       0.03090
  11     328.5        0.2412        0.0020        9.9114        9.9134       9.672250       0.03401
  10     361.9        0.2415        0.0021        9.7598        9.7618       9.520334       0.03844
   9     398.1        0.2420        0.0022        9.5765        9.5786       9.336680       0.04279
   8     437.6        0.2426        0.0022        9.3551        9.3573       9.114675       0.04747
   7     480.5        0.2436        0.0023        9.0865        9.0888       8.845189       0.05293
   6     533.0        0.2452        0.0030        8.7268        8.7297       8.484541       0.05802
   5     589.8        0.2474        0.0031        8.3271        8.3302       8.082714       0.05964
   4     651.6        0.2507        0.0030        7.8994        7.9025       7.651751       0.05894
   3     718.7        0.2552        0.0031        7.4776        7.4807       7.225508       0.05357
   2     792.3        0.2611        0.0030        7.0780        7.0810       6.819859       0.04652
   1     891.5        0.2717        0.0030        6.5994        6.6024       6.330707       0.04162
   0    1013.0        0.2908        0.0030        6.0678        6.0708       5.779939       0.03824



 Wavenumbers:  5150. -  6150. cm-1, ATM      1
 LEVEL PRESSURE   UPWARD FLUX   DIFDOWN FLUX  DIRDOWN FLUX  DOWNWARD FLUX   NET FLUX    HEATING RATE
          mb          W/m2          W/m2          W/m2        W/m2          W/m2       degree/day
  51    .06700        0.6642        0.0000       28.1722       28.1722      27.507949       0.00000
  50    .07753        0.6642        0.0000       28.1722       28.1722      27.507914       0.02761
  49    .09103        0.6642        0.0000       28.1721       28.1721      27.507869       0.02810
  48    0.1069        0.6642        0.0000       28.1721       28.1721      27.507816       0.02859
  47    0.1255        0.6642        0.0000       28.1720       28.1720      27.507752       0.02905
  46    0.1487        0.6642        0.0000       28.1719       28.1719      27.507668       0.03061
  45    0.1794        0.6642        0.0000       28.1718       28.1718      27.507548       0.03271
  44    0.2165        0.6642        0.0000       28.1716       28.1716      27.507402       0.03334
  43    0.2613        0.6642        0.0000       28.1715       28.1715      27.507222       0.03381
  42    0.3336        0.6642        0.0000       28.1712       28.1712      27.506916       0.03571
  41    0.4307        0.6642        0.0000       28.1707       28.1707      27.506496       0.03656
  40    0.5894        0.6642        0.0000       28.1700       28.1700      27.505792       0.03744
  39     1.339        0.6642        0.0000       28.1665       28.1666      27.502351       0.03873
  38     1.782        0.6642        0.0000       28.1645       28.1645      27.500321       0.03867
  37     2.292        0.6642        0.0001       28.1621       28.1622      27.497981       0.03875
  36     2.964        0.6642        0.0001       28.1590       28.1591      27.494929       0.03831
  35     3.853        0.6642        0.0001       28.1550       28.1551      27.490936       0.03790
  34     5.035        0.6641        0.0001       28.1497       28.1498      27.485700       0.03741
  33     6.613        0.6641        0.0002       28.1428       28.1429      27.478830       0.03673
  32     8.786        0.6640        0.0002       28.1336       28.1339      27.469818       0.03500
  31     11.80        0.6640        0.0003       28.1211       28.1214      27.457409       0.03474
  30     15.07        0.6639        0.0004       28.1082       28.1086      27.444702       0.03281
  29     18.79        0.6638        0.0005       28.0944       28.0949      27.431067       0.03092
  28     23.16        0.6637        0.0006       28.0791       28.0797      27.415995       0.02914
  27     28.12        0.6636        0.0007       28.0628       28.0635      27.399848       0.02745
  26     33.73        0.6635        0.0008       28.0457       28.0465      27.383014       0.02531
  25     40.54        0.6633        0.0010       28.0266       28.0276      27.364279       0.02324
  24     48.69        0.6632        0.0012       28.0056       28.0068      27.343670       0.02133
  23     57.69        0.6630        0.0014       27.9848       27.9862      27.323270       0.01912
  22     68.43        0.6627        0.0017       27.9628       27.9645      27.301797       0.01688
  21     81.20        0.6625        0.0021       27.9390       27.9411      27.278624       0.01531
  20     96.49        0.6622        0.0024       27.9127       27.9152      27.252994       0.01415
  19     114.6        0.6618        0.0029       27.8827       27.8856      27.223762       0.01365
  18     136.5        0.6613        0.0034       27.8434       27.8468      27.185491       0.01472
  17     162.9        0.6608        0.0040       27.7758       27.7799      27.119066       0.02123
  16     196.4        0.6602        0.0048       27.6280       27.6329      26.972698       0.03684
  15     218.7        0.6597        0.0053       27.4538       27.4591      26.799412       0.06579
  14     243.0        0.6593        0.0058       27.1119       27.1177      26.458424       0.11827
  13     269.0        0.6588        0.0063       26.4485       26.4548      25.796029       0.21488
  12     297.5        0.6584        0.0067       25.6262       25.6329      24.974497       0.24366
  11     328.5        0.6580        0.0071       24.6761       24.6832      24.025243       0.25810
  10     361.9        0.6576        0.0074       23.5263       23.5338      22.876178       0.29073
   9     398.1        0.6573        0.0077       22.2730       22.2806      21.623278       0.29190
   8     437.6        0.6572        0.0081       20.9730       20.9811      20.323886       0.27782
   7     480.5        0.6573        0.0082       19.6479       19.6561      18.998785       0.26024
   6     533.0        0.6578        0.0087       18.3072       18.3159      17.658050       0.21568
   5     589.8        0.6590        0.0089       17.2300       17.2389      16.579885       0.16003
   4     651.6        0.6612        0.0093       16.3854       16.3946      15.733451       0.11575
   3     718.7        0.6647        0.0098       15.7307       15.7405      15.075723       0.08266
   2     792.3        0.6701        0.0104       15.1739       15.1843      14.514289       0.06439
   1     891.5        0.6809        0.0112       14.4924       14.5037      13.822786       0.05884
   0    1013.0        0.7064        0.0126       13.7016       13.7142      13.007827       0.05659



 Wavenumbers:  6150. -  7700. cm-1, ATM      1
 LEVEL PRESSURE   UPWARD FLUX   DIFDOWN FLUX  DIRDOWN FLUX  DOWNWARD FLUX   NET FLUX    HEATING RATE
          mb          W/m2          W/m2          W/m2        W/m2          W/m2       degree/day
  51    .06700        1.0828        0.0000       52.1056       52.1056      51.022810       0.00000
  50    .07753        1.0828        0.0000       52.1055       52.1055      51.022759       0.04144
  49    .09103        1.0827        0.0000       52.1054       52.1054      51.022692       0.04174
  48    0.1069        1.0827        0.0000       52.1054       52.1054      51.022613       0.04203
  47    0.1255        1.0827        0.0000       52.1053       52.1053      51.022520       0.04228
  46    0.1487        1.0827        0.0000       52.1051       52.1051      51.022398       0.04413
  45    0.1794        1.0827        0.0000       52.1050       52.1050      51.022228       0.04672
  44    0.2165        1.0827        0.0000       52.1047       52.1048      51.022021       0.04719
  43    0.2613        1.0827        0.0000       52.1045       52.1045      51.021769       0.04749
  42    0.3336        1.0827        0.0000       52.1040       52.1041      51.021342       0.04981
  41    0.4307        1.0827        0.0000       52.1034       52.1035      51.020759       0.05062
  40    0.5894        1.0827        0.0001       52.1024       52.1025      51.019789       0.05160
  39     1.339        1.0826        0.0001       52.0976       52.0977      51.015078       0.05304
  38     1.782        1.0826        0.0002       52.0947       52.0949      51.012301       0.05287
  37     2.292        1.0825        0.0002       52.0914       52.0916      51.009101       0.05300
  36     2.964        1.0825        0.0003       52.0871       52.0874      51.004922       0.05245
  35     3.853        1.0824        0.0004       52.0814       52.0818      50.999443       0.05200
  34     5.035        1.0822        0.0005       52.0739       52.0745      50.992234       0.05150
  33     6.613        1.0821        0.0007       52.0641       52.0648      50.982725       0.05083
  32     8.786        1.0819        0.0009       52.0511       52.0520      50.970147       0.04885
  31     11.80        1.0815        0.0013       52.0329       52.0342      50.952617       0.04908
  30     15.07        1.0812        0.0016       52.0140       52.0156      50.934382       0.04708
  29     18.79        1.0808        0.0020       51.9933       51.9953      50.914475       0.04514
  28     23.16        1.0804        0.0025       51.9700       51.9725      50.892092       0.04328
  27     28.12        1.0799        0.0030       51.9444       51.9474      50.867531       0.04175
  26     33.73        1.0793        0.0036       51.9170       51.9206      50.841298       0.03944
  25     40.54        1.0786        0.0043       51.8856       51.8899      50.811320       0.03719
  24     48.69        1.0778        0.0051       51.8501       51.8552      50.777431       0.03507
  23     57.69        1.0769        0.0061       51.8138       51.8199      50.743002       0.03227
  22     68.43        1.0758        0.0072       51.7741       51.7813      50.705504       0.02948
  21     81.20        1.0745        0.0085       51.7298       51.7384      50.663920       0.02748
  20     96.49        1.0729        0.0102       51.6797       51.6899      50.616943       0.02593
  19     114.6        1.0711        0.0121       51.6215       51.6335      50.562460       0.02544
  18     136.5        1.0689        0.0143       51.5462       51.5605      50.491617       0.02724
  17     162.9        1.0663        0.0170       51.4216       51.4387      50.372413       0.03810
  16     196.4        1.0629        0.0205       51.1694       51.1898      50.126913       0.06180
  15     218.7        1.0607        0.0226       50.9125       50.9351      49.874399       0.09587
  14     243.0        1.0584        0.0248       50.4557       50.4805      49.422126       0.15686
  13     269.0        1.0559        0.0277       49.5048       49.5325      48.476609       0.30672
  12     297.5        1.0535        0.0298       48.1014       48.1312      47.077699       0.41490
  11     328.5        1.0510        0.0312       46.4256       46.4567      45.405745       0.45460
  10     361.9        1.0486        0.0323       44.5128       44.5450      43.496411       0.48308
   9     398.1        1.0464        0.0334       42.3092       42.3426      41.296148       0.51261
   8     437.6        1.0446        0.0352       39.8880       39.9232      38.878567       0.51689
   7     480.5        1.0435        0.0365       37.2900       37.3265      36.283071       0.50975
   6     533.0        1.0434        0.0368       34.4000       34.4367      33.393355       0.46486
   5     589.8        1.0453        0.0385       31.7492       31.7876      30.742361       0.39349
   4     651.6        1.0502        0.0387       29.3309       29.3696      28.319362       0.33135
   3     718.7        1.0590        0.0394       27.2356       27.2751      26.216007       0.26433
   2     792.3        1.0727        0.0408       25.4674       25.5082      24.435520       0.20420
   1     891.5        1.1007        0.0431       23.5511       23.5942      22.493495       0.16526
   0    1013.0        1.1657        0.0454       21.5733       21.6187      20.452985       0.14168



 Wavenumbers:  7700. -  8050. cm-1, ATM      1
 LEVEL PRESSURE   UPWARD FLUX   DIFDOWN FLUX  DIRDOWN FLUX  DOWNWARD FLUX   NET FLUX    HEATING RATE
          mb          W/m2          W/m2          W/m2        W/m2          W/m2       degree/day
  51    .06700        0.6330        0.0000       12.3141       12.3141      11.681132       0.00000
  50    .07753        0.6330        0.0000       12.3141       12.3141      11.681113       0.01455
  49    .09103        0.6330        0.0000       12.3141       12.3141      11.681091       0.01426
  48    0.1069        0.6330        0.0000       12.3140       12.3140      11.681064       0.01396
  47    0.1255        0.6330        0.0000       12.3140       12.3140      11.681034       0.01366
  46    0.1487        0.6330        0.0000       12.3140       12.3140      11.680996       0.01386
  45    0.1794        0.6330        0.0000       12.3139       12.3139      11.680944       0.01427
  44    0.2165        0.6330        0.0000       12.3138       12.3138      11.680883       0.01399
  43    0.2613        0.6330        0.0000       12.3138       12.3138      11.680810       0.01373
  42    0.3336        0.6330        0.0000       12.3136       12.3137      11.680689       0.01405
  41    0.4307        0.6330        0.0000       12.3135       12.3135      11.680529       0.01390
  40    0.5894        0.6330        0.0000       12.3132       12.3132      11.680268       0.01388
  39     1.339        0.6330        0.0001       12.3119       12.3120      11.679034       0.01390
  38     1.782        0.6330        0.0001       12.3112       12.3113      11.678308       0.01381
  37     2.292        0.6330        0.0001       12.3103       12.3104      11.677469       0.01390
  36     2.964        0.6330        0.0001       12.3092       12.3093      11.676367       0.01384
  35     3.853        0.6330        0.0002       12.3077       12.3079      11.674911       0.01382
  34     5.035        0.6330        0.0002       12.3057       12.3059      11.672977       0.01381
  33     6.613        0.6330        0.0003       12.3031       12.3034      11.670395       0.01380
  32     8.786        0.6330        0.0004       12.2995       12.2999      11.666918       0.01351
  31     11.80        0.6330        0.0005       12.2944       12.2949      11.661948       0.01391
  30     15.07        0.6330        0.0006       12.2890       12.2896      11.656619       0.01376
  29     18.79        0.6330        0.0008       12.2828       12.2836      11.650608       0.01363
  28     23.16        0.6330        0.0010       12.2756       12.2766      11.643601       0.01355
  27     28.12        0.6330        0.0012       12.2674       12.2686      11.635605       0.01359
  26     33.73        0.6330        0.0014       12.2582       12.2597      11.626681       0.01342
  25     40.54        0.6330        0.0017       12.2472       12.2489      11.615933       0.01333
  24     48.69        0.6330        0.0020       12.2340       12.2360      11.603029       0.01335
  23     57.69        0.6330        0.0024       12.2195       12.2219      11.588920       0.01323
  22     68.43        0.6330        0.0029       12.2024       12.2052      11.572207       0.01314
  21     81.20        0.6330        0.0034       12.1821       12.1855      11.552428       0.01307
  20     96.49        0.6331        0.0040       12.1581       12.1621      11.529045       0.01291
  19     114.6        0.6331        0.0048       12.1299       12.1346      11.501541       0.01284
  18     136.5        0.6331        0.0056       12.0968       12.1024      11.469298       0.01240
  17     162.9        0.6332        0.0067       12.0579       12.0646      11.431389       0.01212
  16     196.4        0.6333        0.0080       12.0083       12.0163      11.382977       0.01219
  15     218.7        0.6334        0.0089       11.9761       11.9850      11.351605       0.01191
  14     243.0        0.6335        0.0099       11.9415       11.9514      11.317831       0.01171
  13     269.0        0.6337        0.0109       11.9042       11.9152      11.281508       0.01178
  12     297.5        0.6338        0.0121       11.8642       11.8763      11.242470       0.01158
  11     328.5        0.6340        0.0133       11.8211       11.8344      11.200362       0.01145
  10     361.9        0.6343        0.0146       11.7747       11.7892      11.154895       0.01150
   9     398.1        0.6347        0.0160       11.7244       11.7403      11.105605       0.01148
   8     437.6        0.6352        0.0174       11.6696       11.6871      11.051890       0.01148
   7     480.5        0.6359        0.0190       11.6094       11.6284      10.992590       0.01165
   6     533.0        0.6369        0.0209       11.5328       11.5537      10.916806       0.01219
   5     589.8        0.6383        0.0231       11.4465       11.4695      10.831229       0.01270
   4     651.6        0.6402        0.0253       11.3488       11.3741      10.733939       0.01330
   3     718.7        0.6427        0.0277       11.2396       11.2673      10.624587       0.01374
   2     792.3        0.6458        0.0301       11.1197       11.1498      10.503997       0.01383
   1     891.5        0.6509        0.0334       10.9527       10.9861      10.335261       0.01436
   0    1013.0        0.6588        0.0372       10.7380       10.7752      10.116480       0.01519



 Wavenumbers:  8050. - 12850. cm-1, ATM      1
 LEVEL PRESSURE   UPWARD FLUX   DIFDOWN FLUX  DIRDOWN FLUX  DOWNWARD FLUX   NET FLUX    HEATING RATE
          mb          W/m2          W/m2          W/m2        W/m2          W/m2       degree/day
  51    .06700       23.3479        0.0000      172.4064      172.4064     149.058503       0.00000
  50    .07753       23.3479        0.0000      172.4064      172.4064     149.058503       0.00000
  49    .09103       23.3479        0.0001      172.4063      172.4064     149.058503      -0.00000
  48    0.1069       23.3478        0.0001      172.4063      172.4063     149.058503      -0.00000
  47    0.1255       23.3478        0.0001      172.4062      172.4063     149.058503       0.00000
  46    0.1487       23.3478        0.0002      172.4061      172.4063     149.058503       0.00000
  45    0.1794       23.3477        0.0002      172.4060      172.4062     149.058503      -0.00000
  44    0.2165       23.3476        0.0003      172.4058      172.4062     149.058503       0.00000
  43    0.2613       23.3476        0.0004      172.4056      172.4061     149.058503      -0.00000
  42    0.3336       23.3474        0.0006      172.4054      172.4059     149.058503       0.00000
  41    0.4307       23.3473        0.0008      172.4050      172.4058     149.058503       0.00000
  40    0.5894       23.3470        0.0011      172.4044      172.4055     149.058503      -0.00000
  39     1.339       23.3457        0.0028      172.4014      172.4042     149.058503       0.00000
  38     1.782       23.3449        0.0037      172.3997      172.4034     149.058503      -0.00000
  37     2.292       23.3440        0.0049      172.3976      172.4025     149.058503       0.00000
  36     2.964       23.3428        0.0063      172.3950      172.4013     149.058503       0.00000
  35     3.853       23.3413        0.0083      172.3915      172.3998     149.058503      -0.00000
  34     5.035       23.3392        0.0108      172.3869      172.3977     149.058503       0.00000
  33     6.613       23.3364        0.0143      172.3807      172.3949     149.058503      -0.00000
  32     8.786       23.3327        0.0189      172.3723      172.3912     149.058503       0.00000
  31     11.80       23.3274        0.0256      172.3603      172.3859     149.058503      -0.00000
  30     15.07       23.3216        0.0327      172.3474      172.3801     149.058503       0.00000
  29     18.79       23.3151        0.0408      172.3329      172.3737     149.058503      -0.00000
  28     23.16       23.3076        0.0502      172.3159      172.3661     149.058503       0.00000
  27     28.12       23.2989        0.0610      172.2964      172.3574     149.058503       0.00000
  26     33.73       23.2891        0.0731      172.2745      172.3476     149.058503      -0.00000
  25     40.54       23.2774        0.0878      172.2481      172.3359     149.058503       0.00000
  24     48.69       23.2631        0.1054      172.2162      172.3216     149.058503      -0.00000
  23     57.69       23.2475        0.1249      172.1811      172.3060     149.058503       0.00000
  22     68.43       23.2288        0.1481      172.1392      172.2873     149.058503      -0.00000
  21     81.20       23.2065        0.1758      172.0892      172.2650     149.058503      -0.00000
  20     96.49       23.1799        0.2088      172.0296      172.2384     149.058503       0.00000
  19     114.6       23.1483        0.2481      171.9509      172.1991     149.050791       0.00360
  18     136.5       23.1107        0.2948      171.8556      172.1504     149.039641       0.00429
  17     162.9       23.0659        0.3505      171.7323      172.0828     149.016844       0.00729
  16     196.4       23.0077        0.4228      171.5398      171.9626     148.954941       0.01558
  15     218.7       22.9694        0.4703      171.3733      171.8436     148.874215       0.03065
  14     243.0       22.9278        0.5220      171.1148      171.6368     148.708950       0.05732
  13     269.0       22.8833        0.5778      170.6527      171.2305     148.347166       0.11736
  12     297.5       22.8360        0.6375      169.9823      170.6198     147.783791       0.16709
  11     328.5       22.7866        0.7016      169.0968      169.7983     147.011762       0.20991
  10     361.9       22.7359        0.7694      167.9394      168.7088     145.972932       0.26283
   9     398.1       22.6850        0.8412      166.4268      167.2679     144.582921       0.32384
   8     437.6       22.6365        0.9164      164.4776      165.3940     142.757543       0.39028
   7     480.5       22.5949        0.9954      161.9434      162.9388     140.343826       0.47404
   6     533.0       22.5615        1.0855      158.4335      159.5190     136.957520       0.54475
   5     589.8       22.5518        1.1827      154.4081      155.5909     133.039090       0.58162
   4     651.6       22.5807        1.2794      149.9682      151.2476     128.666897       0.59791
   3     718.7       22.6583        1.3780      145.4045      146.7825     124.124144       0.57090
   2     792.3       22.7946        1.4835      140.8819      142.3654     119.570791       0.52222
   1     891.5       23.0977        1.6192      135.1490      136.7682     113.670455       0.50209
   0    1013.0       23.8022        1.7710      128.4175      130.1885     106.386299       0.50578



 Wavenumbers: 12850. - 16000. cm-1, ATM      1
 LEVEL PRESSURE   UPWARD FLUX   DIFDOWN FLUX  DIRDOWN FLUX  DOWNWARD FLUX   NET FLUX    HEATING RATE
          mb          W/m2          W/m2          W/m2        W/m2          W/m2       degree/day
  51    .06700       49.3246        0.0000      108.0279      108.0279      58.703239       0.00000
  50    .07753       49.3246        0.0001      108.0270      108.0271      58.702454       0.62945
  49    .09103       49.3246        0.0001      108.0259      108.0260      58.701468       0.61624
  48    0.1069       49.3246        0.0002      108.0247      108.0249      58.700336       0.60271
  47    0.1255       49.3245        0.0003      108.0232      108.0236      58.699036       0.58940
  46    0.1487       49.3245        0.0005      108.0215      108.0219      58.697396       0.59761
  45    0.1794       49.3245        0.0006      108.0190      108.0197      58.695167       0.61197
  44    0.2165       49.3245        0.0008      108.0162      108.0170      58.692546       0.59619
  43    0.2613       49.3245        0.0011      108.0129      108.0139      58.689466       0.58053
  42    0.3336       49.3245        0.0015      108.0075      108.0090      58.684439       0.58607
  41    0.4307       49.3246        0.0020      108.0005      108.0026      58.677956       0.56373
  40    0.5894       49.3249        0.0029      107.9897      107.9926      58.667746       0.54296
  39     1.339       49.3278        0.0071      107.9429      107.9500      58.622173       0.51307
  38     1.782       49.3309        0.0095      107.9170      107.9265      58.595572       0.50644
  37     2.292       49.3358        0.0124      107.8866      107.8989      58.563163       0.53678
  36     2.964       49.3441        0.0161      107.8447      107.8608      58.516728       0.58291
  35     3.853       49.3577        0.0210      107.7854      107.8064      58.448706       0.64553
  34     5.035       49.3785        0.0276      107.7024      107.7300      58.351475       0.69458
  33     6.613       49.4076        0.0363      107.5902      107.6264      58.218826       0.70914
  32     8.786       49.4454        0.0480      107.4443      107.4923      58.046859       0.66786
  31     11.80       49.4942        0.0648      107.2509      107.3157      57.821481       0.63099
  30     15.07       49.5405        0.0827      107.0607      107.1435      57.602974       0.56414
  29     18.79       49.5872        0.1030      106.8615      106.9645      57.377355       0.51155
  28     23.16       49.6354        0.1267      106.6468      106.7735      57.138100       0.46264
  27     28.12       49.6830        0.1538      106.4221      106.5758      56.892813       0.41697
  26     33.73       49.7256        0.1840      106.1997      106.3837      56.658061       0.35296
  25     40.54       49.7648        0.2206      105.9647      106.1853      56.420453       0.29478
  24     48.69       49.8001        0.2646      105.7151      105.9797      56.179633       0.24921
  23     57.69       49.8272        0.3131      105.4739      105.7869      55.959768       0.20609
  22     68.43       49.8468        0.3707      105.2226      105.5933      55.746470       0.16768
  21     81.20       49.8530        0.4395      104.9711      105.4106      55.557583       0.12481
  20     96.49       49.8444        0.5215      104.7165      105.2380      55.393610       0.09050
  19     114.6       49.8343        0.6196      104.4369      105.0566      55.222205       0.08003
  18     136.5       49.8152        0.7359      104.1230      104.8589      55.043643       0.06866
  17     162.9       49.7858        0.8744      103.7615      104.6359      54.850074       0.06187
  16     196.4       49.7336        1.0539      103.3149      104.3689      54.635278       0.05407
  15     218.7       49.6942        1.1717      103.0276      104.1993      54.505057       0.04944
  14     243.0       49.6492        1.2996      102.7154      104.0150      54.365810       0.04830
  13     269.0       49.5985        1.4382      102.3752      103.8135      54.214976       0.04893
  12     297.5       49.5424        1.5879      102.0030      103.5910      54.048607       0.04934
  11     328.5       49.4824        1.7495      101.5911      103.3405      53.858180       0.05178
  10     361.9       49.4196        1.9233      101.1330      103.0563      53.636749       0.05602
   9     398.1       49.3553        2.1101      100.6216      102.7317      53.376374       0.06066
   8     437.6       49.2925        2.3103      100.0434      102.3537      53.061282       0.06737
   7     480.5       49.2364        2.5242       99.3756      101.8998      52.663376       0.07815
   6     533.0       49.1865        2.7866       98.4858      101.2725      52.085985       0.09288
   5     589.8       49.1565        3.0665       97.4632      100.5296      51.373147       0.10581
   4     651.6       49.1574        3.3633       96.2921       99.6554      50.498036       0.11967
   3     718.7       49.1955        3.6785       94.9934       98.6719      49.476415       0.12839
   2     792.3       49.2791        4.0115       93.5935       97.6050      48.325914       0.13195
   1     891.5       49.4820        4.4533       91.6868       96.1401      46.658059       0.14193
   0    1013.0       49.9227        4.9699       89.3455       94.3154      44.392638       0.15730



 Wavenumbers: 16000. - 22650. cm-1, ATM      1
 LEVEL PRESSURE   UPWARD FLUX   DIFDOWN FLUX  DIRDOWN FLUX  DOWNWARD FLUX   NET FLUX    HEATING RATE
          mb          W/m2          W/m2          W/m2        W/m2          W/m2       degree/day
  51    .06700      126.7814        0.0000      172.2385      172.2385      45.457083       0.00000
  50    .07753      126.7813        0.0004      172.2379      172.2383      45.456942       0.11303
  49    .09103      126.7813        0.0009      172.2372      172.2380      45.456737       0.12820
  48    0.1069      126.7812        0.0014      172.2363      172.2377      45.456462       0.14619
  47    0.1255      126.7812        0.0020      172.2353      172.2373      45.456095       0.16664
  46    0.1487      126.7812        0.0028      172.2339      172.2368      45.455553       0.19746
  45    0.1794      126.7813        0.0039      172.2320      172.2360      45.454706       0.23250
  44    0.2165      126.7814        0.0052      172.2297      172.2349      45.453557       0.26130
  43    0.2613      126.7816        0.0068      172.2268      172.2336      45.451999       0.29377
  42    0.3336      126.7821        0.0093      172.2219      172.2311      45.449036       0.34546
  41    0.4307      126.7830        0.0126      172.2149      172.2276      45.444569       0.38834
  40    0.5894      126.7850        0.0181      172.2029      172.2210      45.436051       0.45298
  39     1.339      126.8036        0.0441      172.1326      172.1767      45.373119       0.70851
  38     1.782      126.8214        0.0593      172.0816      172.1409      45.319508       1.02067
  37     2.292      126.8483        0.0769      172.0133      172.0902      45.241905       1.28531
  36     2.964      126.8936        0.1001      171.9097      172.0098      45.116187       1.57814
  35     3.853      126.9671        0.1306      171.7532      171.8838      44.916702       1.89315
  34     5.035      127.0785        0.1712      171.5264      171.6976      44.619085       2.12606
  33     6.613      127.2343        0.2253      171.2145      171.4397      44.205479       2.21114
  32     8.786      127.4370        0.2981      170.8061      171.1043      43.667277       2.09018
  31     11.80      127.7002        0.4021      170.2631      170.6652      42.965052       1.96601
  30     15.07      127.9515        0.5137      169.7274      170.2410      42.289525       1.74408
  29     18.79      128.2073        0.6395      169.1650      169.8044      41.597163       1.56980
  28     23.16      128.4735        0.7862      168.5570      169.3432      40.869661       1.40675
  27     28.12      128.7401        0.9537      167.9182      168.8719      40.131846       1.25424
  26     33.73      128.9838        1.1411      167.2816      168.4227      39.438810       1.04200
  25     40.54      129.2153        1.3672      166.6019      167.9692      38.753836       0.84979
  24     48.69      129.4331        1.6396      165.8692      167.5088      38.075698       0.70177
  23     57.69      129.6130        1.9384      165.1474      167.0858      37.472763       0.56516
  22     68.43      129.7634        2.2939      164.3763      166.6702      36.906765       0.44495
  21     81.20      129.8550        2.7172      163.5763      166.2936      36.438551       0.30939
  20     96.49      129.8828        3.2212      162.7327      165.9539      36.071119       0.20280
  19     114.6      129.8739        3.8179      161.7909      165.6088      35.734853       0.15701
  18     136.5      129.8349        4.5225      160.7164      165.2389      35.404044       0.12720
  17     162.9      129.7624        5.3578      159.4772      164.8350      35.072639       0.10593
  16     196.4      129.6124        6.4356      157.9513      164.3869      34.774484       0.07505
  15     218.7      129.4933        7.1400      156.9809      164.1209      34.627569       0.05578
  14     243.0      129.3542        7.9025      155.9428      163.8453      34.491081       0.04734
  13     269.0      129.1935        8.7251      154.8354      163.5605      34.367012       0.04025
  12     297.5      129.0103        9.6099      153.6560      163.2659      34.255600       0.03304
  11     328.5      128.8080       10.5611      152.3927      162.9538      34.145797       0.02986
  10     361.9      128.5862       11.5795      151.0436      162.6231      34.036910       0.02755
   9     398.1      128.3444       12.6691      149.6026      162.2717      33.927327       0.02553
   8     437.6      128.0834       13.8319      148.0641      161.8960      33.812624       0.02452
   7     480.5      127.8037       15.0700      146.4222      161.4922      33.688495       0.02438
   6     533.0      127.4615       16.5825      144.4089      160.9914      33.529969       0.02550
   5     589.8      127.0977       18.1987      142.2453      160.4441      33.346307       0.02726
   4     651.6      126.7155       19.9196      139.9243      159.8439      33.128409       0.02980
   3     718.7      126.3142       21.7465      137.4454      159.1919      32.877706       0.03151
   2     792.3      125.8955       23.6765      134.8118      158.4883      32.592807       0.03267
   1     891.5      125.3551       26.2376      131.2861      157.5237      32.168632       0.03610
   0    1013.0      124.7525       29.2466      127.0893      156.3359      31.583411       0.04063



 Wavenumbers: 22650. - 29000. cm-1, ATM      1
 LEVEL PRESSURE   UPWARD FLUX   DIFDOWN FLUX  DIRDOWN FLUX  DOWNWARD FLUX   NET FLUX    HEATING RATE
          mb          W/m2          W/m2          W/m2        W/m2          W/m2       degree/day
  51    .06700       57.1925        0.0000       64.9965       64.9965       7.804008       0.00000
  50    .07753       57.1924        0.0005       64.9960       64.9964       7.804008       0.00000
  49    .09103       57.1923        0.0010       64.9953       64.9963       7.804008       0.00000
  48    0.1069       57.1922        0.0017       64.9945       64.9962       7.804008       0.00000
  47    0.1255       57.1920        0.0025       64.9936       64.9960       7.804008      -0.00000
  46    0.1487       57.1918        0.0034       64.9924       64.9958       7.804008       0.00000
  45    0.1794       57.1915        0.0047       64.9908       64.9956       7.804008       0.00000
  44    0.2165       57.1912        0.0063       64.9890       64.9952       7.804008       0.00000
  43    0.2613       57.1909        0.0081       64.9867       64.9949       7.804008       0.00000
  42    0.3336       57.1902        0.0112       64.9831       64.9942       7.804008      -0.00000
  41    0.4307       57.1894        0.0152       64.9782       64.9934       7.804008       0.00000
  40    0.5894       57.1881        0.0218       64.9703       64.9921       7.804008       0.00000
  39     1.339       57.1817        0.0530       64.9327       64.9857       7.804008      -0.00000
  38     1.782       57.1779        0.0713       64.9106       64.9819       7.804008      -0.00000
  37     2.292       57.1736        0.0925       64.8851       64.9776       7.804008       0.00000
  36     2.964       57.1679        0.1204       64.8515       64.9719       7.804008       0.00000
  35     3.853       57.1604        0.1571       64.8073       64.9644       7.804008       0.00000
  34     5.035       57.1504        0.2060       64.7484       64.9544       7.804008       0.00000
  33     6.613       57.1371        0.2712       64.6699       64.9411       7.804008      -0.00000
  32     8.786       57.1191        0.3589       64.5642       64.9231       7.804008      -0.00000
  31     11.80       57.0934        0.4843       64.4131       64.8974       7.804008       0.00000
  30     15.07       57.0658        0.6188       64.2511       64.8699       7.804008      -0.00000
  29     18.79       57.0347        0.7703       64.0684       64.8387       7.804008       0.00000
  28     23.16       56.9984        0.9470       63.8555       64.8025       7.804008      -0.00000
  27     28.12       56.9570        1.1484       63.6126       64.7610       7.804008      -0.00000
  26     33.73       56.9107        1.3731       63.3416       64.7147       7.804008       0.00000
  25     40.54       56.8549        1.6435       63.0154       64.6589       7.804008       0.00000
  24     48.69       56.7879        1.9679       62.6240       64.5919       7.804008       0.00000
  23     57.69       56.7144        2.3222       62.1963       64.5184       7.804008       0.00000
  22     68.43       56.6273        2.7413       61.6901       64.4314       7.804008       0.00000
  21     81.20       56.5241        3.2364       61.0917       64.3281       7.804008      -0.00000
  20     96.49       56.4019        3.8206       60.3853       64.2059       7.804008       0.00000
  19     114.6       56.2578        4.5056       59.5562       64.0618       7.804008       0.00000
  18     136.5       56.0886        5.3058       58.5869       63.8926       7.804008       0.00000
  17     162.9       55.8893        6.2419       57.4514       63.6933       7.804008      -0.00000
  16     196.4       55.6344        7.4293       56.0091       63.4384       7.804008       0.00000
  15     218.7       55.4690        8.1929       55.0801       63.2730       7.804008       0.00000
  14     243.0       55.2911        9.0089       54.0863       63.0951       7.804008      -0.00000
  13     269.0       55.1005        9.8767       53.0278       62.9045       7.804008       0.00000
  12     297.5       54.8969       10.7958       51.9051       62.7009       7.804008       0.00000
  11     328.5       54.6795       11.7677       50.7159       62.4835       7.804008      -0.00000
  10     361.9       54.4486       12.7899       49.4627       62.2526       7.804008       0.00000
   9     398.1       54.2035       13.8627       48.1448       62.0075       7.804008       0.00000
   8     437.6       53.9441       14.9840       46.7641       61.7481       7.804008      -0.00000
   7     480.5       53.6702       16.1518       45.3224       61.4742       7.804008       0.00000
   6     533.0       53.3388       17.5423       43.6005       61.1428       7.804008      -0.00000
   5     589.8       52.9882       18.9850       41.8072       60.7922       7.804008       0.00000
   4     651.6       52.6186       20.4739       39.9486       60.4226       7.804008       0.00000
   3     718.7       52.2304       21.9999       38.0345       60.0344       7.804008       0.00000
   2     792.3       51.8245       23.5524       36.0762       59.6286       7.804008       0.00000
   1     891.5       51.2922       25.5188       33.5774       59.0962       7.804008       0.00000
   0    1013.0       50.6738       27.7006       30.7772       58.4778       7.804008      -0.00000



 Wavenumbers: 29000. - 38000. cm-1, ATM      1
 LEVEL PRESSURE   UPWARD FLUX   DIFDOWN FLUX  DIRDOWN FLUX  DOWNWARD FLUX   NET FLUX    HEATING RATE
          mb          W/m2          W/m2          W/m2        W/m2          W/m2       degree/day
  51    .06700        8.5904        0.0000       22.9205       22.9205      14.330106       0.00000
  50    .07753        8.5902        0.0003       22.9162       22.9165      14.326298       3.05213
  49    .09103        8.5900        0.0007       22.9100       22.9107      14.320759       3.46200
  48    0.1069        8.5897        0.0012       22.9019       22.9030      14.313345       3.94639
  47    0.1255        8.5894        0.0017       22.8911       22.8928      14.303432       4.49392
  46    0.1487        8.5891        0.0024       22.8756       22.8779      14.288852       5.31465
  45    0.1794        8.5886        0.0033       22.8515       22.8548      14.266148       6.23284
  44    0.2165        8.5881        0.0043       22.8193       22.8236      14.235547       6.96107
  43    0.2613        8.5875        0.0056       22.7763       22.7819      14.194404       7.75542
  42    0.3336        8.5866        0.0077       22.6964       22.7041      14.117426       8.97488
  41    0.4307        8.5855        0.0104       22.5797       22.5901      14.004527       9.81627
  40    0.5894        8.5840        0.0147       22.3687       22.3833      13.799338      10.91169
  39     1.339        8.5806        0.0330       21.1625       21.1955      12.614893      13.33470
  38     1.782        8.5812        0.0425       20.4615       20.5041      11.922875      13.17490
  37     2.292        8.5839        0.0529       19.7394       19.7923      11.208405      11.83349
  36     2.964        8.5906        0.0653       18.9466       19.0119      10.421254       9.88113
  35     3.853        8.6037        0.0811       18.1064       18.1875       9.583814       7.94746
  34     5.035        8.6253        0.1011       17.2527       17.3538       8.728462       6.11028
  33     6.613        8.6567        0.1267       16.4227       16.5494       7.892714       4.46791
  32     8.786        8.6982        0.1613       15.6383       15.7996       7.101452       3.07297
  31     11.80        8.7524        0.2088       14.8684       15.0771       6.324771       2.17446
  30     15.07        8.8046        0.2577       14.2779       14.5356       5.730950       1.53313
  29     18.79        8.8587        0.3119       13.7668       14.0787       5.220025       1.15842
  28     23.16        8.9162        0.3738       13.2956       13.6694       4.753192       0.90271
  27     28.12        8.9751        0.4430       12.8630       13.3061       4.330920       0.71783
  26     33.73        9.0295        0.5195       12.4784       12.9979       3.968331       0.54516
  25     40.54        9.0810        0.6112       12.1052       12.7164       3.635333       0.41312
  24     48.69        9.1294        0.7197       11.7350       12.4548       3.325334       0.32080
  23     57.69        9.1688        0.8374       11.3950       12.2323       3.063479       0.24545
  22     68.43        9.2001        0.9758       11.0521       12.0279       2.827875       0.18522
  21     81.20        9.2135        1.1394       10.7139       11.8533       2.639768       0.12430
  20     96.49        9.2068        1.3320       10.3711       11.7031       2.496316       0.07917
  19     114.6        9.1882        1.5549       10.0017       11.5566       2.368421       0.05972
  18     136.5        9.1604        1.8101        9.5959       11.4060       2.245525       0.04726
  17     162.9        9.1232        2.1013        9.1469       11.2482       2.124998       0.03853
  16     196.4        9.0622        2.4627        8.6182       11.0810       2.018769       0.02674
  15     218.7        9.0183        2.6902        8.2950       10.9852       1.966962       0.01967
  14     243.0        8.9695        2.9282        7.9604       10.8886       1.919103       0.01660
  13     269.0        8.9156        3.1759        7.6158       10.7917       1.876122       0.01394
  12     297.5        8.8565        3.4321        7.2626       10.6947       1.838244       0.01123
  11     328.5        8.7935        3.6955        6.9000       10.5955       1.802000       0.00985
  10     361.9        8.7267        3.9645        6.5297       10.4942       1.767545       0.00872
   9     398.1        8.6562        4.2373        6.1538       10.3911       1.734928       0.00760
   8     437.6        8.5823        4.5125        5.7733       10.2858       1.703531       0.00671
   7     480.5        8.5051        4.7875        5.3914       10.1789       1.673787       0.00584
   6     533.0        8.4126        5.1016        4.9524       10.0541       1.641441       0.00520
   5     589.8        8.3167        5.4098        4.5171        9.9270       1.610225       0.00463
   4     651.6        8.2178        5.7087        4.0889        9.7976       1.579805       0.00416
   3     718.7        8.1162        5.9946        3.6718        9.6664       1.550156       0.00373
   2     792.3        8.0125        6.2641        3.2697        9.5338       1.521301       0.00331
   1     891.5        7.8800        6.5743        2.7917        9.3659       1.485944       0.00301
   0    1013.0        7.7312        6.8749        2.3036        9.1785       1.447279       0.00268



 Wavenumbers: 38000. - 50000. cm-1, ATM      1
 LEVEL PRESSURE   UPWARD FLUX   DIFDOWN FLUX  DIRDOWN FLUX  DOWNWARD FLUX   NET FLUX    HEATING RATE
          mb          W/m2          W/m2          W/m2        W/m2          W/m2       degree/day
  51    .06700        0.0063        0.0000        1.4137        1.4137       1.407396       0.00000
  50    .07753        0.0063        0.0001        1.4113        1.4113       1.405061       1.87191
  49    .09103        0.0062        0.0002        1.4078        1.4079       1.401727       2.08342
  48    0.1069        0.0061        0.0002        1.4032        1.4035       1.397345       2.33245
  47    0.1255        0.0060        0.0004        1.3972        1.3976       1.391583       2.61233
  46    0.1487        0.0059        0.0005        1.3886        1.3891       1.383241       3.04069
  45    0.1794        0.0058        0.0007        1.3755        1.3762       1.370437       3.51516
  44    0.2165        0.0056        0.0009        1.3581        1.3590       1.353439       3.86663
  43    0.2613        0.0054        0.0011        1.3352        1.3363       1.330955       4.23826
  42    0.3336        0.0051        0.0015        1.2933        1.2948       1.289754       4.80356
  41    0.4307        0.0047        0.0020        1.2336        1.2357       1.230957       5.11229
  40    0.5894        0.0041        0.0026        1.1302        1.1327       1.128611       5.44262
  39     1.339        0.0024        0.0036        0.6413        0.6449       0.642484       5.47291
  38     1.782        0.0018        0.0033        0.4376        0.4409       0.439132       3.87151
  37     2.292        0.0013        0.0028        0.2872        0.2900       0.288657       2.49226
  36     2.964        0.0010        0.0023        0.1789        0.1812       0.180212       1.36131
  35     3.853        0.0007        0.0018        0.1070        0.1088       0.108161       0.68378
  34     5.035        0.0005        0.0014        0.0619        0.0632       0.062756       0.32436
  33     6.613        0.0003        0.0010        0.0353        0.0363       0.035977       0.14316
  32     8.786        0.0002        0.0008        0.0193        0.0201       0.019899       0.06244
  31     11.80        0.0001        0.0005        0.0093        0.0098       0.009717       0.02851
  30     15.07        0.0001        0.0003        0.0047        0.0050       0.004935       0.01234
  29     18.79        0.0000        0.0002        0.0023        0.0025       0.002471       0.00559
  28     23.16        0.0000        0.0001        0.0011        0.0012       0.001186       0.00248
  27     28.12        0.0000        0.0001        0.0005        0.0006       0.000552       0.00108
  26     33.73        0.0000        0.0000        0.0002        0.0003       0.000257       0.00044
  25     40.54        0.0000        0.0000        0.0001        0.0001       0.000112       0.00018
  24     48.69        0.0000        0.0000        0.0000        0.0000       0.000044       0.00007
  23     57.69        0.0000        0.0000        0.0000        0.0000       0.000017       0.00003
  22     68.43        0.0000        0.0000        0.0000        0.0000       0.000006       0.00001
  21     81.20        0.0000        0.0000        0.0000        0.0000       0.000002       0.00000
  20     96.49        0.0000        0.0000        0.0000        0.0000       0.000001       0.00000
  19     114.6        0.0000        0.0000        0.0000        0.0000       0.000000       0.00000
  18     136.5        0.0000        0.0000        0.0000        0.0000       0.000000       0.00000
  17     162.9        0.0000        0.0000        0.0000        0.0000       0.000000       0.00000
  16     196.4        0.0000        0.0000        0.0000        0.0000       0.000000       0.00000
  15     218.7        0.0000        0.0000        0.0000        0.0000       0.000000       0.00000
  14     243.0        0.0000        0.0000        0.0000        0.0000       0.000000       0.00000
  13     269.0        0.0000        0.0000        0.0000        0.0000       0.000000       0.00000
  12     297.5        0.0000        0.0000        0.0000        0.0000       0.000000       0.00000
  11     328.5        0.0000        0.0000        0.0000        0.0000       0.000000       0.00000
  10     361.9        0.0000        0.0000        0.0000        0.0000       0.000000       0.00000
   9     398.1        0.0000        0.0000        0.0000        0.0000       0.000000       0.00000
   8     437.6        0.0000        0.0000        0.0000        0.0000       0.000000       0.00000
   7     480.5        0.0000        0.0000        0.0000        0.0000       0.000000       0.00000
   6     533.0        0.0000        0.0000        0.0000        0.0000       0.000000       0.00000
   5     589.8        0.0000        0.0000        0.0000        0.0000       0.000000       0.00000
   4     651.6        0.0000        0.0000        0.0000        0.0000       0.000000       0.00000
   3     718.7        0.0000        0.0000        0.0000        0.0000       0.000000       0.00000
   2     792.3        0.0000        0.0000        0.0000        0.0000       0.000000       0.00000
   1     891.5        0.0000        0.0000        0.0000        0.0000       0.000000       0.00000
   0    1013.0        0.0000        0.0000        0.0000        0.0000       0.000000       0.00000



 Wavenumbers:   820. -  2600. cm-1, ATM      1
 LEVEL PRESSURE   UPWARD FLUX   DIFDOWN FLUX  DIRDOWN FLUX  DOWNWARD FLUX   NET FLUX    HEATING RATE
          mb          W/m2          W/m2          W/m2        W/m2          W/m2       degree/day
  51    .06700        0.0874        0.0000        6.6132        6.6132       6.525763       0.00000
  50    .07753        0.0874        0.0000        6.6090        6.6090       6.521610       3.32863
  49    .09103        0.0874        0.0000        6.6081        6.6081       6.520712       0.56147
  48    0.1069        0.0874        0.0000        6.6071        6.6071       6.519720       0.52783
  47    0.1255        0.0874        0.0000        6.6060        6.6060       6.518594       0.51071
  46    0.1487        0.0874        0.0000        6.6046        6.6046       6.517214       0.50308
  45    0.1794        0.0874        0.0000        6.6029        6.6029       6.515449       0.48445
  44    0.2165        0.0874        0.0000        6.6010        6.6010       6.513544       0.43342
  43    0.2613        0.0874        0.0000        6.5989        6.5989       6.511510       0.38336
  42    0.3336        0.0874        0.0000        6.5960        6.5960       6.508542       0.34607
  41    0.4307        0.0874        0.0000        6.5924        6.5924       6.505013       0.30686
  40    0.5894        0.0874        0.0000        6.5869        6.5869       6.499503       0.29300
  39     1.339        0.0874        0.0000        6.5613        6.5613       6.473896       0.28828
  38     1.782        0.0874        0.0000        6.5470        6.5470       6.459596       0.27225
  37     2.292        0.0874        0.0000        6.5310        6.5310       6.443569       0.26545
  36     2.964        0.0874        0.0000        6.5106        6.5106       6.423218       0.25546
  35     3.853        0.0874        0.0000        6.4849        6.4849       6.397519       0.24389
  34     5.035        0.0874        0.0000        6.4529        6.4529       6.365424       0.22927
  33     6.613        0.0874        0.0000        6.4128        6.4128       6.325348       0.21425
  32     8.786        0.0874        0.0000        6.3622        6.3622       6.274730       0.19658
  31     11.80        0.0874        0.0000        6.2979        6.2979       6.210432       0.18001
  30     15.07        0.0874        0.0000        6.2419        6.2419       6.154485       0.14444
  29     18.79        0.0874        0.0000        6.1945        6.1945       6.107113       0.10741
  28     23.16        0.0874        0.0000        6.1555        6.1555       6.068061       0.07551
  27     28.12        0.0874        0.0000        6.1236        6.1236       6.036148       0.05425
  26     33.73        0.0874        0.0000        6.0952        6.0952       6.007800       0.04262
  25     40.54        0.0874        0.0000        6.0647        6.0647       5.977263       0.03788
  24     48.69        0.0874        0.0000        6.0294        6.0294       5.941997       0.03650
  23     57.69        0.0874        0.0000        5.9917        5.9917       5.904267       0.03537
  22     68.43        0.0874        0.0000        5.9483        5.9483       5.860869       0.03412
  21     81.20        0.0874        0.0000        5.8987        5.8987       5.811267       0.03278
  20     96.49        0.0874        0.0000        5.8420        5.8420       5.754586       0.03128
  19     114.6        0.0875        0.0000        5.7763        5.7764       5.688903       0.03067
  18     136.5        0.0875        0.0000        5.6958        5.6958       5.608331       0.03098
  17     162.9        0.0875        0.0000        5.5820        5.5820       5.494497       0.03639
  16     196.4        0.0875        0.0000        5.4003        5.4003       5.312775       0.04574
  15     218.7        0.0875        0.0000        5.2768        5.2768       5.189304       0.04688
  14     243.0        0.0876        0.0000        5.1227        5.1227       5.035152       0.05347
  13     269.0        0.0876        0.0000        4.9252        4.9252       4.837567       0.06410
  12     297.5        0.0877        0.0000        4.6976        4.6977       4.609943       0.06751
  11     328.5        0.0879        0.0000        4.4042        4.4042       4.316350       0.07983
  10     361.9        0.0881        0.0000        4.0571        4.0571       3.969052       0.08787
   9     398.1        0.0884        0.0000        3.7339        3.7339       3.645465       0.07539
   8     437.6        0.0889        0.0000        3.4871        3.4872       3.398261       0.05285
   7     480.5        0.0896        0.0000        3.3044        3.3044       3.214816       0.03603
   6     533.0        0.0907        0.0000        3.1116        3.1116       3.020903       0.03119
   5     589.8        0.0923        0.0000        2.9039        2.9039       2.811573       0.03107
   4     651.6        0.0948        0.0000        2.6896        2.6896       2.594831       0.02964
   3     718.7        0.0980        0.0000        2.4957        2.4957       2.397748       0.02477
   2     792.3        0.1020        0.0000        2.3305        2.3305       2.228559       0.01940
   1     891.5        0.1087        0.0000        2.1382        2.1383       2.029562       0.01693
   0    1013.0        0.1213        0.0000        1.8958        1.8959       1.774533       0.01771

  Modules and versions used in this calculation:

       rrtmg_sw.1col.f90:  $Revision$                    rrtmg_sw_init.f90:  $Revision$        
     rrtmgsw_cldprop.f90:  $Revision$                  rrtmgsw_cldprmc.f90:  NOT USED          
     rrtmg_sw_reftra.f90:  $Revision$                  rrtmg_sw_spcvrt.f90:  NOT USED          
     rrtmg_sw_spcvmc.f90:  NOT USED                    rrtmgsw_setcoef.f90:  NOT USED          
     rrtmg_sw_taumol.f90:  $Revision$                  rrtmg_sw_vrtqdr.f90:  NOT USED          
                rrtatm.f:  NOT USED                             util_xxx.f:  NOT USED          
                 extra.f:  NOT USED                       rrtmg_sw_k_g.f90:  $Revision$        

