

 Wavenumbers:   820. - 50000. cm-1, ATM      1
 LEVEL PRESSURE   UPWARD FLUX   DIFDOWN FLUX  DIRDOWN FLUX  DOWNWARD FLUX   NET FLUX    HEATING RATE
          mb          W/m2          W/m2          W/m2        W/m2          W/m2       degree/day
  51    .06700      491.3683        0.0000     1340.1748     1340.1748     848.806458       0.00000
  50    .07753      491.3683        0.0017     1340.1530     1340.1547     848.786376      16.09603
  49    .09103      491.3684        0.0038     1340.1337     1340.1374     848.769028      10.84265
  48    0.1069      491.3685        0.0062     1340.1120     1340.1182     848.749646      10.31711
  47    0.1255      491.3687        0.0089     1340.0861     1340.0950     848.726325      10.57270
  46    0.1487      491.3691        0.0124     1340.0511     1340.0636     848.694488      11.60485
  45    0.1794      491.3697        0.0172     1339.9998     1340.0170     848.647357      12.93876
  44    0.2165      491.3706        0.0229     1339.9340     1339.9568     848.586193      13.91375
  43    0.2613      491.3720        0.0295     1339.8488     1339.8783     848.506313      15.05694
  42    0.3336      491.3747        0.0405     1339.6946     1339.7351     848.360342      17.01884
  41    0.4307      491.3791        0.0550     1339.4735     1339.5285     848.149381      18.34258
  40    0.5894      491.3879        0.0786     1339.0771     1339.1557     847.767823      20.29074
  39     1.339      491.4588        0.1865     1336.7120     1336.8985     845.439728      26.21013
  38     1.782      491.5213        0.2476     1335.1872     1335.4348     843.913411      29.05860
  37     2.292      491.6130        0.3172     1333.4864     1333.8036     842.190665      28.53316
  36     2.964      491.7625        0.4078     1331.5100     1331.9178     840.155326      25.54966
  35     3.853      492.0010        0.5267     1329.3895     1329.9162     837.915219      21.25903
  34     5.035      492.3583        0.6841     1327.2199     1327.9040     835.545784      16.92626
  33     6.613      492.8571        0.8937     1324.9966     1325.8904     833.033258      13.43197
  32     8.786      493.5105        1.1755     1322.6964     1323.8719     830.361361      10.37668
  31     11.80      494.3713        1.5776     1320.1581     1321.7357     827.364435       8.39045
  30     15.07      495.2097        2.0084     1317.9517     1319.9601     824.750378       6.74898
  29     18.79      496.0805        2.4938     1315.8162     1318.3100     822.229464       5.71569
  28     23.16      497.0099        3.0599     1313.6420     1316.7019     819.691918       4.90679
  27     28.12      497.9695        3.7063     1311.4542     1315.1604     817.190928       4.25151
  26     33.73      498.8893        4.4297     1309.3264     1313.7562     814.866828       3.49435
  25     40.54      499.8189        5.3038     1307.0759     1312.3797     812.560841       2.86084
  24     48.69      500.7625        6.3572     1304.6572     1311.0144     810.251948       2.38934
  23     57.69      501.6249        7.5139     1302.2617     1309.7755     808.150685       1.96962
  22     68.43      502.4598        8.8908     1299.6698     1308.5606     806.100798       1.61149
  21     81.20      503.1816       10.5325     1296.8977     1307.4302     804.248523       1.22395
  20     96.49      503.7830       12.4883     1293.8764     1306.3647     802.581691       0.91997
  19     114.6      504.3752       14.8036     1290.4215     1305.2251     800.849885       0.80863
  18     136.5      504.9833       17.5334     1286.4108     1303.9442     798.960897       0.72636
  17     162.9      505.6205       20.7640     1281.5759     1302.3399     796.719370       0.71648
  16     196.4      506.2531       24.9268     1275.0285     1299.9554     793.702277       0.75944
  15     218.7      506.5949       27.6419     1270.4309     1298.0728     791.477928       0.84450
  14     243.0      506.9309       30.5754     1264.7946     1295.3699     788.439026       1.05399
  13     269.0      507.2586       33.7337     1257.1470     1290.8807     783.622141       1.56258
  12     297.5      507.5780       37.1230     1247.5228     1284.6458     777.067762       1.94396
  11     328.5      507.9086       40.7567     1236.2564     1277.0131     769.104531       2.16518
  10     361.9      508.2540       44.6363     1223.6182     1268.2545     760.000537       2.30340
   9     398.1      508.6209       48.7740     1209.5255     1258.2996     749.678655       2.40477
   8     437.6      509.0243       53.1744     1193.6265     1246.8008     737.776553       2.54474
   7     480.5      509.4870       57.8425     1175.6394     1233.4819     723.994979       2.70665
   6     533.0      510.1171       63.5222     1153.6765     1217.1987     707.081605       2.72082
   5     589.8      510.8891       69.5619     1130.7613     1200.3232     689.434061       2.61947
   4     651.6      511.8673       75.9622     1106.9318     1182.8940     671.026643       2.51726
   3     718.7      513.0915       82.7256     1083.2479     1165.9736     652.882051       2.28027
   2     792.3      514.6123       89.8380     1060.2800     1150.1180     635.505708       1.99287
   1     891.5      517.1703       99.2227     1031.5808     1130.8035     613.633177       1.86125
   0    1013.0      521.7144      110.1782      997.9927     1108.1709     586.456452       1.88702



 Wavenumbers:  2600. -  3250. cm-1, ATM      1
 LEVEL PRESSURE   UPWARD FLUX   DIFDOWN FLUX  DIRDOWN FLUX  DOWNWARD FLUX   NET FLUX    HEATING RATE
          mb          W/m2          W/m2          W/m2        W/m2          W/m2       degree/day
  51    .06700        0.1492        0.0000       11.8115       11.8115      11.662320       0.00000
  50    .07753        0.1492        0.0000       11.8115       11.8115      11.662312       0.00640
  49    .09103        0.1492        0.0000       11.8115       11.8115      11.662302       0.00627
  48    0.1069        0.1492        0.0000       11.8115       11.8115      11.662290       0.00613
  47    0.1255        0.1492        0.0000       11.8115       11.8115      11.662277       0.00600
  46    0.1487        0.1492        0.0000       11.8114       11.8114      11.662260       0.00608
  45    0.1794        0.1492        0.0000       11.8114       11.8114      11.662238       0.00625
  44    0.2165        0.1492        0.0000       11.8114       11.8114      11.662211       0.00613
  43    0.2613        0.1492        0.0000       11.8114       11.8114      11.662179       0.00601
  42    0.3336        0.1492        0.0000       11.8113       11.8113      11.662126       0.00618
  41    0.4307        0.1492        0.0000       11.8112       11.8112      11.662054       0.00622
  40    0.5894        0.1492        0.0000       11.8111       11.8111      11.661934       0.00640
  39     1.339        0.1492        0.0000       11.8104       11.8104      11.661218       0.00806
  38     1.782        0.1492        0.0000       11.8098       11.8098      11.660662       0.01057
  37     2.292        0.1492        0.0000       11.8091       11.8091      11.659923       0.01225
  36     2.964        0.1492        0.0000       11.8080       11.8080      11.658834       0.01367
  35     3.853        0.1492        0.0000       11.8064       11.8064      11.657250       0.01502
  34     5.035        0.1492        0.0000       11.8042       11.8042      11.654980       0.01622
  33     6.613        0.1492        0.0000       11.8010       11.8010      11.651770       0.01716
  32     8.786        0.1492        0.0000       11.7965       11.7965      11.647290       0.01740
  31     11.80        0.1492        0.0000       11.7900       11.7900      11.640850       0.01803
  30     15.07        0.1492        0.0000       11.7833       11.7833      11.634083       0.01747
  29     18.79        0.1492        0.0000       11.7760       11.7760      11.626850       0.01640
  28     23.16        0.1492        0.0000       11.7682       11.7682      11.618997       0.01519
  27     28.12        0.1492        0.0000       11.7599       11.7599      11.610747       0.01402
  26     33.73        0.1492        0.0000       11.7510       11.7511      11.601883       0.01333
  25     40.54        0.1492        0.0000       11.7405       11.7405      11.591301       0.01313
  24     48.69        0.1492        0.0000       11.7277       11.7278      11.578583       0.01316
  23     57.69        0.1492        0.0000       11.7134       11.7135      11.564290       0.01340
  22     68.43        0.1492        0.0000       11.6956       11.6956      11.546465       0.01401
  21     81.20        0.1492        0.0000       11.6730       11.6730      11.523869       0.01493
  20     96.49        0.1492        0.0000       11.6443       11.6444      11.495205       0.01582
  19     114.6        0.1492        0.0000       11.6071       11.6072      11.457979       0.01738
  18     136.5        0.1492        0.0001       11.5610       11.5610      11.411815       0.01775
  17     162.9        0.1492        0.0001       11.5038       11.5039      11.354685       0.01826
  16     196.4        0.1492        0.0001       11.4265       11.4266      11.277362       0.01946
  15     218.7        0.1493        0.0001       11.3720       11.3721      11.222834       0.02070
  14     243.0        0.1493        0.0001       11.3055       11.3056      11.156253       0.02309
  13     269.0        0.1494        0.0001       11.2159       11.2160      11.066608       0.02908
  12     297.5        0.1496        0.0001       11.1029       11.1030      10.953480       0.03355
  11     328.5        0.1498        0.0001       10.9653       10.9654      10.815572       0.03750
  10     361.9        0.1501        0.0001       10.8026       10.8027      10.652604       0.04123
   9     398.1        0.1506        0.0001       10.6090       10.6091      10.458438       0.04524
   8     437.6        0.1514        0.0001       10.3679       10.3680      10.216619       0.05170
   7     480.5        0.1525        0.0001       10.0479       10.0480       9.895563       0.06305
   6     533.0        0.1543        0.0002        9.5961        9.5963       9.441972       0.07297
   5     589.8        0.1570        0.0002        9.0836        9.0838       8.926757       0.07647
   4     651.6        0.1610        0.0002        8.5372        8.5374       8.376336       0.07527
   3     718.7        0.1667        0.0002        8.0069        8.0070       7.840310       0.06736
   2     792.3        0.1746        0.0002        7.5124        7.5126       7.337973       0.05761
   1     891.5        0.1895        0.0002        6.9089        6.9091       6.719549       0.05262
   0    1013.0        0.2232        0.0002        6.1993        6.1995       5.976327       0.05161



 Wavenumbers:  3250. -  4000. cm-1, ATM      1
 LEVEL PRESSURE   UPWARD FLUX   DIFDOWN FLUX  DIRDOWN FLUX  DOWNWARD FLUX   NET FLUX    HEATING RATE
          mb          W/m2          W/m2          W/m2        W/m2          W/m2       degree/day
  51    .06700        0.0005        0.0000       19.9125       19.9125      19.911979       0.00000
  50    .07753        0.0005        0.0000       19.9068       19.9068      19.906344       4.51665
  49    .09103        0.0005        0.0000       19.9017       19.9017      19.901175       3.23072
  48    0.1069        0.0005        0.0000       19.8973       19.8973      19.896822       2.31677
  47    0.1255        0.0005        0.0000       19.8935       19.8935      19.893012       1.72745
  46    0.1487        0.0005        0.0000       19.8897       19.8897      19.889176       1.39823
  45    0.1794        0.0005        0.0000       19.8853       19.8853      19.884819       1.19610
  44    0.2165        0.0005        0.0000       19.8808       19.8808      19.880342       1.01836
  43    0.2613        0.0005        0.0000       19.8761       19.8761      19.875604       0.89322
  42    0.3336        0.0005        0.0000       19.8692       19.8692      19.868732       0.80115
  41    0.4307        0.0005        0.0000       19.8615       19.8615      19.861016       0.67086
  40    0.5894        0.0005        0.0000       19.8511       19.8511      19.850565       0.55577
  39     1.339        0.0005        0.0000       19.8143       19.8143      19.813852       0.41333
  38     1.782        0.0005        0.0000       19.7968       19.7968      19.796352       0.33318
  37     2.292        0.0005        0.0000       19.7790       19.7791      19.778562       0.29465
  36     2.964        0.0005        0.0000       19.7585       19.7585      19.757993       0.25820
  35     3.853        0.0005        0.0000       19.7344       19.7344      19.733889       0.22875
  34     5.035        0.0005        0.0000       19.7056       19.7056      19.705114       0.20556
  33     6.613        0.0005        0.0000       19.6701       19.6701      19.669645       0.18962
  32     8.786        0.0005        0.0000       19.6238       19.6238      19.623287       0.18004
  31     11.80        0.0005        0.0000       19.5566       19.5566      19.556144       0.18798
  30     15.07        0.0005        0.0000       19.4816       19.4816      19.481118       0.19370
  29     18.79        0.0005        0.0000       19.3931       19.3932      19.392690       0.20049
  28     23.16        0.0005        0.0000       19.2866       19.2866      19.286146       0.20602
  27     28.12        0.0005        0.0000       19.1624       19.1625      19.162012       0.21102
  26     33.73        0.0004        0.0000       19.0238       19.0239      19.023411       0.20839
  25     40.54        0.0004        0.0001       18.8610       18.8610      18.860575       0.20202
  24     48.69        0.0004        0.0001       18.6766       18.6767      18.676230       0.19077
  23     57.69        0.0004        0.0001       18.4917       18.4918      18.491362       0.17329
  22     68.43        0.0004        0.0001       18.2937       18.2938      18.293391       0.15563
  21     81.20        0.0004        0.0001       18.0794       18.0795      18.079076       0.14162
  20     96.49        0.0004        0.0001       17.8412       17.8413      17.840968       0.13142
  19     114.6        0.0003        0.0001       17.5546       17.5548      17.554419       0.13380
  18     136.5        0.0003        0.0002       17.2115       17.2117      17.211363       0.13191
  17     162.9        0.0003        0.0002       16.7570       16.7571      16.756856       0.14528
  16     196.4        0.0003        0.0002       16.0226       16.0229      16.022596       0.18482
  15     218.7        0.0002        0.0002       15.4611       15.4614      15.461137       0.21317
  14     243.0        0.0002        0.0002       14.7101       14.7103      14.710097       0.26049
  13     269.0        0.0002        0.0002       13.6298       13.6300      13.629826       0.35043
  12     297.5        0.0002        0.0002       12.3473       12.3476      12.347399       0.38035
  11     328.5        0.0001        0.0002       10.9854       10.9857      10.985529       0.37029
  10     361.9        0.0001        0.0002        9.5905        9.5907       9.590584       0.35293
   9     398.1        0.0001        0.0002        8.2729        8.2731       8.272970       0.30697
   8     437.6        0.0001        0.0002        7.0522        7.0524       7.052283       0.26099
   7     480.5        0.0001        0.0002        5.9048        5.9050       5.904891       0.22534
   6     533.0        0.0001        0.0001        4.7425        4.7426       4.742532       0.18699
   5     589.8        0.0001        0.0001        3.7327        3.7328       3.732733       0.14989
   4     651.6        0.0001        0.0001        2.8288        2.8289       2.828844       0.12361
   3     718.7        0.0001        0.0001        2.0644        2.0644       2.064324       0.09608
   2     792.3        0.0002        0.0000        1.4698        1.4699       1.469697       0.06820
   1     891.5        0.0003        0.0000        0.9056        0.9056       0.905279       0.04803
   0    1013.0        0.0015        0.0000        0.4289        0.4289       0.427447       0.03318



 Wavenumbers:  4000. -  4650. cm-1, ATM      1
 LEVEL PRESSURE   UPWARD FLUX   DIFDOWN FLUX  DIRDOWN FLUX  DOWNWARD FLUX   NET FLUX    HEATING RATE
          mb          W/m2          W/m2          W/m2        W/m2          W/m2       degree/day
  51    .06700        0.1971        0.0000       23.3833       23.3833      23.186140       0.00000
  50    .07753        0.1971        0.0000       23.3833       23.3833      23.186139       0.00079
  49    .09103        0.1971        0.0000       23.3833       23.3833      23.186138       0.00078
  48    0.1069        0.1971        0.0000       23.3833       23.3833      23.186137       0.00076
  47    0.1255        0.1971        0.0000       23.3832       23.3832      23.186135       0.00074
  46    0.1487        0.1971        0.0000       23.3832       23.3832      23.186133       0.00075
  45    0.1794        0.1971        0.0000       23.3832       23.3832      23.186130       0.00077
  44    0.2165        0.1971        0.0000       23.3832       23.3832      23.186127       0.00076
  43    0.2613        0.1971        0.0000       23.3832       23.3832      23.186123       0.00074
  42    0.3336        0.1971        0.0000       23.3832       23.3832      23.186116       0.00076
  41    0.4307        0.1971        0.0000       23.3832       23.3832      23.186107       0.00077
  40    0.5894        0.1971        0.0000       23.3832       23.3832      23.186093       0.00079
  39     1.339        0.1971        0.0000       23.3831       23.3831      23.186004       0.00100
  38     1.782        0.1971        0.0000       23.3830       23.3830      23.185934       0.00132
  37     2.292        0.1971        0.0000       23.3829       23.3829      23.185841       0.00155
  36     2.964        0.1971        0.0000       23.3828       23.3828      23.185701       0.00175
  35     3.853        0.1971        0.0000       23.3826       23.3826      23.185494       0.00196
  34     5.035        0.1971        0.0000       23.3823       23.3823      23.185189       0.00218
  33     6.613        0.1971        0.0000       23.3818       23.3818      23.184738       0.00241
  32     8.786        0.1971        0.0000       23.3811       23.3812      23.184073       0.00258
  31     11.80        0.1971        0.0000       23.3801       23.3801      23.183026       0.00293
  30     15.07        0.1971        0.0001       23.3788       23.3789      23.181796       0.00318
  29     18.79        0.1970        0.0001       23.3773       23.3774      23.180304       0.00338
  28     23.16        0.1970        0.0001       23.3754       23.3755      23.178447       0.00359
  27     28.12        0.1970        0.0001       23.3731       23.3732      23.176192       0.00383
  26     33.73        0.1970        0.0001       23.3703       23.3704      23.173401       0.00420
  25     40.54        0.1970        0.0001       23.3664       23.3666      23.169599       0.00472
  24     48.69        0.1970        0.0002       23.3613       23.3615      23.164505       0.00527
  23     57.69        0.1969        0.0002       23.3551       23.3554      23.158430       0.00569
  22     68.43        0.1969        0.0002       23.3474       23.3477      23.150777       0.00602
  21     81.20        0.1969        0.0003       23.3379       23.3381      23.141289       0.00627
  20     96.49        0.1968        0.0003       23.3261       23.3265      23.129679       0.00641
  19     114.6        0.1968        0.0004       23.3113       23.3117      23.114945       0.00688
  18     136.5        0.1967        0.0005       23.2932       23.2937      23.096962       0.00691
  17     162.9        0.1966        0.0006       23.2704       23.2710      23.074360       0.00722
  16     196.4        0.1966        0.0007       23.2378       23.2385      23.041968       0.00815
  15     218.7        0.1965        0.0008       23.2130       23.2137      23.017195       0.00941
  14     243.0        0.1965        0.0009       23.1794       23.1803      22.983752       0.01160
  13     269.0        0.1965        0.0009       23.1277       23.1287      22.932153       0.01674
  12     297.5        0.1965        0.0010       23.0554       23.0564      22.859899       0.02143
  11     328.5        0.1966        0.0011       22.9584       22.9595      22.762876       0.02638
  10     361.9        0.1968        0.0012       22.8259       22.8272      22.630419       0.03351
   9     398.1        0.1970        0.0014       22.6422       22.6435      22.446548       0.04284
   8     437.6        0.1973        0.0015       22.3923       22.3938      22.196505       0.05346
   7     480.5        0.1977        0.0016       22.0659       22.0674      21.869686       0.06419
   6     533.0        0.1985        0.0017       21.6407       21.6424      21.443823       0.06851
   5     589.8        0.1998        0.0018       21.1925       21.1943      20.994540       0.06669
   4     651.6        0.2017        0.0020       20.6975       20.6995      20.497773       0.06793
   3     718.7        0.2044        0.0021       20.1377       20.1397      19.935352       0.07068
   2     792.3        0.2081        0.0022       19.5289       19.5311      19.323015       0.07023
   1     891.5        0.2150        0.0024       18.7142       18.7165      18.501547       0.06990
   0    1013.0        0.2308        0.0025       17.7401       17.7426      17.511857       0.06872



 Wavenumbers:  4650. -  5150. cm-1, ATM      1
 LEVEL PRESSURE   UPWARD FLUX   DIFDOWN FLUX  DIRDOWN FLUX  DOWNWARD FLUX   NET FLUX    HEATING RATE
          mb          W/m2          W/m2          W/m2        W/m2          W/m2       degree/day
  51    .06700        0.1575        0.0000       22.1334       22.1334      21.975896       0.00000
  50    .07753        0.1575        0.0000       22.1331       22.1331      21.975660       0.18935
  49    .09103        0.1575        0.0000       22.1328       22.1328      21.975364       0.18513
  48    0.1069        0.1575        0.0000       22.1325       22.1325      21.975024       0.18072
  47    0.1255        0.1575        0.0000       22.1321       22.1321      21.974635       0.17629
  46    0.1487        0.1575        0.0000       22.1316       22.1316      21.974147       0.17820
  45    0.1794        0.1575        0.0000       22.1309       22.1309      21.973482       0.18246
  44    0.2165        0.1575        0.0000       22.1302       22.1302      21.972700       0.17788
  43    0.2613        0.1575        0.0000       22.1292       22.1292      21.971781       0.17329
  42    0.3336        0.1575        0.0000       22.1277       22.1277      21.970275       0.17551
  41    0.4307        0.1575        0.0000       22.1258       22.1258      21.968308       0.17106
  40    0.5894        0.1575        0.0000       22.1226       22.1226      21.965164       0.16721
  39     1.339        0.1574        0.0000       22.1088       22.1088      21.951374       0.15525
  38     1.782        0.1574        0.0000       22.1015       22.1015      21.944035       0.13971
  37     2.292        0.1574        0.0000       22.0936       22.0936      21.936178       0.13013
  36     2.964        0.1574        0.0000       22.0842       22.0842      21.926802       0.11770
  35     3.853        0.1574        0.0000       22.0733       22.0733      21.915855       0.10388
  34     5.035        0.1574        0.0000       22.0608       22.0608      21.903413       0.08888
  33     6.613        0.1574        0.0000       22.0471       22.0471      21.889711       0.07325
  32     8.786        0.1574        0.0000       22.0323       22.0324      21.874958       0.05730
  31     11.80        0.1574        0.0001       22.0157       22.0158      21.858394       0.04637
  30     15.07        0.1574        0.0001       22.0010       22.0010      21.843657       0.03805
  29     18.79        0.1574        0.0001       21.9857       21.9858      21.828431       0.03452
  28     23.16        0.1573        0.0001       21.9680       21.9682      21.810826       0.03404
  27     28.12        0.1573        0.0002       21.9469       21.9471      21.789781       0.03577
  26     33.73        0.1573        0.0002       21.9216       21.9218      21.764529       0.03797
  25     40.54        0.1573        0.0002       21.8885       21.8887      21.731450       0.04104
  24     48.69        0.1572        0.0003       21.8452       21.8455      21.688247       0.04471
  23     57.69        0.1572        0.0003       21.7941       21.7945      21.637266       0.04779
  22     68.43        0.1572        0.0004       21.7296       21.7300      21.572840       0.05065
  21     81.20        0.1571        0.0004       21.6490       21.6494      21.492298       0.05322
  20     96.49        0.1571        0.0005       21.5504       21.5509      21.393845       0.05434
  19     114.6        0.1570        0.0006       21.4321       21.4327      21.275682       0.05517
  18     136.5        0.1569        0.0007       21.2939       21.2947      21.137718       0.05305
  17     162.9        0.1569        0.0008       21.1353       21.1361      20.979231       0.05066
  16     196.4        0.1568        0.0010       20.9422       20.9432      20.786365       0.04855
  15     218.7        0.1568        0.0011       20.8224       20.8235      20.666703       0.04543
  14     243.0        0.1568        0.0012       20.6959       20.6972      20.540378       0.04381
  13     269.0        0.1568        0.0014       20.5574       20.5587      20.401886       0.04493
  12     297.5        0.1569        0.0015       20.4017       20.4032      20.246312       0.04614
  11     328.5        0.1571        0.0016       20.2240       20.2256      20.068573       0.04833
  10     361.9        0.1573        0.0018       20.0178       20.0195      19.862223       0.05221
   9     398.1        0.1577        0.0019       19.7753       19.7772      19.619531       0.05654
   8     437.6        0.1582        0.0021       19.4849       19.4869      19.328746       0.06217
   7     480.5        0.1590        0.0022       19.1287       19.1309      18.971949       0.07007
   6     533.0        0.1602        0.0023       18.6330       18.6353      18.475094       0.07993
   5     589.8        0.1621        0.0025       18.0449       18.0474      17.885286       0.08755
   4     651.6        0.1649        0.0026       17.3644       17.3670      17.202113       0.09343
   3     718.7        0.1687        0.0027       16.6401       16.6429      16.474159       0.09148
   2     792.3        0.1739        0.0029       15.9180       15.9209      15.746979       0.08340
   1     891.5        0.1835        0.0030       15.0353       15.0384      14.854880       0.07591
   0    1013.0        0.2026        0.0032       14.0566       14.0597      13.857137       0.06928



 Wavenumbers:  5150. -  6150. cm-1, ATM      1
 LEVEL PRESSURE   UPWARD FLUX   DIFDOWN FLUX  DIRDOWN FLUX  DOWNWARD FLUX   NET FLUX    HEATING RATE
          mb          W/m2          W/m2          W/m2        W/m2          W/m2       degree/day
  51    .06700        0.4281        0.0000       55.4884       55.4884      55.060270       0.00000
  50    .07753        0.4281        0.0000       55.4884       55.4884      55.060235       0.02761
  49    .09103        0.4281        0.0000       55.4883       55.4883      55.060190       0.02811
  48    0.1069        0.4281        0.0000       55.4883       55.4883      55.060137       0.02860
  47    0.1255        0.4281        0.0000       55.4882       55.4882      55.060073       0.02906
  46    0.1487        0.4281        0.0000       55.4881       55.4881      55.059989       0.03062
  45    0.1794        0.4281        0.0000       55.4880       55.4880      55.059869       0.03273
  44    0.2165        0.4281        0.0000       55.4878       55.4878      55.059723       0.03337
  43    0.2613        0.4281        0.0000       55.4877       55.4877      55.059543       0.03384
  42    0.3336        0.4281        0.0000       55.4874       55.4874      55.059236       0.03576
  41    0.4307        0.4281        0.0000       55.4869       55.4869      55.058815       0.03663
  40    0.5894        0.4281        0.0000       55.4862       55.4862      55.058109       0.03756
  39     1.339        0.4281        0.0000       55.4827       55.4827      55.054647       0.03898
  38     1.782        0.4281        0.0000       55.4806       55.4807      55.052593       0.03909
  37     2.292        0.4281        0.0001       55.4782       55.4783      55.050219       0.03932
  36     2.964        0.4281        0.0001       55.4751       55.4752      55.047109       0.03904
  35     3.853        0.4280        0.0001       55.4710       55.4711      55.043015       0.03885
  34     5.035        0.4280        0.0001       55.4655       55.4656      55.037605       0.03865
  33     6.613        0.4280        0.0002       55.4582       55.4584      55.030434       0.03834
  32     8.786        0.4279        0.0002       55.4486       55.4488      55.020899       0.03703
  31     11.80        0.4279        0.0003       55.4351       55.4354      55.007525       0.03744
  30     15.07        0.4278        0.0004       55.4209       55.4213      54.993525       0.03615
  29     18.79        0.4277        0.0005       55.4054       55.4058      54.978148       0.03486
  28     23.16        0.4276        0.0006       55.3878       55.3883      54.960757       0.03363
  27     28.12        0.4275        0.0007       55.3683       55.3690      54.941560       0.03263
  26     33.73        0.4273        0.0008       55.3474       55.3483      54.920918       0.03104
  25     40.54        0.4272        0.0010       55.3234       55.3244      54.897241       0.02937
  24     48.69        0.4270        0.0012       55.2961       55.2973      54.870310       0.02787
  23     57.69        0.4268        0.0014       55.2682       55.2696      54.842814       0.02577
  22     68.43        0.4266        0.0017       55.2378       55.2396      54.812978       0.02346
  21     81.20        0.4263        0.0020       55.2040       55.2061      54.779775       0.02194
  20     96.49        0.4260        0.0024       55.1657       55.1681      54.742177       0.02075
  19     114.6        0.4256        0.0029       55.1210       55.1239      54.698297       0.02049
  18     136.5        0.4251        0.0034       55.0611       55.0645      54.639361       0.02266
  17     162.9        0.4245        0.0040       54.9545       54.9585      54.533962       0.03369
  16     196.4        0.4238        0.0048       54.7283       54.7331      54.309318       0.05655
  15     218.7        0.4234        0.0053       54.4963       54.5016      54.078262       0.08772
  14     243.0        0.4229        0.0059       54.0811       54.0869      53.664076       0.14365
  13     269.0        0.4224        0.0063       53.1993       53.2056      52.783224       0.28574
  12     297.5        0.4219        0.0068       51.8992       51.9060      51.484126       0.38530
  11     328.5        0.4214        0.0072       50.3922       50.3994      49.978031       0.40950
  10     361.9        0.4210        0.0076       48.6947       48.7024      48.281395       0.42927
   9     398.1        0.4206        0.0080       46.6947       46.7027      46.282080       0.46580
   8     437.6        0.4203        0.0083       44.4377       44.4459      44.025597       0.48245
   7     480.5        0.4203        0.0085       41.9797       41.9882      41.567883       0.48269
   6     533.0        0.4206        0.0088       39.2327       39.2415      38.820912       0.44190
   5     589.8        0.4215        0.0092       36.7887       36.7979      36.376404       0.36285
   4     651.6        0.4233        0.0097       34.7247       34.7343      34.310978       0.28245
   3     718.7        0.4266        0.0102       33.1304       33.1406      32.714046       0.20069
   2     792.3        0.4316        0.0109       31.9232       31.9341      31.502511       0.13895
   1     891.5        0.4424        0.0117       30.6818       30.6936      30.251164       0.10648
   0    1013.0        0.4697        0.0127       29.3103       29.3230      28.853268       0.09706



 Wavenumbers:  6150. -  7700. cm-1, ATM      1
 LEVEL PRESSURE   UPWARD FLUX   DIFDOWN FLUX  DIRDOWN FLUX  DOWNWARD FLUX   NET FLUX    HEATING RATE
          mb          W/m2          W/m2          W/m2        W/m2          W/m2       degree/day
  51    .06700        0.7524        0.0000      102.6279      102.6279     101.875479       0.00000
  50    .07753        0.7524        0.0000      102.6279      102.6279     101.875427       0.04144
  49    .09103        0.7524        0.0000      102.6278      102.6278     101.875360       0.04174
  48    0.1069        0.7524        0.0000      102.6277      102.6277     101.875281       0.04203
  47    0.1255        0.7524        0.0000      102.6276      102.6276     101.875188       0.04229
  46    0.1487        0.7524        0.0000      102.6275      102.6275     101.875067       0.04414
  45    0.1794        0.7524        0.0000      102.6273      102.6273     101.874897       0.04674
  44    0.2165        0.7524        0.0000      102.6271      102.6271     101.874689       0.04721
  43    0.2613        0.7524        0.0000      102.6268      102.6269     101.874437       0.04752
  42    0.3336        0.7524        0.0000      102.6264      102.6264     101.874009       0.04986
  41    0.4307        0.7524        0.0000      102.6258      102.6258     101.873426       0.05069
  40    0.5894        0.7524        0.0001      102.6248      102.6248     101.872454       0.05170
  39     1.339        0.7523        0.0001      102.6199      102.6200     101.867724       0.05326
  38     1.782        0.7523        0.0002      102.6170      102.6172     101.864927       0.05324
  37     2.292        0.7522        0.0002      102.6137      102.6139     101.861698       0.05349
  36     2.964        0.7521        0.0003      102.6093      102.6096     101.857469       0.05308
  35     3.853        0.7521        0.0004      102.6036      102.6040     101.851904       0.05282
  34     5.035        0.7519        0.0005      102.5959      102.5965     101.844545       0.05257
  33     6.613        0.7518        0.0007      102.5858      102.5865     101.834777       0.05222
  32     8.786        0.7515        0.0009      102.5724      102.5733     101.821746       0.05061
  31     11.80        0.7512        0.0012      102.5534      102.5546     101.803371       0.05144
  30     15.07        0.7509        0.0016      102.5333      102.5349     101.783996       0.05002
  29     18.79        0.7505        0.0020      102.5111      102.5130     101.762531       0.04867
  28     23.16        0.7501        0.0024      102.4856      102.4881     101.738006       0.04742
  27     28.12        0.7496        0.0030      102.4572      102.4602     101.710616       0.04656
  26     33.73        0.7490        0.0036      102.4262      102.4298     101.680806       0.04482
  25     40.54        0.7483        0.0043      102.3901      102.3944     101.646120       0.04303
  24     48.69        0.7475        0.0051      102.3483      102.3535     101.606020       0.04150
  23     57.69        0.7465        0.0061      102.3047      102.3108     101.564251       0.03915
  22     68.43        0.7454        0.0072      102.2560      102.2632     101.517742       0.03656
  21     81.20        0.7441        0.0085      102.2006      102.2092     101.465043       0.03482
  20     96.49        0.7426        0.0102      102.1366      102.1468     101.404206       0.03358
  19     114.6        0.7407        0.0121      102.0608      102.0729     101.332188       0.03363
  18     136.5        0.7385        0.0143      101.9607      101.9750     101.236475       0.03680
  17     162.9        0.7359        0.0170      101.7889      101.8059     101.069993       0.05321
  16     196.4        0.7325        0.0204      101.4186      101.4390     100.706563       0.09148
  15     218.7        0.7303        0.0226      101.0364      101.0590     100.328703       0.14346
  14     243.0        0.7279        0.0249      100.4115      100.4364      99.708525       0.21510
  13     269.0        0.7254        0.0271       99.2224       99.2495      98.524058       0.38424
  12     297.5        0.7229        0.0291       97.2954       97.3245      96.601659       0.57016
  11     328.5        0.7203        0.0311       94.6668       94.6979      93.977547       0.71349
  10     361.9        0.7179        0.0329       91.6532       91.6861      90.968230       0.76139
   9     398.1        0.7155        0.0345       88.3064       88.3409      87.625385       0.77881
   8     437.6        0.7135        0.0358       84.3940       84.4299      83.716351       0.83578
   7     480.5        0.7121        0.0368       79.8599       79.8967      79.184614       0.89002
   6     533.0        0.7116        0.0378       74.5390       74.5769      73.865312       0.85571
   5     589.8        0.7128        0.0388       69.3954       69.4341      68.721375       0.76353
   4     651.6        0.7168        0.0397       64.5459       64.5856      63.868800       0.66360
   3     718.7        0.7247        0.0408       60.2771       60.3179      59.593218       0.53732
   2     792.3        0.7374        0.0421       56.6449       56.6870      55.949643       0.41788
   1     891.5        0.7656        0.0440       52.6611       52.7051      51.939536       0.34124
   0    1013.0        0.8422        0.0460       48.5115       48.5575      47.715328       0.29331



 Wavenumbers:  7700. -  8050. cm-1, ATM      1
 LEVEL PRESSURE   UPWARD FLUX   DIFDOWN FLUX  DIRDOWN FLUX  DOWNWARD FLUX   NET FLUX    HEATING RATE
          mb          W/m2          W/m2          W/m2        W/m2          W/m2       degree/day
  51    .06700        0.4582        0.0000       24.2540       24.2540      23.795809       0.00000
  50    .07753        0.4582        0.0000       24.2540       24.2540      23.795791       0.01448
  49    .09103        0.4582        0.0000       24.2540       24.2540      23.795769       0.01419
  48    0.1069        0.4582        0.0000       24.2540       24.2540      23.795742       0.01389
  47    0.1255        0.4582        0.0000       24.2539       24.2539      23.795713       0.01359
  46    0.1487        0.4582        0.0000       24.2539       24.2539      23.795675       0.01379
  45    0.1794        0.4582        0.0000       24.2538       24.2538      23.795623       0.01419
  44    0.2165        0.4582        0.0000       24.2538       24.2538      23.795562       0.01392
  43    0.2613        0.4582        0.0000       24.2537       24.2537      23.795489       0.01366
  42    0.3336        0.4582        0.0000       24.2536       24.2536      23.795369       0.01398
  41    0.4307        0.4582        0.0000       24.2534       24.2534      23.795210       0.01383
  40    0.5894        0.4582        0.0000       24.2531       24.2532      23.794951       0.01381
  39     1.339        0.4582        0.0001       24.2519       24.2519      23.793722       0.01384
  38     1.782        0.4582        0.0001       24.2511       24.2512      23.793000       0.01375
  37     2.292        0.4582        0.0001       24.2503       24.2504      23.792164       0.01384
  36     2.964        0.4582        0.0001       24.2491       24.2493      23.791066       0.01378
  35     3.853        0.4582        0.0002       24.2476       24.2478      23.789616       0.01376
  34     5.035        0.4582        0.0002       24.2457       24.2459      23.787689       0.01377
  33     6.613        0.4582        0.0003       24.2430       24.2433      23.785114       0.01376
  32     8.786        0.4581        0.0004       24.2394       24.2398      23.781644       0.01348
  31     11.80        0.4581        0.0005       24.2343       24.2348      23.776680       0.01390
  30     15.07        0.4581        0.0006       24.2288       24.2294      23.771350       0.01376
  29     18.79        0.4581        0.0008       24.2226       24.2234      23.765331       0.01365
  28     23.16        0.4580        0.0010       24.2154       24.2163      23.758302       0.01359
  27     28.12        0.4580        0.0012       24.2071       24.2083      23.750268       0.01366
  26     33.73        0.4579        0.0014       24.1978       24.1992      23.741283       0.01351
  25     40.54        0.4579        0.0017       24.1866       24.1883      23.730438       0.01345
  24     48.69        0.4578        0.0020       24.1732       24.1752      23.717379       0.01351
  23     57.69        0.4577        0.0024       24.1584       24.1608      23.703057       0.01342
  22     68.43        0.4577        0.0028       24.1409       24.1437      23.686033       0.01338
  21     81.20        0.4576        0.0034       24.1200       24.1234      23.665799       0.01337
  20     96.49        0.4575        0.0040       24.0952       24.0992      23.641761       0.01327
  19     114.6        0.4573        0.0047       24.0659       24.0706      23.613325       0.01328
  18     136.5        0.4572        0.0056       24.0313       24.0369      23.579769       0.01290
  17     162.9        0.4570        0.0066       23.9904       23.9970      23.540016       0.01271
  16     196.4        0.4568        0.0080       23.9376       23.9456      23.488782       0.01290
  15     218.7        0.4567        0.0089       23.9031       23.9120      23.455312       0.01271
  14     243.0        0.4565        0.0099       23.8657       23.8756      23.419048       0.01258
  13     269.0        0.4564        0.0109       23.8253       23.8362      23.379785       0.01274
  12     297.5        0.4563        0.0120       23.7815       23.7936      23.337300       0.01260
  11     328.5        0.4562        0.0132       23.7341       23.7473      23.291160       0.01255
  10     361.9        0.4561        0.0146       23.6825       23.6971      23.241008       0.01269
   9     398.1        0.4561        0.0160       23.6264       23.6423      23.186268       0.01275
   8     437.6        0.4561        0.0175       23.5648       23.5823      23.126188       0.01285
   7     480.5        0.4562        0.0191       23.4965       23.5156      23.059393       0.01312
   6     533.0        0.4566        0.0210       23.4089       23.4299      22.973376       0.01384
   5     589.8        0.4571        0.0232       23.3093       23.3325      22.875353       0.01455
   4     651.6        0.4581        0.0254       23.1954       23.2208      22.762749       0.01540
   3     718.7        0.4595        0.0278       23.0666       23.0945      22.634999       0.01605
   2     792.3        0.4613        0.0304       22.9240       22.9544      22.493080       0.01628
   1     891.5        0.4645        0.0338       22.7235       22.7572      22.292720       0.01705
   0    1013.0        0.4699        0.0377       22.4623       22.5000      22.030083       0.01824



 Wavenumbers:  8050. - 12850. cm-1, ATM      1
 LEVEL PRESSURE   UPWARD FLUX   DIFDOWN FLUX  DIRDOWN FLUX  DOWNWARD FLUX   NET FLUX    HEATING RATE
          mb          W/m2          W/m2          W/m2        W/m2          W/m2       degree/day
  51    .06700       31.4788        0.0000      339.5744      339.5744     308.095539       0.00000
  50    .07753       31.4788        0.0000      339.5743      339.5743     308.095539       0.00000
  49    .09103       31.4788        0.0001      339.5743      339.5743     308.095539       0.00000
  48    0.1069       31.4787        0.0001      339.5742      339.5743     308.095539      -0.00000
  47    0.1255       31.4787        0.0001      339.5741      339.5743     308.095539       0.00000
  46    0.1487       31.4787        0.0002      339.5740      339.5742     308.095539      -0.00000
  45    0.1794       31.4786        0.0003      339.5739      339.5742     308.095539       0.00000
  44    0.2165       31.4786        0.0003      339.5738      339.5741     308.095539       0.00000
  43    0.2613       31.4785        0.0004      339.5736      339.5740     308.095539      -0.00000
  42    0.3336       31.4784        0.0006      339.5733      339.5739     308.095539       0.00000
  41    0.4307       31.4782        0.0008      339.5729      339.5737     308.095539       0.00000
  40    0.5894       31.4779        0.0012      339.5723      339.5735     308.095539      -0.00000
  39     1.339       31.4767        0.0029      339.5693      339.5722     308.095539       0.00000
  38     1.782       31.4759        0.0039      339.5676      339.5715     308.095539       0.00000
  37     2.292       31.4751        0.0050      339.5656      339.5706     308.095539      -0.00000
  36     2.964       31.4739        0.0065      339.5629      339.5695     308.095539       0.00000
  35     3.853       31.4725        0.0085      339.5594      339.5680     308.095539       0.00000
  34     5.035       31.4705        0.0112      339.5548      339.5660     308.095539      -0.00000
  33     6.613       31.4678        0.0148      339.5486      339.5634     308.095539       0.00000
  32     8.786       31.4642        0.0196      339.5402      339.5598     308.095539      -0.00000
  31     11.80       31.4591        0.0264      339.5283      339.5547     308.095539       0.00000
  30     15.07       31.4536        0.0338      339.5154      339.5492     308.095539       0.00000
  29     18.79       31.4474        0.0421      339.5008      339.5430     308.095539       0.00000
  28     23.16       31.4401        0.0519      339.4838      339.5357     308.095539      -0.00000
  27     28.12       31.4318        0.0631      339.4643      339.5274     308.095539       0.00000
  26     33.73       31.4225        0.0756      339.4424      339.5180     308.095539       0.00000
  25     40.54       31.4112        0.0907      339.4160      339.5067     308.095539      -0.00000
  24     48.69       31.3975        0.1090      339.3841      339.4931     308.095539       0.00000
  23     57.69       31.3825        0.1291      339.3489      339.4781     308.095539       0.00000
  22     68.43       31.3646        0.1531      339.3070      339.4602     308.095539      -0.00000
  21     81.20       31.3432        0.1818      339.2570      339.4388     308.095539       0.00000
  20     96.49       31.3177        0.2160      339.1973      339.4133     308.095539       0.00000
  19     114.6       31.2874        0.2566      339.1186      339.3752     308.087785       0.00362
  18     136.5       31.2514        0.3049      339.0230      339.3279     308.076543       0.00432
  17     162.9       31.2085        0.3626      338.8993      339.2619     308.053451       0.00738
  16     196.4       31.1527        0.4375      338.7051      339.1427     307.990006       0.01597
  15     218.7       31.1160        0.4868      338.5348      339.0216     307.905640       0.03203
  14     243.0       31.0763        0.5403      338.2627      338.8030     307.726774       0.06204
  13     269.0       31.0340        0.5981      337.7441      338.3421     307.308159       0.13580
  12     297.5       30.9898        0.6601      336.9211      337.5812     306.591417       0.21258
  11     328.5       30.9446        0.7266      335.7650      336.4916     305.547026       0.28397
  10     361.9       30.9000        0.7975      334.2823      335.0798     304.179779       0.34593
   9     398.1       30.8582        0.8726      332.4022      333.2748     302.416594       0.41078
   8     437.6       30.8232        0.9515      329.9302      330.8817     300.058496       0.50418
   7     480.5       30.8032        1.0333      326.6027      327.6360     296.832811       0.63351
   6     533.0       30.8083        1.1304      321.8437      322.9741     292.165823       0.75077
   5     589.8       30.8587        1.2311      316.1288      317.3599     286.501190       0.84082
   4     651.6       30.9820        1.3350      309.4817      310.8167     279.834767       0.91165
   3     718.7       31.1993        1.4433      302.4369      303.8803     272.681009       0.89903
   2     792.3       31.5349        1.5568      295.4071      296.9639     265.428959       0.83173
   1     891.5       32.2367        1.7048      286.3948      288.0996     255.862927       0.81402
   0    1013.0       33.8862        1.8707      275.3787      277.2494     243.363227       0.86792



 Wavenumbers: 12850. - 16000. cm-1, ATM      1
 LEVEL PRESSURE   UPWARD FLUX   DIFDOWN FLUX  DIRDOWN FLUX  DOWNWARD FLUX   NET FLUX    HEATING RATE
          mb          W/m2          W/m2          W/m2        W/m2          W/m2       degree/day
  51    .06700       88.2513        0.0000      212.7733      212.7733     124.522013       0.00000
  50    .07753       88.2513        0.0001      212.7725      212.7725     124.521217       0.63832
  49    .09103       88.2513        0.0002      212.7714      212.7715     124.520211       0.62894
  48    0.1069       88.2514        0.0003      212.7701      212.7704     124.519046       0.61977
  47    0.1255       88.2514        0.0004      212.7687      212.7691     124.517698       0.61121
  46    0.1487       88.2514        0.0005      212.7668      212.7674     124.515981       0.62583
  45    0.1794       88.2515        0.0008      212.7643      212.7651     124.513619       0.64847
  44    0.2165       88.2516        0.0010      212.7614      212.7624     124.510803       0.64068
  43    0.2613       88.2517        0.0013      212.7579      212.7592     124.507440       0.63376
  42    0.3336       88.2521        0.0018      212.7521      212.7539     124.501843       0.65263
  41    0.4307       88.2526        0.0024      212.7445      212.7470     124.494416       0.64571
  40    0.5894       88.2536        0.0035      212.7324      212.7359     124.482301       0.64429
  39     1.339       88.2616        0.0085      212.6762      212.6848     124.423177       0.66563
  38     1.782       88.2688        0.0115      212.6439      212.6553     124.386563       0.69708
  37     2.292       88.2794        0.0149      212.6061      212.6210     124.341626       0.74426
  36     2.964       88.2968        0.0193      212.5554      212.5748     124.277970       0.79908
  35     3.853       88.3248        0.0252      212.4865      212.5118     124.186977       0.86354
  34     5.035       88.3668        0.0331      212.3942      212.4273     124.060466       0.90374
  33     6.613       88.4255        0.0436      212.2741      212.3176     123.892141       0.89987
  32     8.786       88.5019        0.0577      212.1222      212.1799     123.677975       0.83174
  31     11.80       88.6015        0.0778      211.9240      212.0019     123.400323       0.77734
  30     15.07       88.6973        0.0995      211.7297      211.8292     123.131930       0.69294
  29     18.79       88.7953        0.1240      211.5256      211.6495     122.854276       0.62953
  28     23.16       88.8980        0.1526      211.3042      211.4568     122.558729       0.57149
  27     28.12       89.0019        0.1853      211.0706      211.2559     122.253978       0.51806
  26     33.73       89.0986        0.2219      210.8367      211.0586     121.960027       0.44196
  25     40.54       89.1928        0.2662      210.5862      210.8524     121.659531       0.37280
  24     48.69       89.2844        0.3196      210.3154      210.6350     121.350564       0.31973
  23     57.69       89.3638        0.3784      210.0484      210.4269     121.063089       0.26947
  22     68.43       89.4352        0.4485      209.7641      210.2127     120.777473       0.22453
  21     81.20       89.4887        0.5322      209.4719      210.0041     120.515444       0.17314
  20     96.49       89.5232        0.6322      209.1690      209.8012     120.278019       0.13104
  19     114.6       89.5627        0.7522      208.8358      209.5880     120.025231       0.11803
  18     136.5       89.5969        0.8945      208.4657      209.3601     119.763272       0.10073
  17     162.9       89.6258        1.0641      208.0489      209.1130     119.487202       0.08824
  16     196.4       89.6387        1.2846      207.5460      208.8306     119.191927       0.07432
  15     218.7       89.6382        1.4295      207.2275      208.6570     119.018812       0.06573
  14     243.0       89.6341        1.5872      206.8834      208.4706     118.836527       0.06322
  13     269.0       89.6266        1.7583      206.5082      208.2664     118.639794       0.06382
  12     297.5       89.6169        1.9433      206.0946      208.0380     118.421084       0.06487
  11     328.5       89.6085        2.1435      205.6323      207.7759     118.167323       0.06900
  10     361.9       89.6043        2.3593      205.1124      207.4717     117.867338       0.07590
   9     398.1       89.6078        2.5917      204.5251      207.1168     117.508972       0.08349
   8     437.6       89.6258        2.8413      203.8540      206.6953     117.069549       0.09395
   7     480.5       89.6705        3.1087      203.0719      206.1806     116.510109       0.10987
   6     533.0       89.7685        3.4372      202.0216      205.4588     115.690342       0.13187
   5     589.8       89.9285        3.7897      200.8007      204.5905     114.661989       0.15264
   4     651.6       90.1775        4.1662      199.3847      203.5509     113.373343       0.17623
   3     718.7       90.5341        4.5676      197.7886      202.3562     111.822038       0.19496
   2     792.3       91.0229        4.9947      196.0372      201.0319     110.008931       0.20794
   1     891.5       91.9152        5.5656      193.5937      199.1593     107.244154       0.23527
   0    1013.0       93.5318        6.2409      190.4928      196.7337     103.201858       0.28068



 Wavenumbers: 16000. - 22650. cm-1, ATM      1
 LEVEL PRESSURE   UPWARD FLUX   DIFDOWN FLUX  DIRDOWN FLUX  DOWNWARD FLUX   NET FLUX    HEATING RATE
          mb          W/m2          W/m2          W/m2        W/m2          W/m2       degree/day
  51    .06700      243.8512        0.0000      339.2435      339.2435      95.392389       0.00000
  50    .07753      243.8513        0.0005      339.2430      339.2435      95.392192       0.15712
  49    .09103      243.8515        0.0011      339.2422      339.2434      95.391907       0.17821
  48    0.1069      243.8517        0.0019      339.2414      339.2432      95.391526       0.20322
  47    0.1255      243.8520        0.0027      339.2403      339.2431      95.391015       0.23165
  46    0.1487      243.8525        0.0038      339.2390      339.2428      95.390262       0.27450
  45    0.1794      243.8533        0.0052      339.2371      339.2423      95.389084       0.32320
  44    0.2165      243.8542        0.0069      339.2348      339.2417      95.387487       0.36325
  43    0.2613      243.8556        0.0090      339.2319      339.2409      95.385321       0.40838
  42    0.3336      243.8581        0.0123      339.2269      339.2393      95.381202       0.48025
  41    0.4307      243.8618        0.0168      339.2200      339.2368      95.374993       0.53987
  40    0.5894      243.8689        0.0241      339.2080      339.2321      95.363151       0.62975
  39     1.339      243.9206        0.0586      339.1377      339.1963      95.275647       0.98514
  38     1.782      243.9644        0.0789      339.0866      339.1655      95.201087       1.41949
  37     2.292      244.0275        0.1023      339.0183      339.1206      95.093136       1.78795
  36     2.964      244.1295        0.1331      338.9146      339.0477      94.918194       2.19605
  35     3.853      244.2912        0.1737      338.7579      338.9317      94.640455       2.63580
  34     5.035      244.5326        0.2277      338.5306      338.7584      94.225757       2.96243
  33     6.613      244.8688        0.2998      338.2178      338.5176      93.648793       3.08445
  32     8.786      245.3078        0.3970      337.8077      338.2047      92.896891       2.92011
  31     11.80      245.8834        0.5359      337.2614      337.7973      91.913900       2.75206
  30     15.07      246.4404        0.6851      336.7215      337.4066      90.966183       2.44682
  29     18.79      247.0146        0.8536      336.1537      337.0073      89.992682       2.20723
  28     23.16      247.6218        1.0504      335.5387      336.5891      88.967368       1.98262
  27     28.12      248.2419        1.2756      334.8912      336.1669      87.924955       1.77203
  26     33.73      248.8293        1.5279      334.2448      335.7727      86.943391       1.47581
  25     40.54      249.4155        1.8329      333.5534      335.3863      85.970844       1.20655
  24     48.69      250.0022        2.2011      332.8066      335.0077      85.005526       0.99895
  23     57.69      250.5304        2.6060      332.0695      334.6754      84.145064       0.80655
  22     68.43      251.0340        3.0888      331.2805      334.3693      83.335280       0.63660
  21     81.20      251.4620        3.6650      330.4607      334.1257      82.663716       0.44376
  20     96.49      251.8120        4.3529      329.5945      333.9474      82.135414       0.29158
  19     114.6      252.1438        5.1698      328.6254      333.7951      81.651343       0.22603
  18     136.5      252.4803        6.1377      327.5165      333.6541      81.173841       0.18361
  17     162.9      252.8285        7.2895      326.2330      333.5225      80.694019       0.15337
  16     196.4      253.1679        8.7831      324.6457      333.4287      80.260798       0.10905
  15     218.7      253.3489        9.7634      323.6321      333.3955      80.046660       0.08130
  14     243.0      253.5254       10.8284      322.5443      333.3727      79.847229       0.06917
  13     269.0      253.6958       11.9819      321.3794      333.3613      79.665490       0.05896
  12     297.5      253.8598       13.2276      320.1340      333.3616      79.501874       0.04853
  11     328.5      254.0270       14.5729      318.7943      333.3672      79.340194       0.04396
  10     361.9      254.1978       16.0202      317.3570      333.3772      79.179417       0.04068
   9     398.1      254.3738       17.5769      315.8140      333.3909      79.017126       0.03781
   8     437.6      254.5586       19.2474      314.1578      333.4052      78.846675       0.03644
   7     480.5      254.7555       21.0372      312.3798      333.4170      78.661465       0.03637
   6     533.0      255.0004       23.2390      310.1849      333.4239      78.423527       0.03828
   5     589.8      255.2730       25.6112      307.8073      333.4185      78.145507       0.04127
   4     651.6      255.5824       28.1599      305.2344      333.3943      77.811950       0.04561
   3     718.7      255.9293       30.8919      302.4603      333.3522      77.422895       0.04889
   2     792.3      256.3173       33.8089      299.4825      333.2914      76.974135       0.05147
   1     891.5      256.8817       37.7302      295.4454      333.1756      76.293850       0.05789
   0    1013.0      257.6439       42.4162      290.5594      332.9755      75.331619       0.06681



 Wavenumbers: 22650. - 29000. cm-1, ATM      1
 LEVEL PRESSURE   UPWARD FLUX   DIFDOWN FLUX  DIRDOWN FLUX  DOWNWARD FLUX   NET FLUX    HEATING RATE
          mb          W/m2          W/m2          W/m2        W/m2          W/m2       degree/day
  51    .06700      108.6472        0.0000      128.0182      128.0182      19.370932       0.00000
  50    .07753      108.6473        0.0006      128.0176      128.0182      19.370932       0.00000
  49    .09103      108.6474        0.0014      128.0169      128.0183      19.370932       0.00000
  48    0.1069      108.6475        0.0023      128.0161      128.0184      19.370932       0.00000
  47    0.1255      108.6476        0.0033      128.0152      128.0185      19.370932      -0.00000
  46    0.1487      108.6478        0.0046      128.0140      128.0187      19.370932      -0.00000
  45    0.1794      108.6480        0.0064      128.0125      128.0189      19.370932       0.00000
  44    0.2165      108.6482        0.0085      128.0106      128.0191      19.370932      -0.00000
  43    0.2613      108.6485        0.0110      128.0084      128.0194      19.370932       0.00000
  42    0.3336      108.6489        0.0152      128.0047      128.0199      19.370932       0.00000
  41    0.4307      108.6496        0.0206      127.9999      128.0205      19.370932       0.00000
  40    0.5894      108.6506        0.0296      127.9919      128.0215      19.370932      -0.00000
  39     1.339      108.6553        0.0720      127.9543      128.0263      19.370932       0.00000
  38     1.782      108.6581        0.0969      127.9322      128.0291      19.370932      -0.00000
  37     2.292      108.6614        0.1257      127.9067      128.0323      19.370932       0.00000
  36     2.964      108.6657        0.1635      127.8731      128.0366      19.370932      -0.00000
  35     3.853      108.6713        0.2135      127.8287      128.0422      19.370932       0.00000
  34     5.035      108.6788        0.2799      127.7698      128.0497      19.370932       0.00000
  33     6.613      108.6887        0.3686      127.6911      128.0597      19.370932       0.00000
  32     8.786      108.7022        0.4881      127.5850      128.0731      19.370932      -0.00000
  31     11.80      108.7214        0.6590      127.4333      128.0923      19.370932       0.00000
  30     15.07      108.7420        0.8425      127.2704      128.1129      19.370932      -0.00000
  29     18.79      108.7652        1.0497      127.0865      128.1362      19.370932       0.00000
  28     23.16      108.7923        1.2915      126.8717      128.1632      19.370932      -0.00000
  27     28.12      108.8232        1.5679      126.6263      128.1941      19.370932      -0.00000
  26     33.73      108.8577        1.8768      126.3519      128.2286      19.370932      -0.00000
  25     40.54      108.8992        2.2495      126.0207      128.2701      19.370932       0.00000
  24     48.69      108.9490        2.6980      125.6220      128.3199      19.370932      -0.00000
  23     57.69      109.0035        3.1895      125.1849      128.3744      19.370932       0.00000
  22     68.43      109.0679        3.7733      124.6655      128.4388      19.370932       0.00000
  21     81.20      109.1441        4.4665      124.0485      128.5150      19.370932       0.00000
  20     96.49      109.2341        5.2889      123.3161      128.6050      19.370932      -0.00000
  19     114.6      109.3397        6.2601      122.4505      128.7106      19.370932       0.00000
  18     136.5      109.4632        7.4037      121.4304      128.8341      19.370932       0.00000
  17     162.9      109.6078        8.7549      120.2238      128.9787      19.370932      -0.00000
  16     196.4      109.7914       10.4895      118.6727      129.1623      19.370932       0.00000
  15     218.7      109.9095       11.6180      117.6625      129.2804      19.370932       0.00000
  14     243.0      110.0358       12.8351      116.5716      129.4067      19.370932      -0.00000
  13     269.0      110.1701       14.1430      115.3980      129.5410      19.370932       0.00000
  12     297.5      110.3123       15.5437      114.1396      129.6833      19.370932      -0.00000
  11     328.5      110.4627       17.0429      112.7907      129.8336      19.370932       0.00000
  10     361.9      110.6206       18.6404      111.3512      129.9916      19.370932       0.00000
   9     398.1      110.7862       20.3409      109.8162      130.1571      19.370932       0.00000
   8     437.6      110.9588       22.1456      108.1841      130.3297      19.370932      -0.00000
   7     480.5      111.1380       24.0563      106.4526      130.5090      19.370932       0.00000
   6     533.0      111.3504       26.3750      104.3463      130.7213      19.370932      -0.00000
   5     589.8      111.5692       28.8340      102.1061      130.9401      19.370932       0.00000
   4     651.6      111.7927       31.4318       99.7319      131.1637      19.370932       0.00000
   3     718.7      112.0191       34.1654       97.2246      131.3900      19.370932       0.00000
   2     792.3      112.2454       37.0261       94.5902      131.6164      19.370932      -0.00000
   1     891.5      112.5246       40.7779       91.1176      131.8956      19.370932      -0.00000
   0    1013.0      112.8206       45.1240       87.0675      132.1915      19.370932      -0.00000



 Wavenumbers: 29000. - 38000. cm-1, ATM      1
 LEVEL PRESSURE   UPWARD FLUX   DIFDOWN FLUX  DIRDOWN FLUX  DOWNWARD FLUX   NET FLUX    HEATING RATE
          mb          W/m2          W/m2          W/m2        W/m2          W/m2       degree/day
  51    .06700       16.9176        0.0000       45.1445       45.1445      28.226907       0.00000
  50    .07753       16.9175        0.0004       45.1402       45.1406      28.223079       3.06794
  49    .09103       16.9174        0.0008       45.1340       45.1349      28.217507       3.48253
  48    0.1069       16.9172        0.0014       45.1259       45.1273      28.210042       3.97382
  47    0.1255       16.9171        0.0020       45.1151       45.1171      28.200047       4.53122
  46    0.1487       16.9169        0.0028       45.0995       45.1023      28.185318       5.36881
  45    0.1794       16.9168        0.0038       45.0752       45.0791      28.162318       6.31415
  44    0.2165       16.9166        0.0051       45.0427       45.0478      28.131194       7.08024
  43    0.2613       16.9164        0.0066       44.9990       45.0056      28.089119       7.93083
  42    0.3336       16.9163        0.0090       44.9170       44.9260      28.009694       9.26020
  41    0.4307       16.9164        0.0122       44.7957       44.8079      27.891512      10.27565
  40    0.5894       16.9169        0.0174       44.5709       44.5883      27.671398      11.70539
  39     1.339       16.9264        0.0401       43.1320       43.1721      26.245636      16.05149
  38     1.782       16.9369        0.0522       42.1484       42.2006      25.263751      18.69352
  37     2.292       16.9531        0.0654       41.0073       41.0727      24.119617      18.94983
  36     2.964       16.9807        0.0818       39.6314       39.7133      22.732599      17.41127
  35     3.853       17.0259        0.1026       38.1244       38.2270      21.201117      14.53404
  34     5.035       17.0947        0.1294       36.6081       36.7375      19.642854      11.13159
  33     6.613       17.1918        0.1643       35.1382       35.3025      18.110641       8.19121
  32     8.786       17.3205        0.2103       33.7455       33.9558      16.635321       5.72961
  31     11.80       17.4925        0.2752       32.3833       32.6586      15.166061       4.11347
  30     15.07       17.6638        0.3440       31.3427       31.6867      14.022898       2.95143
  29     18.79       17.8460        0.4204       30.4443       30.8647      13.018758       2.27669
  28     23.16       18.0463        0.5088       29.6246       30.1334      12.087061       1.80160
  27     28.12       18.2601        0.6090       28.8817       29.4906      11.230545       1.45602
  26     33.73       18.4715        0.7212       28.2360       28.9572      10.485717       1.11987
  25     40.54       18.6914        0.8569       27.6241       28.4810       9.789567       0.86365
  24     48.69       18.9218        1.0205       27.0316       28.0520       9.130277       0.68226
  23     57.69       19.1384        1.2002       26.5005       27.7007       8.562281       0.53241
  22     68.43       19.3533        1.4145       25.9781       27.3926       8.039328       0.41111
  21     81.20       19.5406        1.6721       25.4801       27.1521       7.611523       0.28269
  20     96.49       19.6951        1.9807       24.9919       26.9726       7.277486       0.18436
  19     114.6       19.8432        2.3441       24.4717       26.8158       6.972533       0.14239
  18     136.5       19.9961        2.7678       23.8997       26.6676       6.671413       0.11579
  17     162.9       20.1580        3.2635       23.2628       26.5262       6.368227       0.09691
  16     196.4       20.3150        3.8969       22.5108       26.4077       6.092778       0.06933
  15     218.7       20.3976        4.3052       22.0470       26.3521       5.954524       0.05249
  14     243.0       20.4777        4.7413       21.5607       26.3021       5.824394       0.04513
  13     269.0       20.5532        5.2055       21.0531       26.2585       5.705293       0.03864
  12     297.5       20.6233        5.6973       20.5243       26.2216       5.598288       0.03174
  11     328.5       20.6924        6.2161       19.9701       26.1862       5.493866       0.02839
  10     361.9       20.7597        6.7604       19.3920       26.1524       5.392616       0.02562
   9     398.1       20.8249        7.3299       18.7897       26.1197       5.294800       0.02279
   8     437.6       20.8882        7.9231       18.1638       26.0869       5.198725       0.02054
   7     480.5       20.9483        8.5385       17.5155       26.0541       5.105780       0.01825
   6     533.0       21.0131        9.2685       16.7472       26.0157       5.002603       0.01660
   5     589.8       21.0732       10.0201       15.9535       25.9736       4.900362       0.01518
   4     651.6       21.1284       10.7897       15.1370       25.9267       4.798310       0.01396
   3     718.7       21.1777       11.5734       14.3008       25.8742       4.696470       0.01280
   2     792.3       21.2195       12.3627       13.4517       25.8145       4.594939       0.01164
   1     891.5       21.2597       13.3490       12.3777       25.7267       4.467079       0.01088
   0    1013.0       21.2872       14.4241       11.1856       25.6097       4.322531       0.01004



 Wavenumbers: 38000. - 50000. cm-1, ATM      1
 LEVEL PRESSURE   UPWARD FLUX   DIFDOWN FLUX  DIRDOWN FLUX  DOWNWARD FLUX   NET FLUX    HEATING RATE
          mb          W/m2          W/m2          W/m2        W/m2          W/m2       degree/day
  51    .06700        0.0077        0.0000        2.7845        2.7845       2.776804       0.00000
  50    .07753        0.0076        0.0001        2.7820        2.7821       2.774466       1.87422
  49    .09103        0.0076        0.0002        2.7785        2.7787       2.771124       2.08844
  48    0.1069        0.0075        0.0003        2.7739        2.7742       2.766725       2.34187
  47    0.1255        0.0074        0.0004        2.7680        2.7683       2.760927       2.62859
  46    0.1487        0.0073        0.0005        2.7593        2.7598       2.752507       3.06903
  45    0.1794        0.0071        0.0007        2.7460        2.7467       2.739523       3.56452
  44    0.2165        0.0070        0.0009        2.7282        2.7291       2.722171       3.94722
  43    0.2613        0.0068        0.0012        2.7046        2.7058       2.699009       4.36588
  42    0.3336        0.0065        0.0015        2.6609        2.6624       2.655924       5.02335
  41    0.4307        0.0061        0.0020        2.5970        2.5991       2.592931       5.47710
  40    0.5894        0.0056        0.0027        2.4815        2.4842       2.478574       6.08134
  39     1.339        0.0038        0.0042        1.8149        1.8190       1.815270       7.46761
  38     1.782        0.0030        0.0040        1.4302        1.4342       1.431208       7.31192
  37     2.292        0.0024        0.0036        1.0577        1.0613       1.058903       6.16633
  36     2.964        0.0019        0.0030        0.7140        0.7170       0.715149       4.31516
  35     3.853        0.0015        0.0024        0.4564        0.4589       0.457401       2.44607
  34     5.035        0.0011        0.0019        0.2892        0.2911       0.289993       1.19590
  33     6.613        0.0009        0.0016        0.1825        0.1840       0.183159       0.57113
  32     8.786        0.0007        0.0013        0.1153        0.1165       0.115840       0.26144
  31     11.80        0.0005        0.0010        0.0712        0.0722       0.071711       0.12355
  30     15.07        0.0004        0.0008        0.0472        0.0480       0.047626       0.06218
  29     18.79        0.0003        0.0006        0.0315        0.0321       0.031814       0.03585
  28     23.16        0.0002        0.0004        0.0206        0.0210       0.020821       0.02126
  27     28.12        0.0001        0.0003        0.0132        0.0136       0.013410       0.01260
  26     33.73        0.0001        0.0002        0.0085        0.0088       0.008654       0.00715
  25     40.54        0.0001        0.0002        0.0053        0.0055       0.005402       0.00403
  24     48.69        0.0000        0.0001        0.0032        0.0033       0.003226       0.00225
  23     57.69        0.0000        0.0001        0.0019        0.0019       0.001920       0.00122
  22     68.43        0.0000        0.0000        0.0011        0.0011       0.001085       0.00066
  21     81.20        0.0000        0.0000        0.0006        0.0006       0.000585       0.00033
  20     96.49        0.0000        0.0000        0.0003        0.0003       0.000295       0.00016
  19     114.6        0.0000        0.0000        0.0001        0.0001       0.000133       0.00008
  18     136.5        0.0000        0.0000        0.0001        0.0001       0.000052       0.00003
  17     162.9        0.0000        0.0000        0.0000        0.0000       0.000017       0.00001
  16     196.4        0.0000        0.0000        0.0000        0.0000       0.000004       0.00000
  15     218.7        0.0000        0.0000        0.0000        0.0000       0.000002       0.00000
  14     243.0        0.0000        0.0000        0.0000        0.0000       0.000001       0.00000
  13     269.0        0.0000        0.0000        0.0000        0.0000       0.000000       0.00000
  12     297.5        0.0000        0.0000        0.0000        0.0000       0.000000       0.00000
  11     328.5        0.0000        0.0000        0.0000        0.0000       0.000000       0.00000
  10     361.9        0.0000        0.0000        0.0000        0.0000       0.000000       0.00000
   9     398.1        0.0000        0.0000        0.0000        0.0000       0.000000       0.00000
   8     437.6        0.0000        0.0000        0.0000        0.0000       0.000000       0.00000
   7     480.5        0.0000        0.0000        0.0000        0.0000       0.000000       0.00000
   6     533.0        0.0000        0.0000        0.0000        0.0000       0.000000       0.00000
   5     589.8        0.0000        0.0000        0.0000        0.0000       0.000000       0.00000
   4     651.6        0.0000        0.0000        0.0000        0.0000       0.000000       0.00000
   3     718.7        0.0000        0.0000        0.0000        0.0000       0.000000       0.00000
   2     792.3        0.0000        0.0000        0.0000        0.0000       0.000000       0.00000
   1     891.5        0.0000        0.0000        0.0000        0.0000       0.000000       0.00000
   0    1013.0        0.0000        0.0000        0.0000        0.0000       0.000000       0.00000



 Wavenumbers:   820. -  2600. cm-1, ATM      1
 LEVEL PRESSURE   UPWARD FLUX   DIFDOWN FLUX  DIRDOWN FLUX  DOWNWARD FLUX   NET FLUX    HEATING RATE
          mb          W/m2          W/m2          W/m2        W/m2          W/m2       degree/day
  51    .06700        0.0715        0.0000       13.0254       13.0254      12.953982       0.00000
  50    .07753        0.0715        0.0000       13.0185       13.0185      12.947043       5.56170
  49    .09103        0.0715        0.0000       13.0170       13.0170      12.945511       0.95758
  48    0.1069        0.0715        0.0000       13.0159       13.0159      12.944403       0.58952
  47    0.1255        0.0715        0.0000       13.0146       13.0146      12.943136       0.57461
  46    0.1487        0.0715        0.0000       13.0130       13.0130      12.941504       0.59486
  45    0.1794        0.0715        0.0000       13.0107       13.0107      12.939285       0.60917
  44    0.2165        0.0715        0.0000       13.0082       13.0082      12.936714       0.58473
  43    0.2613        0.0715        0.0000       13.0053       13.0053      12.933798       0.54980
  42    0.3336        0.0715        0.0000       13.0008       13.0008      12.929345       0.51918
  41    0.4307        0.0715        0.0000       12.9956       12.9956      12.924121       0.45419
  40    0.5894        0.0715        0.0000       12.9881       12.9881      12.916660       0.39674
  39     1.339        0.0715        0.0000       12.9564       12.9564      12.884989       0.35656
  38     1.782        0.0715        0.0000       12.9383       12.9383      12.866830       0.34573
  37     2.292        0.0715        0.0000       12.9178       12.9178      12.846328       0.33955
  36     2.964        0.0715        0.0000       12.8914       12.8914      12.819971       0.33087
  35     3.853        0.0715        0.0000       12.8572       12.8572      12.785775       0.32452
  34     5.035        0.0715        0.0000       12.8132       12.8132      12.741709       0.31479
  33     6.613        0.0715        0.0000       12.7573       12.7573      12.685864       0.29855
  32     8.786        0.0715        0.0000       12.6864       12.6864      12.614966       0.27534
  31     11.80        0.0715        0.0000       12.5914       12.5914      12.519978       0.26593
  30     15.07        0.0715        0.0000       12.4972       12.4972      12.425746       0.24329
  29     18.79        0.0715        0.0000       12.4026       12.4026      12.331179       0.21441
  28     23.16        0.0715        0.0000       12.3114       12.3115      12.239988       0.17633
  27     28.12        0.0715        0.0000       12.2319       12.2319      12.160394       0.13530
  26     33.73        0.0715        0.0000       12.1678       12.1678      12.096338       0.09631
  25     40.54        0.0715        0.0000       12.1138       12.1138      12.042303       0.06704
  24     48.69        0.0715        0.0000       12.0661       12.0661      11.994611       0.04935
  23     57.69        0.0715        0.0000       12.0219       12.0219      11.950390       0.04145
  22     68.43        0.0715        0.0000       11.9724       11.9724      11.900936       0.03888
  21     81.20        0.0715        0.0000       11.9151       11.9151      11.843636       0.03786
  20     96.49        0.0715        0.0000       11.8476       11.8476      11.776165       0.03724
  19     114.6        0.0715        0.0000       11.7666       11.7666      11.695093       0.03785
  18     136.5        0.0715        0.0000       11.6629       11.6629      11.591381       0.03988
  17     162.9        0.0715        0.0000       11.5079       11.5079      11.436419       0.04953
  16     196.4        0.0715        0.0000       11.2344       11.2344      11.162877       0.06885
  15     218.7        0.0716        0.0000       11.0228       11.0228      10.951213       0.08036
  14     243.0        0.0716        0.0000       10.7226       10.7226      10.651043       0.10411
  13     269.0        0.0717        0.0000       10.2866       10.2866      10.214934       0.14147
  12     297.5        0.0717        0.0000        9.8257        9.8257       9.753993       0.13671
  11     328.5        0.0719        0.0000        9.3778        9.3778       9.305903       0.12183
  10     361.9        0.0721        0.0000        8.8561        8.8561       8.783994       0.13205
   9     398.1        0.0725        0.0000        8.2514        8.2515       8.179012       0.14095
   8     437.6        0.0729        0.0000        7.6428        7.6428       7.569887       0.13023
   7     480.5        0.0736        0.0000        7.1334        7.1335       7.059903       0.10016
   6     533.0        0.0746        0.0000        6.7399        6.7400       6.665356       0.06347
   5     589.8        0.0761        0.0000        6.4177        6.4178       6.341635       0.04805
   4     651.6        0.0784        0.0000        6.0681        6.0681       5.989747       0.04812
   3     718.7        0.0814        0.0000        5.7136        5.7137       5.632301       0.04492
   2     792.3        0.0851        0.0000        5.3900        5.3900       5.304914       0.03755
   1     891.5        0.0916        0.0000        5.0211        5.0212       4.929562       0.03194
   0    1013.0        0.1049        0.0000        4.5997        4.5997       4.494840       0.03018

  Modules and versions used in this calculation:

       rrtmg_sw.1col.f90:  $Revision$                    rrtmg_sw_init.f90:  $Revision$        
     rrtmgsw_cldprop.f90:  $Revision$                  rrtmgsw_cldprmc.f90:  NOT USED          
     rrtmg_sw_reftra.f90:  $Revision$                  rrtmg_sw_spcvrt.f90:  NOT USED          
     rrtmg_sw_spcvmc.f90:  NOT USED                    rrtmgsw_setcoef.f90:  NOT USED          
     rrtmg_sw_taumol.f90:  $Revision$                  rrtmg_sw_vrtqdr.f90:  NOT USED          
                rrtatm.f:  NOT USED                             util_xxx.f:  NOT USED          
                 extra.f:  NOT USED                       rrtmg_sw_k_g.f90:  $Revision$        

