

 Wavenumbers:   820. - 50000. cm-1, ATM      1
 LEVEL PRESSURE   UPWARD FLUX   DIFDOWN FLUX  DIRDOWN FLUX  DOWNWARD FLUX   NET FLUX    HEATING RATE
          mb          W/m2          W/m2          W/m2        W/m2          W/m2       degree/day
  51    .06700      471.0212        0.0000     1278.7799     1278.7799     807.758688       0.00000
  50    .07753      471.0212        0.0016     1278.7584     1278.7601     807.738877      15.87879
  49    .09103      471.0212        0.0037     1278.7392     1278.7429     807.721729      10.71753
  48    0.1069      471.0212        0.0061     1278.7177     1278.7238     807.702513      10.22884
  47    0.1255      471.0214        0.0088     1278.6919     1278.7007     807.679353      10.49983
  46    0.1487      471.0216        0.0122     1278.6571     1278.6693     807.647692      11.54077
  45    0.1794      471.0221        0.0169     1278.6060     1278.6229     807.600777      12.87917
  44    0.2165      471.0229        0.0224     1278.5403     1278.5627     807.539872      13.85495
  43    0.2613      471.0240        0.0289     1278.4554     1278.4843     807.460333      14.99269
  42    0.3336      471.0264        0.0397     1278.3017     1278.3414     807.315044      16.93928
  41    0.4307      471.0302        0.0539     1278.0815     1278.1354     807.105195      18.24587
  40    0.5894      471.0380        0.0770     1277.6871     1277.7641     806.726030      20.16351
  39     1.339      471.1032        0.1826     1275.3481     1275.5307     804.427484      25.87746
  38     1.782      471.1616        0.2424     1273.8545     1274.0970     802.935391      28.40704
  37     2.292      471.2474        0.3105     1272.2034     1272.5140     801.266552      27.64033
  36     2.964      471.3881        0.3991     1270.2980     1270.6971     799.308973      24.57353
  35     3.853      471.6131        0.5154     1268.2602     1268.7756     797.162577      20.36970
  34     5.035      471.9505        0.6693     1266.1678     1266.8370     794.886500      16.25935
  33     6.613      472.4220        0.8741     1264.0128     1264.8869     792.464972      12.94549
  32     8.786      473.0392        1.1495     1261.7772     1262.9267     789.887464      10.01011
  31     11.80      473.8516        1.5424     1259.2991     1260.8415     786.989930       8.11218
  30     15.07      474.6419        1.9632     1257.1401     1259.1033     784.461396       6.52818
  29     18.79      475.4617        2.4375     1255.0470     1257.4845     782.022760       5.52914
  28     23.16      476.3354        2.9904     1252.9135     1255.9039     779.568441       4.74586
  27     28.12      477.2359        3.6216     1250.7645     1254.3861     777.150176       4.11089
  26     33.73      478.0966        4.3280     1248.6710     1252.9990     774.902405       3.37958
  25     40.54      478.9631        5.1812     1246.4536     1251.6348     772.671648       2.76751
  24     48.69      479.8389        6.2093     1244.0672     1250.2765     770.437583       2.31191
  23     57.69      480.6349        7.3378     1241.7002     1249.0380     768.403132       1.90699
  22     68.43      481.3999        8.6809     1239.1373     1247.8183     766.418368       1.56029
  21     81.20      482.0518       10.2817     1236.3940     1246.6758     764.623980       1.18570
  20     96.49      482.5827       12.1882     1233.4010     1245.5892     763.006585       0.89269
  19     114.6      483.0976       14.4444     1229.9782     1244.4227     761.325024       0.78517
  18     136.5      483.6188       17.1035     1226.0061     1243.1096     759.490810       0.70530
  17     162.9      484.1569       20.2491     1221.2232     1241.4723     757.315364       0.69536
  16     196.4      484.6710       24.3000     1214.7576     1239.0576     754.386606       0.73720
  15     218.7      484.9389       26.9408     1210.2261     1237.1669     752.227998       0.81954
  14     243.0      485.1966       29.7928     1204.6785     1234.4712     749.274601       1.02434
  13     269.0      485.4415       32.8621     1197.1603     1230.0224     744.580922       1.52261
  12     297.5      485.6735       36.1543     1187.7307     1223.8850     738.211457       1.88911
  11     328.5      485.9105       39.6823     1176.7244     1216.4067     730.496145       2.09777
  10     361.9      486.1561       43.4469     1164.3751     1207.8219     721.665835       2.23416
   9     398.1      486.4163       47.4598     1150.5960     1198.0558     711.639583       2.33589
   8     437.6      486.7050       51.7249     1135.0771     1186.8020     700.097024       2.46787
   7     480.5      487.0438       56.2465     1117.5641     1173.8107     686.766871       2.61799
   6     533.0      487.5192       61.7436     1096.2150     1157.9585     670.439298       2.62659
   5     589.8      488.1212       67.5855     1073.9461     1141.5316     653.410402       2.52765
   4     651.6      488.9099       73.7691     1050.8178     1124.5869     635.677012       2.42509
   3     718.7      489.9229       80.2977     1027.8502     1108.1479     618.225016       2.19323
   2     792.3      491.2076       87.1554     1005.5707     1092.7261     601.518497       1.91605
   1     891.5      493.4218       96.1975      977.6983     1073.8959     580.474086       1.79078
   0    1013.0      497.4652      106.7354      945.0913     1051.8267     554.361488       1.81313



 Wavenumbers:  2600. -  3250. cm-1, ATM      1
 LEVEL PRESSURE   UPWARD FLUX   DIFDOWN FLUX  DIRDOWN FLUX  DOWNWARD FLUX   NET FLUX    HEATING RATE
          mb          W/m2          W/m2          W/m2        W/m2          W/m2       degree/day
  51    .06700        0.1421        0.0000       11.2704       11.2704      11.128280       0.00000
  50    .07753        0.1421        0.0000       11.2704       11.2704      11.128272       0.00640
  49    .09103        0.1421        0.0000       11.2704       11.2704      11.128262       0.00627
  48    0.1069        0.1421        0.0000       11.2704       11.2704      11.128250       0.00613
  47    0.1255        0.1421        0.0000       11.2704       11.2704      11.128237       0.00600
  46    0.1487        0.1421        0.0000       11.2703       11.2703      11.128220       0.00608
  45    0.1794        0.1421        0.0000       11.2703       11.2703      11.128197       0.00625
  44    0.2165        0.1421        0.0000       11.2703       11.2703      11.128170       0.00613
  43    0.2613        0.1421        0.0000       11.2703       11.2703      11.128139       0.00601
  42    0.3336        0.1421        0.0000       11.2702       11.2702      11.128085       0.00618
  41    0.4307        0.1421        0.0000       11.2701       11.2701      11.128014       0.00622
  40    0.5894        0.1421        0.0000       11.2700       11.2700      11.127894       0.00640
  39     1.339        0.1421        0.0000       11.2693       11.2693      11.127178       0.00806
  38     1.782        0.1421        0.0000       11.2688       11.2688      11.126623       0.01056
  37     2.292        0.1421        0.0000       11.2680       11.2680      11.125884       0.01224
  36     2.964        0.1421        0.0000       11.2669       11.2669      11.124797       0.01364
  35     3.853        0.1421        0.0000       11.2653       11.2653      11.123219       0.01498
  34     5.035        0.1421        0.0000       11.2631       11.2631      11.120958       0.01615
  33     6.613        0.1421        0.0000       11.2599       11.2599      11.117766       0.01706
  32     8.786        0.1421        0.0000       11.2555       11.2555      11.113339       0.01719
  31     11.80        0.1421        0.0000       11.2491       11.2491      11.106974       0.01782
  30     15.07        0.1421        0.0000       11.2424       11.2425      11.100329       0.01716
  29     18.79        0.1421        0.0000       11.2354       11.2354      11.093256       0.01604
  28     23.16        0.1421        0.0000       11.2277       11.2277      11.085620       0.01477
  27     28.12        0.1421        0.0000       11.2197       11.2197      11.077626       0.01359
  26     33.73        0.1421        0.0000       11.2112       11.2112      11.069051       0.01289
  25     40.54        0.1421        0.0000       11.2009       11.2009      11.058803       0.01271
  24     48.69        0.1421        0.0000       11.1885       11.1885      11.046422       0.01281
  23     57.69        0.1421        0.0000       11.1745       11.1745      11.032407       0.01314
  22     68.43        0.1421        0.0000       11.1569       11.1569      11.014812       0.01383
  21     81.20        0.1421        0.0000       11.1345       11.1345      10.992417       0.01480
  20     96.49        0.1421        0.0000       11.1061       11.1061      10.963976       0.01570
  19     114.6        0.1421        0.0000       11.0693       11.0693      10.927224       0.01716
  18     136.5        0.1421        0.0001       11.0237       11.0237      10.881591       0.01755
  17     162.9        0.1421        0.0001       10.9674       10.9675      10.825327       0.01798
  16     196.4        0.1422        0.0001       10.8916       10.8916      10.749471       0.01909
  15     218.7        0.1422        0.0001       10.8383       10.8384      10.696156       0.02024
  14     243.0        0.1423        0.0001       10.7734       10.7735      10.631279       0.02250
  13     269.0        0.1423        0.0001       10.6865       10.6866      10.544275       0.02822
  12     297.5        0.1425        0.0001       10.5773       10.5774      10.434902       0.03244
  11     328.5        0.1427        0.0001       10.4445       10.4446      10.301879       0.03617
  10     361.9        0.1430        0.0001       10.2872       10.2874      10.144335       0.03986
   9     398.1        0.1435        0.0001       10.0987       10.0989       9.955368       0.04402
   8     437.6        0.1442        0.0001        9.8623        9.8625       9.718278       0.05069
   7     480.5        0.1452        0.0001        9.5481        9.5482       9.403028       0.06191
   6     533.0        0.1470        0.0002        9.1065        9.1067       8.959718       0.07131
   5     589.8        0.1495        0.0002        8.6089        8.6090       8.459511       0.07425
   4     651.6        0.1533        0.0002        8.0822        8.0824       7.929106       0.07253
   3     718.7        0.1586        0.0002        7.5729        7.5731       7.414419       0.06468
   2     792.3        0.1660        0.0002        7.0972        7.0974       6.931351       0.05540
   1     891.5        0.1800        0.0002        6.5146        6.5147       6.334746       0.05077
   0    1013.0        0.2111        0.0002        5.8319        5.8320       5.620900       0.04957



 Wavenumbers:  3250. -  4000. cm-1, ATM      1
 LEVEL PRESSURE   UPWARD FLUX   DIFDOWN FLUX  DIRDOWN FLUX  DOWNWARD FLUX   NET FLUX    HEATING RATE
          mb          W/m2          W/m2          W/m2        W/m2          W/m2       degree/day
  51    .06700        0.0005        0.0000       19.0003       19.0003      18.999770       0.00000
  50    .07753        0.0005        0.0000       18.9947       18.9947      18.994175       4.48463
  49    .09103        0.0005        0.0000       18.9896       18.9896      18.989107       3.16756
  48    0.1069        0.0005        0.0000       18.9854       18.9854      18.984890       2.24488
  47    0.1255        0.0005        0.0000       18.9817       18.9817      18.981208       1.66935
  46    0.1487        0.0005        0.0000       18.9780       18.9780      18.977494       1.35366
  45    0.1794        0.0005        0.0000       18.9738       18.9738      18.973262       1.16177
  44    0.2165        0.0005        0.0000       18.9694       18.9694      18.968895       0.99337
  43    0.2613        0.0005        0.0000       18.9648       18.9648      18.964274       0.87120
  42    0.3336        0.0005        0.0000       18.9581       18.9581      18.957591       0.77914
  41    0.4307        0.0005        0.0000       18.9506       18.9506      18.950108       0.65058
  40    0.5894        0.0005        0.0000       18.9405       18.9405      18.939979       0.53869
  39     1.339        0.0005        0.0000       18.9045       18.9045      18.904028       0.40474
  38     1.782        0.0005        0.0000       18.8874       18.8874      18.886872       0.32661
  37     2.292        0.0005        0.0000       18.8700       18.8700      18.869491       0.28787
  36     2.964        0.0005        0.0000       18.8500       18.8500      18.849472       0.25130
  35     3.853        0.0005        0.0000       18.8265       18.8265      18.826064       0.22215
  34     5.035        0.0005        0.0000       18.7986       18.7986      18.798119       0.19963
  33     6.613        0.0005        0.0000       18.7640       18.7640      18.763558       0.18476
  32     8.786        0.0005        0.0000       18.7186       18.7186      18.718170       0.17627
  31     11.80        0.0005        0.0000       18.6526       18.6526      18.652144       0.18485
  30     15.07        0.0005        0.0000       18.5788       18.5788      18.578367       0.19048
  29     18.79        0.0005        0.0000       18.4917       18.4918      18.491300       0.19741
  28     23.16        0.0005        0.0000       18.3869       18.3869      18.386469       0.20271
  27     28.12        0.0005        0.0000       18.2651       18.2652      18.264712       0.20698
  26     33.73        0.0004        0.0000       18.1298       18.1298      18.129369       0.20349
  25     40.54        0.0004        0.0001       17.9715       17.9716      17.971126       0.19632
  24     48.69        0.0004        0.0001       17.7932       17.7933      17.792877       0.18446
  23     57.69        0.0004        0.0001       17.6152       17.6153      17.614840       0.16688
  22     68.43        0.0004        0.0001       17.4244       17.4245      17.424135       0.14992
  21     81.20        0.0004        0.0001       17.2179       17.2180      17.217603       0.13647
  20     96.49        0.0004        0.0001       16.9867       16.9869      16.986495       0.12756
  19     114.6        0.0003        0.0001       16.7076       16.7077      16.707393       0.13032
  18     136.5        0.0003        0.0002       16.3732       16.3734      16.373083       0.12855
  17     162.9        0.0003        0.0002       15.9320       15.9322      15.931919       0.14101
  16     196.4        0.0003        0.0002       15.2203       15.2205      15.220259       0.17913
  15     218.7        0.0002        0.0002       14.6768       14.6771      14.676833       0.20632
  14     243.0        0.0002        0.0002       13.9520       13.9522      13.952010       0.25139
  13     269.0        0.0002        0.0002       12.9128       12.9130      12.912847       0.33710
  12     297.5        0.0002        0.0002       11.6851       11.6854      11.685204       0.36411
  11     328.5        0.0001        0.0002       10.3822       10.3824      10.382309       0.35425
  10     361.9        0.0001        0.0002        9.0451        9.0453       9.045218       0.33830
   9     398.1        0.0001        0.0002        7.7884        7.7886       7.788519       0.29278
   8     437.6        0.0001        0.0002        6.6294        6.6295       6.629450       0.24782
   7     480.5        0.0001        0.0002        5.5410        5.5412       5.541094       0.21375
   6     533.0        0.0001        0.0001        4.4377        4.4378       4.437775       0.17749
   5     589.8        0.0001        0.0001        3.4789        3.4790       3.478901       0.14233
   4     651.6        0.0001        0.0001        2.6203        2.6204       2.620328       0.11741
   3     718.7        0.0001        0.0001        1.8981        1.8982       1.898095       0.09076
   2     792.3        0.0001        0.0000        1.3405        1.3405       1.340367       0.06397
   1     891.5        0.0003        0.0000        0.8135        0.8136       0.813238       0.04486
   0    1013.0        0.0013        0.0000        0.3731        0.3731       0.371729       0.03066



 Wavenumbers:  4000. -  4650. cm-1, ATM      1
 LEVEL PRESSURE   UPWARD FLUX   DIFDOWN FLUX  DIRDOWN FLUX  DOWNWARD FLUX   NET FLUX    HEATING RATE
          mb          W/m2          W/m2          W/m2        W/m2          W/m2       degree/day
  51    .06700        0.1905        0.0000       22.3120       22.3120      22.121561       0.00000
  50    .07753        0.1905        0.0000       22.3120       22.3120      22.121560       0.00079
  49    .09103        0.1905        0.0000       22.3120       22.3120      22.121559       0.00078
  48    0.1069        0.1905        0.0000       22.3120       22.3120      22.121558       0.00076
  47    0.1255        0.1905        0.0000       22.3120       22.3120      22.121556       0.00074
  46    0.1487        0.1905        0.0000       22.3120       22.3120      22.121554       0.00075
  45    0.1794        0.1905        0.0000       22.3120       22.3120      22.121551       0.00077
  44    0.2165        0.1905        0.0000       22.3120       22.3120      22.121548       0.00076
  43    0.2613        0.1905        0.0000       22.3120       22.3120      22.121544       0.00074
  42    0.3336        0.1905        0.0000       22.3120       22.3120      22.121537       0.00076
  41    0.4307        0.1905        0.0000       22.3120       22.3120      22.121528       0.00077
  40    0.5894        0.1905        0.0000       22.3120       22.3120      22.121514       0.00079
  39     1.339        0.1905        0.0000       22.3119       22.3119      22.121425       0.00100
  38     1.782        0.1905        0.0000       22.3118       22.3118      22.121355       0.00132
  37     2.292        0.1905        0.0000       22.3117       22.3117      22.121262       0.00155
  36     2.964        0.1905        0.0000       22.3116       22.3116      22.121122       0.00175
  35     3.853        0.1905        0.0000       22.3114       22.3114      22.120915       0.00196
  34     5.035        0.1905        0.0000       22.3111       22.3111      22.120610       0.00218
  33     6.613        0.1905        0.0000       22.3106       22.3106      22.120160       0.00241
  32     8.786        0.1905        0.0000       22.3099       22.3099      22.119494       0.00258
  31     11.80        0.1904        0.0000       22.3088       22.3089      22.118448       0.00293
  30     15.07        0.1904        0.0001       22.3076       22.3076      22.117218       0.00318
  29     18.79        0.1904        0.0001       22.3061       22.3061      22.115727       0.00338
  28     23.16        0.1904        0.0001       22.3042       22.3043      22.113871       0.00359
  27     28.12        0.1904        0.0001       22.3019       22.3020      22.111618       0.00383
  26     33.73        0.1904        0.0001       22.2991       22.2992      22.108829       0.00419
  25     40.54        0.1903        0.0001       22.2952       22.2954      22.105032       0.00471
  24     48.69        0.1903        0.0002       22.2901       22.2903      22.099945       0.00526
  23     57.69        0.1903        0.0002       22.2840       22.2842      22.093882       0.00568
  22     68.43        0.1903        0.0002       22.2763       22.2765      22.086245       0.00600
  21     81.20        0.1902        0.0003       22.2667       22.2670      22.076781       0.00625
  20     96.49        0.1902        0.0003       22.2550       22.2554      22.065205       0.00639
  19     114.6        0.1901        0.0004       22.2402       22.2406      22.050519       0.00686
  18     136.5        0.1901        0.0005       22.2222       22.2227      22.032603       0.00689
  17     162.9        0.1900        0.0006       22.1995       22.2001      22.010091       0.00720
  16     196.4        0.1899        0.0007       22.1671       22.1678      21.977861       0.00811
  15     218.7        0.1899        0.0008       22.1424       22.1431      21.953246       0.00935
  14     243.0        0.1899        0.0009       22.1091       22.1099      21.920079       0.01150
  13     269.0        0.1899        0.0009       22.0581       22.0590      21.869147       0.01652
  12     297.5        0.1899        0.0010       21.9870       21.9880      21.798127       0.02106
  11     328.5        0.1900        0.0011       21.8915       21.8927      21.702691       0.02595
  10     361.9        0.1901        0.0012       21.7606       21.7619      21.571768       0.03312
   9     398.1        0.1903        0.0014       21.5790       21.5804      21.390093       0.04233
   8     437.6        0.1906        0.0015       21.3338       21.3353      21.144674       0.05247
   7     480.5        0.1910        0.0016       21.0158       21.0173      20.826316       0.06252
   6     533.0        0.1918        0.0017       20.6047       20.6064      20.414653       0.06622
   5     589.8        0.1930        0.0018       20.1719       20.1738      19.980794       0.06440
   4     651.6        0.1948        0.0020       19.6898       19.6918      19.497044       0.06615
   3     718.7        0.1973        0.0021       19.1414       19.1435      18.946115       0.06924
   2     792.3        0.2009        0.0022       18.5465       18.5488      18.347901       0.06861
   1     891.5        0.2074        0.0024       17.7567       17.7591      17.551664       0.06776
   0    1013.0        0.2221        0.0025       16.8188       16.8213      16.599181       0.06614



 Wavenumbers:  4650. -  5150. cm-1, ATM      1
 LEVEL PRESSURE   UPWARD FLUX   DIFDOWN FLUX  DIRDOWN FLUX  DOWNWARD FLUX   NET FLUX    HEATING RATE
          mb          W/m2          W/m2          W/m2        W/m2          W/m2       degree/day
  51    .06700        0.1507        0.0000       21.1194       21.1194      20.968663       0.00000
  50    .07753        0.1507        0.0000       21.1192       21.1192      20.968427       0.18934
  49    .09103        0.1507        0.0000       21.1189       21.1189      20.968131       0.18510
  48    0.1069        0.1507        0.0000       21.1185       21.1185      20.967792       0.18067
  47    0.1255        0.1507        0.0000       21.1181       21.1181      20.967403       0.17621
  46    0.1487        0.1507        0.0000       21.1176       21.1176      20.966914       0.17808
  45    0.1794        0.1507        0.0000       21.1170       21.1170      20.966250       0.18230
  44    0.2165        0.1507        0.0000       21.1162       21.1162      20.965469       0.17767
  43    0.2613        0.1507        0.0000       21.1153       21.1153      20.964551       0.17303
  42    0.3336        0.1507        0.0000       21.1138       21.1138      20.963049       0.17516
  41    0.4307        0.1507        0.0000       21.1118       21.1118      20.961087       0.17060
  40    0.5894        0.1507        0.0000       21.1087       21.1087      20.957954       0.16658
  39     1.339        0.1507        0.0000       21.0950       21.0950      20.944256       0.15422
  38     1.782        0.1507        0.0000       21.0877       21.0877      20.936998       0.13817
  37     2.292        0.1507        0.0000       21.0800       21.0800      20.929272       0.12796
  36     2.964        0.1507        0.0000       21.0708       21.0708      20.920080       0.11538
  35     3.853        0.1507        0.0000       21.0601       21.0601      20.909400       0.10135
  34     5.035        0.1507        0.0000       21.0480       21.0481      20.897354       0.08606
  33     6.613        0.1507        0.0000       21.0348       21.0349      20.884166       0.07050
  32     8.786        0.1507        0.0000       21.0207       21.0207      20.870047       0.05483
  31     11.80        0.1507        0.0001       21.0048       21.0049      20.854215       0.04433
  30     15.07        0.1507        0.0001       20.9906       20.9907      20.840036       0.03661
  29     18.79        0.1506        0.0001       20.9758       20.9759      20.825228       0.03357
  28     23.16        0.1506        0.0001       20.9584       20.9585      20.807925       0.03346
  27     28.12        0.1506        0.0002       20.9375       20.9377      20.787092       0.03542
  26     33.73        0.1506        0.0002       20.9124       20.9126      20.762003       0.03772
  25     40.54        0.1505        0.0002       20.8794       20.8796      20.729098       0.04082
  24     48.69        0.1505        0.0003       20.8364       20.8366      20.686137       0.04446
  23     57.69        0.1505        0.0003       20.7857       20.7860      20.635501       0.04746
  22     68.43        0.1504        0.0004       20.7217       20.7221      20.571623       0.05022
  21     81.20        0.1504        0.0004       20.6419       20.6423      20.491910       0.05267
  20     96.49        0.1503        0.0005       20.5444       20.5449      20.394604       0.05371
  19     114.6        0.1503        0.0006       20.4280       20.4286      20.278320       0.05430
  18     136.5        0.1502        0.0007       20.2928       20.2935      20.143316       0.05191
  17     162.9        0.1502        0.0008       20.1383       20.1392      19.989004       0.04932
  16     196.4        0.1501        0.0010       19.9510       19.9520      19.801900       0.04710
  15     218.7        0.1501        0.0011       19.8350       19.8362      19.686086       0.04397
  14     243.0        0.1501        0.0012       19.7128       19.7141      19.564004       0.04234
  13     269.0        0.1501        0.0014       19.5788       19.5801      19.430063       0.04345
  12     297.5        0.1501        0.0015       19.4280       19.4295      19.279341       0.04470
  11     328.5        0.1503        0.0016       19.2554       19.2570      19.106751       0.04693
  10     361.9        0.1505        0.0018       19.0545       19.0563      18.905781       0.05085
   9     398.1        0.1508        0.0019       18.8177       18.8196      18.668738       0.05523
   8     437.6        0.1513        0.0021       18.5339       18.5360      18.384653       0.06074
   7     480.5        0.1520        0.0022       18.1843       18.1865      18.034484       0.06877
   6     533.0        0.1532        0.0023       17.6987       17.7011      17.547832       0.07829
   5     589.8        0.1550        0.0025       17.1235       17.1260      16.971011       0.08562
   4     651.6        0.1576        0.0026       16.4607       16.4633      16.305729       0.09098
   3     718.7        0.1611        0.0027       15.7580       15.7608      15.599631       0.08874
   2     792.3        0.1660        0.0029       15.0622       15.0651      14.899048       0.08035
   1     891.5        0.1750        0.0030       14.2150       14.2180      14.043051       0.07284
   0    1013.0        0.1927        0.0032       13.2773       13.2804      13.087730       0.06633



 Wavenumbers:  5150. -  6150. cm-1, ATM      1
 LEVEL PRESSURE   UPWARD FLUX   DIFDOWN FLUX  DIRDOWN FLUX  DOWNWARD FLUX   NET FLUX    HEATING RATE
          mb          W/m2          W/m2          W/m2        W/m2          W/m2       degree/day
  51    .06700        0.4134        0.0000       52.9464       52.9464      52.532999       0.00000
  50    .07753        0.4134        0.0000       52.9464       52.9464      52.532964       0.02761
  49    .09103        0.4134        0.0000       52.9463       52.9463      52.532919       0.02811
  48    0.1069        0.4134        0.0000       52.9463       52.9463      52.532866       0.02860
  47    0.1255        0.4134        0.0000       52.9462       52.9462      52.532801       0.02906
  46    0.1487        0.4134        0.0000       52.9461       52.9461      52.532717       0.03062
  45    0.1794        0.4134        0.0000       52.9460       52.9460      52.532598       0.03273
  44    0.2165        0.4134        0.0000       52.9459       52.9459      52.532452       0.03337
  43    0.2613        0.4134        0.0000       52.9457       52.9457      52.532272       0.03384
  42    0.3336        0.4134        0.0000       52.9454       52.9454      52.531965       0.03576
  41    0.4307        0.4134        0.0000       52.9449       52.9450      52.531544       0.03663
  40    0.5894        0.4134        0.0000       52.9442       52.9442      52.530838       0.03755
  39     1.339        0.4134        0.0000       52.9407       52.9408      52.527377       0.03897
  38     1.782        0.4134        0.0000       52.9387       52.9387      52.525325       0.03907
  37     2.292        0.4134        0.0001       52.9363       52.9363      52.522952       0.03929
  36     2.964        0.4133        0.0001       52.9331       52.9332      52.519845       0.03900
  35     3.853        0.4133        0.0001       52.9290       52.9291      52.515756       0.03880
  34     5.035        0.4133        0.0001       52.9235       52.9237      52.510355       0.03858
  33     6.613        0.4133        0.0002       52.9163       52.9165      52.503199       0.03825
  32     8.786        0.4132        0.0002       52.9067       52.9069      52.493691       0.03693
  31     11.80        0.4131        0.0003       52.8932       52.8935      52.480367       0.03730
  30     15.07        0.4131        0.0004       52.8791       52.8795      52.466434       0.03597
  29     18.79        0.4130        0.0005       52.8637       52.8641      52.451149       0.03466
  28     23.16        0.4129        0.0006       52.8462       52.8468      52.433885       0.03338
  27     28.12        0.4128        0.0007       52.8269       52.8276      52.414854       0.03235
  26     33.73        0.4126        0.0008       52.8062       52.8071      52.394422       0.03072
  25     40.54        0.4125        0.0010       52.7825       52.7835      52.371026       0.02903
  24     48.69        0.4123        0.0012       52.7555       52.7568      52.344460       0.02749
  23     57.69        0.4121        0.0014       52.7281       52.7295      52.317404       0.02536
  22     68.43        0.4119        0.0017       52.6982       52.6999      52.288001       0.02311
  21     81.20        0.4116        0.0020       52.6650       52.6671      52.255487       0.02148
  20     96.49        0.4112        0.0024       52.6275       52.6299      52.218669       0.02032
  19     114.6        0.4108        0.0029       52.5837       52.5865      52.175700       0.02006
  18     136.5        0.4104        0.0034       52.5252       52.5285      52.118182       0.02212
  17     162.9        0.4098        0.0040       52.4215       52.4256      52.015749       0.03274
  16     196.4        0.4091        0.0048       52.2026       52.2074      51.798285       0.05474
  15     218.7        0.4086        0.0053       51.9773       51.9827      51.574033       0.08514
  14     243.0        0.4081        0.0059       51.5690       51.5748      51.166688       0.14128
  13     269.0        0.4076        0.0063       50.7008       50.7072      50.299538       0.28130
  12     297.5        0.4071        0.0068       49.4359       49.4427      49.035603       0.37487
  11     328.5        0.4067        0.0072       47.9801       47.9873      47.580687       0.39559
  10     361.9        0.4062        0.0076       46.3283       46.3359      45.929732       0.41771
   9     398.1        0.4058        0.0080       44.3830       44.3910      43.985180       0.45304
   8     437.6        0.4056        0.0083       42.2045       42.2128      41.807203       0.46566
   7     480.5        0.4055        0.0085       39.8425       39.8510      39.445540       0.46382
   6     533.0        0.4057        0.0088       37.2184       37.2272      36.821488       0.42213
   5     589.8        0.4065        0.0092       34.9006       34.9098      34.503260       0.34410
   4     651.6        0.4082        0.0096       32.9556       32.9653      32.557049       0.26615
   3     718.7        0.4112        0.0102       31.4596       31.4698      31.058621       0.18831
   2     792.3        0.4159        0.0109       30.3245       30.3354      29.919478       0.13065
   1     891.5        0.4260        0.0117       29.1448       29.1566      28.730574       0.10117
   0    1013.0        0.4515        0.0126       27.8245       27.8371      27.385607       0.09339



 Wavenumbers:  6150. -  7700. cm-1, ATM      1
 LEVEL PRESSURE   UPWARD FLUX   DIFDOWN FLUX  DIRDOWN FLUX  DOWNWARD FLUX   NET FLUX    HEATING RATE
          mb          W/m2          W/m2          W/m2        W/m2          W/m2       degree/day
  51    .06700        0.7303        0.0000       97.9264       97.9264      97.196096       0.00000
  50    .07753        0.7303        0.0000       97.9264       97.9264      97.196044       0.04144
  49    .09103        0.7303        0.0000       97.9263       97.9263      97.195977       0.04174
  48    0.1069        0.7303        0.0000       97.9262       97.9262      97.195898       0.04203
  47    0.1255        0.7303        0.0000       97.9261       97.9261      97.195805       0.04229
  46    0.1487        0.7303        0.0000       97.9260       97.9260      97.195684       0.04414
  45    0.1794        0.7303        0.0000       97.9258       97.9258      97.195514       0.04674
  44    0.2165        0.7303        0.0000       97.9256       97.9256      97.195306       0.04721
  43    0.2613        0.7303        0.0000       97.9253       97.9254      97.195054       0.04752
  42    0.3336        0.7303        0.0000       97.9249       97.9249      97.194627       0.04986
  41    0.4307        0.7303        0.0000       97.9243       97.9243      97.194044       0.05069
  40    0.5894        0.7303        0.0001       97.9233       97.9233      97.193072       0.05170
  39     1.339        0.7302        0.0001       97.9184       97.9185      97.188342       0.05325
  38     1.782        0.7302        0.0002       97.9155       97.9157      97.185547       0.05322
  37     2.292        0.7301        0.0002       97.9122       97.9124      97.182319       0.05347
  36     2.964        0.7300        0.0003       97.9078       97.9081      97.178092       0.05305
  35     3.853        0.7299        0.0004       97.9021       97.9025      97.172531       0.05278
  34     5.035        0.7298        0.0005       97.8945       97.8950      97.165180       0.05251
  33     6.613        0.7297        0.0007       97.8844       97.8851      97.155425       0.05215
  32     8.786        0.7294        0.0009       97.8709       97.8718      97.142417       0.05052
  31     11.80        0.7291        0.0012       97.8520       97.8532      97.124085       0.05132
  30     15.07        0.7288        0.0016       97.8320       97.8335      97.104768       0.04987
  29     18.79        0.7284        0.0020       97.8098       97.8118      97.083383       0.04848
  28     23.16        0.7280        0.0024       97.7845       97.7869      97.058969       0.04721
  27     28.12        0.7274        0.0030       97.7562       97.7592      97.031728       0.04631
  26     33.73        0.7269        0.0036       97.7254       97.7290      97.002108       0.04453
  25     40.54        0.7262        0.0043       97.6896       97.6939      96.967678       0.04271
  24     48.69        0.7253        0.0051       97.6481       97.6533      96.927921       0.04114
  23     57.69        0.7244        0.0061       97.6049       97.6110      96.886558       0.03877
  22     68.43        0.7233        0.0072       97.5567       97.5639      96.840558       0.03616
  21     81.20        0.7220        0.0085       97.5020       97.5105      96.788498       0.03440
  20     96.49        0.7204        0.0101       97.4388       97.4489      96.728477       0.03313
  19     114.6        0.7186        0.0120       97.3642       97.3762      96.657644       0.03307
  18     136.5        0.7164        0.0143       97.2656       97.2799      96.563538       0.03619
  17     162.9        0.7137        0.0170       97.0969       97.1138      96.400094       0.05224
  16     196.4        0.7103        0.0204       96.7351       96.7555      96.045139       0.08935
  15     218.7        0.7081        0.0226       96.3634       96.3860      95.677835       0.13945
  14     243.0        0.7058        0.0249       95.7548       95.7797      95.073896       0.20947
  13     269.0        0.7033        0.0271       94.5854       94.6124      93.909154       0.37784
  12     297.5        0.7008        0.0291       92.6925       92.7216      92.020892       0.56004
  11     328.5        0.6982        0.0311       90.1347       90.1658      89.467598       0.69423
  10     361.9        0.6957        0.0329       87.2212       87.2541      86.558380       0.73606
   9     398.1        0.6934        0.0345       83.9727       84.0072      83.313838       0.75591
   8     437.6        0.6913        0.0358       80.1743       80.2101      79.518796       0.81140
   7     480.5        0.6898        0.0368       75.7979       75.8347      75.144941       0.85901
   6     533.0        0.6891        0.0378       70.6884       70.7262      70.037052       0.82170
   5     589.8        0.6901        0.0387       65.7621       65.8008      65.110660       0.73124
   4     651.6        0.6938        0.0396       61.1358       61.1754      60.481589       0.63304
   3     718.7        0.7011        0.0407       57.0723       57.1131      56.411959       0.51144
   2     792.3        0.7130        0.0421       53.6156       53.6577      52.944666       0.39766
   1     891.5        0.7393        0.0439       49.8249       49.8689      49.129560       0.32465
   0    1013.0        0.8104        0.0459       45.8810       45.9269      45.116458       0.27865



 Wavenumbers:  7700. -  8050. cm-1, ATM      1
 LEVEL PRESSURE   UPWARD FLUX   DIFDOWN FLUX  DIRDOWN FLUX  DOWNWARD FLUX   NET FLUX    HEATING RATE
          mb          W/m2          W/m2          W/m2        W/m2          W/m2       degree/day
  51    .06700        0.4495        0.0000       23.1429       23.1429      22.693430       0.00000
  50    .07753        0.4495        0.0000       23.1429       23.1429      22.693412       0.01447
  49    .09103        0.4495        0.0000       23.1429       23.1429      22.693389       0.01418
  48    0.1069        0.4495        0.0000       23.1429       23.1429      22.693363       0.01389
  47    0.1255        0.4495        0.0000       23.1428       23.1428      22.693333       0.01359
  46    0.1487        0.4495        0.0000       23.1428       23.1428      22.693295       0.01379
  45    0.1794        0.4495        0.0000       23.1427       23.1427      22.693244       0.01419
  44    0.2165        0.4495        0.0000       23.1427       23.1427      22.693182       0.01392
  43    0.2613        0.4495        0.0000       23.1426       23.1426      22.693110       0.01366
  42    0.3336        0.4495        0.0000       23.1425       23.1425      22.692990       0.01397
  41    0.4307        0.4495        0.0000       23.1423       23.1423      22.692831       0.01382
  40    0.5894        0.4495        0.0000       23.1420       23.1421      22.692571       0.01381
  39     1.339        0.4495        0.0001       23.1408       23.1408      22.691343       0.01383
  38     1.782        0.4495        0.0001       23.1400       23.1401      22.690621       0.01374
  37     2.292        0.4495        0.0001       23.1392       23.1393      22.689786       0.01384
  36     2.964        0.4495        0.0001       23.1380       23.1382      22.688689       0.01377
  35     3.853        0.4495        0.0002       23.1365       23.1367      22.687239       0.01376
  34     5.035        0.4495        0.0002       23.1346       23.1348      22.685313       0.01376
  33     6.613        0.4494        0.0003       23.1319       23.1322      22.682740       0.01376
  32     8.786        0.4494        0.0004       23.1283       23.1287      22.679272       0.01347
  31     11.80        0.4494        0.0005       23.1232       23.1237      22.674311       0.01389
  30     15.07        0.4494        0.0006       23.1177       23.1183      22.668985       0.01375
  29     18.79        0.4493        0.0008       23.1115       23.1123      22.662970       0.01364
  28     23.16        0.4493        0.0010       23.1043       23.1052      22.655947       0.01358
  27     28.12        0.4492        0.0012       23.0960       23.0972      22.647921       0.01364
  26     33.73        0.4492        0.0014       23.0867       23.0881      22.638946       0.01349
  25     40.54        0.4491        0.0017       23.0756       23.0772      22.628113       0.01344
  24     48.69        0.4491        0.0020       23.0621       23.0641      22.615072       0.01350
  23     57.69        0.4490        0.0024       23.0474       23.0498      22.600771       0.01340
  22     68.43        0.4489        0.0028       23.0298       23.0327      22.583775       0.01336
  21     81.20        0.4488        0.0034       23.0090       23.0124      22.563579       0.01334
  20     96.49        0.4487        0.0040       22.9843       22.9882      22.539593       0.01324
  19     114.6        0.4485        0.0047       22.9550       22.9597      22.511226       0.01325
  18     136.5        0.4483        0.0056       22.9205       22.9261      22.477764       0.01287
  17     162.9        0.4481        0.0066       22.8796       22.8863      22.438137       0.01267
  16     196.4        0.4479        0.0080       22.8270       22.8350      22.387093       0.01285
  15     218.7        0.4478        0.0089       22.7926       22.8015      22.353761       0.01265
  14     243.0        0.4476        0.0098       22.7554       22.7653      22.317660       0.01252
  13     269.0        0.4475        0.0109       22.7152       22.7261      22.278589       0.01267
  12     297.5        0.4473        0.0120       22.6716       22.6836      22.236327       0.01253
  11     328.5        0.4472        0.0132       22.6244       22.6376      22.190448       0.01247
  10     361.9        0.4471        0.0145       22.5731       22.5877      22.140599       0.01261
   9     398.1        0.4470        0.0159       22.5173       22.5332      22.086214       0.01267
   8     437.6        0.4470        0.0174       22.4561       22.4736      22.026550       0.01276
   7     480.5        0.4471        0.0191       22.3883       22.4073      21.960247       0.01302
   6     533.0        0.4474        0.0210       22.3013       22.3223      21.874910       0.01373
   5     589.8        0.4479        0.0231       22.2025       22.2256      21.777721       0.01443
   4     651.6        0.4487        0.0254       22.0895       22.1149      21.666154       0.01526
   3     718.7        0.4500        0.0278       21.9619       21.9897      21.539669       0.01590
   2     792.3        0.4517        0.0303       21.8206       21.8509      21.399191       0.01611
   1     891.5        0.4548        0.0337       21.6221       21.6558      21.201081       0.01686
   0    1013.0        0.4599        0.0377       21.3638       21.4014      20.941533       0.01802



 Wavenumbers:  8050. - 12850. cm-1, ATM      1
 LEVEL PRESSURE   UPWARD FLUX   DIFDOWN FLUX  DIRDOWN FLUX  DOWNWARD FLUX   NET FLUX    HEATING RATE
          mb          W/m2          W/m2          W/m2        W/m2          W/m2       degree/day
  51    .06700       30.7231        0.0000      324.0181      324.0181     293.294956       0.00000
  50    .07753       30.7231        0.0000      324.0180      324.0181     293.294956       0.00000
  49    .09103       30.7231        0.0001      324.0180      324.0180     293.294956       0.00000
  48    0.1069       30.7231        0.0001      324.0179      324.0180     293.294956       0.00000
  47    0.1255       30.7230        0.0001      324.0178      324.0180     293.294956       0.00000
  46    0.1487       30.7230        0.0002      324.0178      324.0179     293.294956      -0.00000
  45    0.1794       30.7229        0.0003      324.0176      324.0179     293.294956       0.00000
  44    0.2165       30.7229        0.0003      324.0175      324.0178     293.294956       0.00000
  43    0.2613       30.7228        0.0004      324.0173      324.0177     293.294956       0.00000
  42    0.3336       30.7227        0.0006      324.0170      324.0176     293.294956       0.00000
  41    0.4307       30.7225        0.0008      324.0166      324.0175     293.294956      -0.00000
  40    0.5894       30.7222        0.0012      324.0160      324.0172     293.294956       0.00000
  39     1.339       30.7210        0.0029      324.0131      324.0159     293.294956       0.00000
  38     1.782       30.7202        0.0039      324.0113      324.0152     293.294956       0.00000
  37     2.292       30.7194        0.0050      324.0093      324.0143     293.294956       0.00000
  36     2.964       30.7182        0.0065      324.0067      324.0132     293.294956      -0.00000
  35     3.853       30.7167        0.0085      324.0032      324.0117     293.294956       0.00000
  34     5.035       30.7147        0.0112      323.9985      324.0097     293.294956       0.00000
  33     6.613       30.7121        0.0147      323.9923      324.0070     293.294956      -0.00000
  32     8.786       30.7085        0.0195      323.9840      324.0035     293.294956       0.00000
  31     11.80       30.7034        0.0263      323.9720      323.9983     293.294956      -0.00000
  30     15.07       30.6978        0.0337      323.9591      323.9928     293.294956       0.00000
  29     18.79       30.6916        0.0420      323.9445      323.9866     293.294956      -0.00000
  28     23.16       30.6843        0.0517      323.9275      323.9792     293.294956       0.00000
  27     28.12       30.6759        0.0629      323.9080      323.9709     293.294956       0.00000
  26     33.73       30.6666        0.0754      323.8862      323.9615     293.294956      -0.00000
  25     40.54       30.6552        0.0905      323.8597      323.9502     293.294956       0.00000
  24     48.69       30.6415        0.1087      323.8278      323.9365     293.294956      -0.00000
  23     57.69       30.6265        0.1287      323.7927      323.9214     293.294956       0.00000
  22     68.43       30.6085        0.1527      323.7508      323.9034     293.294956       0.00000
  21     81.20       30.5870        0.1812      323.7007      323.8820     293.294956      -0.00000
  20     96.49       30.5614        0.2153      323.6410      323.8563     293.294956       0.00000
  19     114.6       30.5309        0.2558      323.5623      323.8181     293.287205       0.00362
  18     136.5       30.4948        0.3040      323.4668      323.7708     293.275969       0.00432
  17     162.9       30.4517        0.3615      323.3431      323.7046     293.252894       0.00738
  16     196.4       30.3956        0.4362      323.1490      323.5852     293.189531       0.01595
  15     218.7       30.3588        0.4853      322.9789      323.4641     293.105356       0.03196
  14     243.0       30.3189        0.5387      322.7077      323.2464     292.927462       0.06170
  13     269.0       30.2764        0.5962      322.1924      322.7886     292.512169       0.13472
  12     297.5       30.2319        0.6580      321.3782      322.0362     291.804329       0.20994
  11     328.5       30.1863        0.7243      320.2426      320.9669     290.780622       0.27834
  10     361.9       30.1412        0.7949      318.7875      319.5824     289.441229       0.33888
   9     398.1       30.0985        0.8698      316.9369      317.8067     287.708155       0.40377
   8     437.6       30.0623        0.9483      314.5019      315.4502     285.387941       0.49608
   7     480.5       30.0403        1.0298      311.2306      312.2605     282.220189       0.62213
   6     533.0       30.0418        1.1265      306.5657      307.6922     277.650328       0.73515
   5     589.8       30.0868        1.2267      300.9722      302.1989     272.112163       0.82205
   4     651.6       30.2014        1.3301      294.4895      295.8197     265.618234       0.88806
   3     718.7       30.4059        1.4379      287.6472      289.0850     258.679152       0.87205
   2     792.3       30.7231        1.5507      280.8324      282.3831     251.659988       0.80502
   1     891.5       31.3875        1.6978      272.0912      273.7890     242.401478       0.78785
   0    1013.0       32.9453        1.8626      261.4210      263.2836     230.338265       0.83761



 Wavenumbers: 12850. - 16000. cm-1, ATM      1
 LEVEL PRESSURE   UPWARD FLUX   DIFDOWN FLUX  DIRDOWN FLUX  DOWNWARD FLUX   NET FLUX    HEATING RATE
          mb          W/m2          W/m2          W/m2        W/m2          W/m2       degree/day
  51    .06700       84.8607        0.0000      203.0260      203.0260     118.165288       0.00000
  50    .07753       84.8607        0.0001      203.0251      203.0252     118.164492       0.63760
  49    .09103       84.8607        0.0002      203.0240      203.0242     118.163487       0.62799
  48    0.1069       84.8607        0.0003      203.0227      203.0230     118.162325       0.61855
  47    0.1255       84.8607        0.0004      203.0213      203.0217     118.160981       0.60970
  46    0.1487       84.8607        0.0005      203.0195      203.0200     118.159269       0.62393
  45    0.1794       84.8608        0.0007      203.0170      203.0177     118.156916       0.64605
  44    0.2165       84.8609        0.0010      203.0140      203.0150     118.154112       0.63778
  43    0.2613       84.8610        0.0013      203.0105      203.0118     118.150768       0.63033
  42    0.3336       84.8613        0.0018      203.0048      203.0065     118.145207       0.64833
  41    0.4307       84.8618        0.0024      202.9972      202.9996     118.137841       0.64048
  40    0.5894       84.8627        0.0034      202.9851      202.9886     118.125842       0.63809
  39     1.339       84.8703        0.0084      202.9295      202.9379     118.067621       0.65547
  38     1.782       84.8771        0.0113      202.8976      202.9089     118.031744       0.68302
  37     2.292       84.8872        0.0146      202.8604      202.8750     117.987773       0.72829
  36     2.964       84.9039        0.0190      202.8104      202.8294     117.925553       0.78104
  35     3.853       84.9306        0.0249      202.7423      202.7672     117.836579       0.84438
  34     5.035       84.9708        0.0326      202.6509      202.6835     117.712758       0.88453
  33     6.613       85.0269        0.0429      202.5317      202.5746     117.547779       0.88198
  32     8.786       85.0999        0.0568      202.3806      202.4374     117.337543       0.81648
  31     11.80       85.1951        0.0767      202.1830      202.2597     117.064597       0.76416
  30     15.07       85.2865        0.0981      201.9890      202.0870     116.800538       0.68175
  29     18.79       85.3800        0.1222      201.7852      201.9073     116.527302       0.61951
  28     23.16       85.4780        0.1503      201.5642      201.7145     116.236469       0.56238
  27     28.12       85.5770        0.1825      201.3311      201.5136     115.936635       0.50970
  26     33.73       85.6689        0.2186      201.0980      201.3166     115.647697       0.43443
  25     40.54       85.7584        0.2623      200.8483      201.1106     115.352234       0.36656
  24     48.69       85.8450        0.3149      200.5787      200.8936     115.048572       0.31424
  23     57.69       85.9198        0.3728      200.3134      200.6862     114.766462       0.26444
  22     68.43       85.9867        0.4418      200.0313      200.4731     114.486486       0.22010
  21     81.20       86.0360        0.5243      199.7420      200.2662     114.230242       0.16932
  20     96.49       86.0667        0.6227      199.4427      200.0654     113.998714       0.12779
  19     114.6       86.1019        0.7408      199.1139      199.8547     113.752814       0.11482
  18     136.5       86.1313        0.8809      198.7487      199.6296     113.498334       0.09785
  17     162.9       86.1551        1.0479      198.3374      199.3853     113.230183       0.08571
  16     196.4       86.1621        1.2648      197.8402      199.1051     112.942963       0.07230
  15     218.7       86.1582        1.4075      197.5248      198.9323     112.774066       0.06412
  14     243.0       86.1504        1.5626      197.1835      198.7461     112.595766       0.06184
  13     269.0       86.1390        1.7310      196.8108      198.5418     112.402775       0.06261
  12     297.5       86.1250        1.9131      196.4002      198.3133     112.188253       0.06362
  11     328.5       86.1120        2.1100      195.9413      198.0513     111.939278       0.06770
  10     361.9       86.1025        2.3223      195.4254      197.7476     111.645187       0.07441
   9     398.1       86.0997        2.5508      194.8430      197.3938     111.294072       0.08180
   8     437.6       86.1103        2.7963      194.1780      196.9743     110.864043       0.09194
   7     480.5       86.1458        3.0592      193.4036      196.4628     110.317038       0.10743
   6     533.0       86.2301        3.3822      192.3644      195.7466     109.516462       0.12879
   5     589.8       86.3726        3.7286      191.1574      194.8860     108.513468       0.14888
   4     651.6       86.5986        4.0985      189.7591      193.8576     107.258986       0.17155
   3     718.7       86.9256        4.4928      188.1841      192.6769     105.751297       0.18947
   2     792.3       87.3765        4.9121      186.4570      191.3691     103.992560       0.20171
   1     891.5       88.2038        5.4725      184.0501      189.5226     101.318775       0.22753
   0    1013.0       89.7081        6.1348      181.0012      187.1361      97.427997       0.27016



 Wavenumbers: 16000. - 22650. cm-1, ATM      1
 LEVEL PRESSURE   UPWARD FLUX   DIFDOWN FLUX  DIRDOWN FLUX  DOWNWARD FLUX   NET FLUX    HEATING RATE
          mb          W/m2          W/m2          W/m2        W/m2          W/m2       degree/day
  51    .06700      233.1814        0.0000      323.7024      323.7024      90.521011       0.00000
  50    .07753      233.1815        0.0005      323.7018      323.7023      90.520820       0.15310
  49    .09103      233.1817        0.0011      323.7011      323.7022      90.520542       0.17365
  48    0.1069      233.1819        0.0018      323.7003      323.7021      90.520170       0.19802
  47    0.1255      233.1822        0.0027      323.6992      323.7019      90.519672       0.22572
  46    0.1487      233.1826        0.0037      323.6979      323.7016      90.518938       0.26747
  45    0.1794      233.1833        0.0051      323.6960      323.7011      90.517791       0.31493
  44    0.2165      233.1842        0.0068      323.6937      323.7004      90.516235       0.35394
  43    0.2613      233.1854        0.0088      323.6908      323.6996      90.514124       0.39792
  42    0.3336      233.1878        0.0121      323.6858      323.6979      90.510110       0.46796
  41    0.4307      233.1912        0.0164      323.6789      323.6953      90.504060       0.52604
  40    0.5894      233.1979        0.0235      323.6669      323.6904      90.492521       0.61362
  39     1.339      233.2466        0.0573      323.5966      323.6538      90.407259       0.95990
  38     1.782      233.2879        0.0771      323.5455      323.6226      90.334610       1.38312
  37     2.292      233.3477        0.1000      323.4772      323.5772      90.229427       1.74211
  36     2.964      233.4446        0.1301      323.3735      323.5035      90.058973       2.13971
  35     3.853      233.5983        0.1698      323.2168      323.3866      89.788366       2.56811
  34     5.035      233.8278        0.2226      322.9896      323.2121      89.384334       2.88624
  33     6.613      234.1475        0.2930      322.6767      322.9698      88.822241       3.00495
  32     8.786      234.5649        0.3880      322.2668      322.6547      88.089776       2.84463
  31     11.80      235.1121        0.5237      321.7206      322.2444      87.132290       2.68066
  30     15.07      235.6412        0.6695      321.1809      321.8504      86.209267       2.38307
  29     18.79      236.1863        0.8341      320.6134      321.4475      85.261238       2.14947
  28     23.16      236.7623        1.0265      319.9988      321.0252      84.262871       1.93052
  27     28.12      237.3502        1.2464      319.3517      320.5981      83.247981       1.72525
  26     33.73      237.9061        1.4928      318.7058      320.1986      82.292451       1.43666
  25     40.54      238.4599        1.7908      318.0150      319.8057      81.345818       1.17441
  24     48.69      239.0128        2.1503      317.2688      319.4192      80.406344       0.97221
  23     57.69      239.5091        2.5457      316.5325      319.0782      79.569025       0.78486
  22     68.43      239.9804        3.0171      315.7444      318.7615      78.781121       0.61940
  21     81.20      240.3774        3.5797      314.9256      318.5052      78.127785       0.43171
  20     96.49      240.6978        4.2511      314.0606      318.3116      77.613886       0.28364
  19     114.6      240.9980        5.0483      313.0928      318.1411      77.143040       0.21985
  18     136.5      241.2997        5.9928      311.9856      317.9784      76.678645       0.17857
  17     162.9      241.6088        7.1165      310.7044      317.8209      76.212066       0.14914
  16     196.4      241.9025        8.5733      309.1202      317.6934      75.790875       0.10602
  15     218.7      242.0553        9.5293      308.1088      317.6380      75.582716       0.07903
  14     243.0      242.2022       10.5676      307.0234      317.5910      75.388876       0.06723
  13     269.0      242.3412       11.6920      305.8615      317.5535      75.212255       0.05730
  12     297.5      242.4723       12.9061      304.6195      317.5255      75.053266       0.04715
  11     328.5      242.6043       14.2168      303.2836      317.5004      74.896177       0.04271
  10     361.9      242.7376       15.6267      301.8509      317.4776      74.739987       0.03952
   9     398.1      242.8734       17.1427      300.3131      317.4558      74.582348       0.03673
   8     437.6      243.0152       18.7691      298.6629      317.4320      74.416809       0.03539
   7     480.5      243.1659       20.5110      296.8919      317.4029      74.236971       0.03532
   6     533.0      243.3536       22.6533      294.7063      317.3596      74.005999       0.03716
   5     589.8      243.5639       24.9603      292.3399      317.3002      73.736232       0.04004
   4     651.6      243.8052       27.4378      289.7801      317.2179      73.412759       0.04424
   3     718.7      244.0779       30.0923      287.0214      317.1137      73.035726       0.04738
   2     792.3      244.3854       32.9249      284.0617      316.9866      72.601168       0.04984
   1     891.5      244.8389       36.7303      280.0517      316.7819      71.943020       0.05601
   0    1013.0      245.4629       41.2738      275.2024      316.4763      71.013343       0.06455



 Wavenumbers: 22650. - 29000. cm-1, ATM      1
 LEVEL PRESSURE   UPWARD FLUX   DIFDOWN FLUX  DIRDOWN FLUX  DOWNWARD FLUX   NET FLUX    HEATING RATE
          mb          W/m2          W/m2          W/m2        W/m2          W/m2       degree/day
  51    .06700      103.9427        0.0000      122.1535      122.1535      18.210770       0.00000
  50    .07753      103.9428        0.0006      122.1530      122.1536      18.210770      -0.00000
  49    .09103      103.9429        0.0014      122.1523      122.1536      18.210770       0.00000
  48    0.1069      103.9429        0.0022      122.1515      122.1537      18.210770       0.00000
  47    0.1255      103.9430        0.0033      122.1506      122.1538      18.210770       0.00000
  46    0.1487      103.9431        0.0045      122.1494      122.1539      18.210770       0.00000
  45    0.1794      103.9433        0.0063      122.1478      122.1541      18.210770       0.00000
  44    0.2165      103.9435        0.0083      122.1459      122.1543      18.210770       0.00000
  43    0.2613      103.9437        0.0108      122.1437      122.1545      18.210770       0.00000
  42    0.3336      103.9441        0.0148      122.1401      122.1549      18.210770       0.00000
  41    0.4307      103.9446        0.0201      122.1352      122.1553      18.210770      -0.00000
  40    0.5894      103.9454        0.0289      122.1273      122.1561      18.210770      -0.00000
  39     1.339      103.9491        0.0702      122.0897      122.1599      18.210770      -0.00000
  38     1.782      103.9513        0.0945      122.0676      122.1621      18.210770       0.00000
  37     2.292      103.9539        0.1226      122.0420      122.1647      18.210770      -0.00000
  36     2.964      103.9572        0.1596      122.0084      122.1680      18.210770      -0.00000
  35     3.853      103.9617        0.2083      121.9641      122.1724      18.210770       0.00000
  34     5.035      103.9675        0.2731      121.9052      122.1783      18.210770      -0.00000
  33     6.613      103.9754        0.3597      121.8265      122.1862      18.210770       0.00000
  32     8.786      103.9859        0.4763      121.7204      122.1967      18.210770      -0.00000
  31     11.80      104.0010        0.6431      121.5687      122.2118      18.210770       0.00000
  30     15.07      104.0172        0.8221      121.4059      122.2280      18.210770      -0.00000
  29     18.79      104.0355        1.0242      121.2220      122.2462      18.210770       0.00000
  28     23.16      104.0567        1.2601      121.0073      122.2675      18.210770      -0.00000
  27     28.12      104.0809        1.5297      120.7620      122.2917      18.210770       0.00000
  26     33.73      104.1080        1.8310      120.4878      122.3187      18.210770       0.00000
  25     40.54      104.1405        2.1944      120.1568      122.3513      18.210770       0.00000
  24     48.69      104.1795        2.6317      119.7585      122.3902      18.210770      -0.00000
  23     57.69      104.2220        3.1109      119.3219      122.4328      18.210770       0.00000
  22     68.43      104.2724        3.6800      118.8032      122.4831      18.210770      -0.00000
  21     81.20      104.3318        4.3554      118.1871      122.5426      18.210770       0.00000
  20     96.49      104.4018        5.1566      117.4560      122.6126      18.210770       0.00000
  19     114.6      104.4838        6.1023      116.5923      122.6946      18.210770       0.00000
  18     136.5      104.5795        7.2156      115.5747      122.7903      18.210770       0.00000
  17     162.9      104.6912        8.5302      114.3718      122.9019      18.210770      -0.00000
  16     196.4      104.8324       10.2168      112.8263      123.0431      18.210770       0.00000
  15     218.7      104.9229       11.3134      111.8202      123.1337      18.210770       0.00000
  14     243.0      105.0193       12.4956      110.7344      123.2301      18.210770       0.00000
  13     269.0      105.1215       13.7654      109.5668      123.3322      18.210770      -0.00000
  12     297.5      105.2292       15.1245      108.3155      123.4399      18.210770       0.00000
  11     328.5      105.3425       16.5782      106.9751      123.5532      18.210770       0.00000
  10     361.9      105.4609       18.1262      105.5454      123.6716      18.210770       0.00000
   9     398.1      105.5842       19.7729      104.0221      123.7950      18.210770       0.00000
   8     437.6      105.7119       21.5192      102.4035      123.9227      18.210770      -0.00000
   7     480.5      105.8434       23.3664      100.6878      124.0542      18.210770      -0.00000
   6     533.0      105.9977       25.6059       98.6026      124.2085      18.210770       0.00000
   5     589.8      106.1546       27.9783       96.3871      124.3654      18.210770       0.00000
   4     651.6      106.3126       30.4814       94.0420      124.5234      18.210770       0.00000
   3     718.7      106.4696       33.1120       91.5684      124.6803      18.210770       0.00000
   2     792.3      106.6231       35.8610       88.9729      124.8339      18.210770      -0.00000
   1     891.5      106.8064       39.4607       85.5565      125.0172      18.210770       0.00000
   0    1013.0      106.9910       43.6232       81.5785      125.2017      18.210770      -0.00000



 Wavenumbers: 29000. - 38000. cm-1, ATM      1
 LEVEL PRESSURE   UPWARD FLUX   DIFDOWN FLUX  DIRDOWN FLUX  DOWNWARD FLUX   NET FLUX    HEATING RATE
          mb          W/m2          W/m2          W/m2        W/m2          W/m2       degree/day
  51    .06700       16.1604        0.0000       43.0764       43.0764      26.916047       0.00000
  50    .07753       16.1602        0.0004       43.0721       43.0725      26.912221       3.06653
  49    .09103       16.1601        0.0008       43.0659       43.0668      26.906652       3.48079
  48    0.1069       16.1600        0.0014       43.0578       43.0591      26.899191       3.97162
  47    0.1255       16.1598        0.0020       43.0470       43.0490      26.889202       4.52841
  46    0.1487       16.1596        0.0027       43.0314       43.0341      26.874484       5.36497
  45    0.1794       16.1594        0.0038       43.0071       43.0109      26.851503       6.30873
  44    0.2165       16.1592        0.0050       42.9746       42.9796      26.820412       7.07273
  43    0.2613       16.1590        0.0065       42.9309       42.9374      26.778393       7.92028
  42    0.3336       16.1589        0.0089       42.8491       42.8580      26.699109       9.24375
  41    0.4307       16.1588        0.0121       42.7280       42.7400      26.581223      10.24996
  40    0.5894       16.1591        0.0171       42.5039       42.5210      26.361938      11.66130
  39     1.339       16.1675        0.0395       41.0784       41.1180      24.950495      15.89028
  38     1.782       16.1769        0.0514       40.1126       40.1639      23.987006      18.34329
  37     2.292       16.1919        0.0643       39.0018       39.0661      22.874212      18.43077
  36     2.964       16.2175        0.0804       37.6722       37.7526      21.535144      16.80934
  35     3.853       16.2597        0.1008       36.2246       36.3254      20.065690      13.94539
  34     5.035       16.3240        0.1270       34.7682       34.8952      18.571172      10.67621
  33     6.613       16.4149        0.1611       33.3539       33.5149      17.100010       7.86484
  32     8.786       16.5352        0.2061       32.0154       32.2215      15.686278       5.49042
  31     11.80       16.6959        0.2694       30.7043       30.9736      14.277700       3.94357
  30     15.07       16.8557        0.3364       29.7034       30.0398      13.184064       2.82356
  29     18.79       17.0255        0.4109       28.8397       29.2506      12.225071       2.17433
  28     23.16       17.2120        0.4970       28.0517       28.5488      11.336825       1.71758
  27     28.12       17.4105        0.5946       27.3377       27.9323      10.521772       1.38554
  26     33.73       17.6065        0.7038       26.7158       27.4196       9.813165       1.06541
  25     40.54       17.8096        0.8357       26.1257       26.9614       9.151768       0.82054
  24     48.69       18.0217        0.9946       25.5534       26.5481       8.526390       0.64717
  23     57.69       18.2204        1.1690       25.0386       26.2077       7.987286       0.50533
  22     68.43       18.4165        1.3769       24.5319       25.9088       7.492298       0.38913
  21     81.20       18.5858        1.6264       24.0471       25.6735       7.087617       0.26741
  20     96.49       18.7235        1.9250       23.5704       25.4955       6.772006       0.17419
  19     114.6       18.8539        2.2763       23.0618       25.3382       6.484274       0.13435
  18     136.5       18.9874        2.6855       22.5024       25.1879       6.200527       0.10911
  17     162.9       19.1276        3.1637       21.8793       25.0430       5.915418       0.09113
  16     196.4       19.2602        3.7737       21.1432       24.9169       5.656666       0.06513
  15     218.7       19.3285        4.1663       20.6893       24.8555       5.527039       0.04921
  14     243.0       19.3937        4.5852       20.2136       24.7988       5.405154       0.04227
  13     269.0       19.4541        5.0305       19.7173       24.7478       5.293697       0.03616
  12     297.5       19.5087        5.5018       19.2006       24.7024       5.193683       0.02966
  11     328.5       19.5617        5.9983       18.6596       24.6579       5.096199       0.02651
  10     361.9       19.6124        6.5183       18.0959       24.6142       5.001790       0.02389
   9     398.1       19.6603        7.0617       17.5093       24.5710       4.910697       0.02122
   8     437.6       19.7057        7.6266       16.9005       24.5270       4.821317       0.01911
   7     480.5       19.7475        8.2117       16.2708       24.4825       4.734967       0.01696
   6     533.0       19.7905        8.9038       15.5259       24.4297       4.639168       0.01541
   5     589.8       19.8286        9.6159       14.7578       24.3737       4.545130       0.01396
   4     651.6       19.8608       10.3417       13.9697       24.3114       4.450633       0.01292
   3     718.7       19.8867       11.0790       13.1642       24.2432       4.356531       0.01183
   2     792.3       19.9045       11.8181       12.3493       24.1674       4.262852       0.01074
   1     891.5       19.9150       12.7413       11.3189       24.0602       4.145133       0.01002
   0    1013.0       19.9091       13.7388       10.1828       23.9215       4.012447       0.00921



 Wavenumbers: 38000. - 50000. cm-1, ATM      1
 LEVEL PRESSURE   UPWARD FLUX   DIFDOWN FLUX  DIRDOWN FLUX  DOWNWARD FLUX   NET FLUX    HEATING RATE
          mb          W/m2          W/m2          W/m2        W/m2          W/m2       degree/day
  51    .06700        0.0076        0.0000        2.6569        2.6569       2.649329       0.00000
  50    .07753        0.0075        0.0001        2.6545        2.6545       2.646990       1.87409
  49    .09103        0.0075        0.0002        2.6510        2.6511       2.643650       2.08817
  48    0.1069        0.0074        0.0003        2.6464        2.6466       2.639251       2.34138
  47    0.1255        0.0073        0.0004        2.6404        2.6408       2.633455       2.62776
  46    0.1487        0.0072        0.0005        2.6317        2.6322       2.625039       3.06759
  45    0.1794        0.0070        0.0007        2.6184        2.6191       2.612064       3.56203
  44    0.2165        0.0069        0.0009        2.6007        2.6016       2.594730       3.94316
  43    0.2613        0.0067        0.0012        2.5772        2.5783       2.571602       4.35943
  42    0.3336        0.0064        0.0015        2.5335        2.5350       2.528613       5.01219
  41    0.4307        0.0060        0.0020        2.4699        2.4719       2.465836       5.45827
  40    0.5894        0.0055        0.0027        2.3549        2.3576       2.352096       6.04858
  39     1.339        0.0037        0.0041        1.6991        1.7032       1.699541       7.34658
  38     1.782        0.0029        0.0040        1.3269        1.3309       1.327930       7.07486
  37     2.292        0.0023        0.0035        0.9724        0.9759       0.973591       5.86878
  36     2.964        0.0018        0.0029        0.6514        0.6543       0.652515       4.03047
  35     3.853        0.0014        0.0024        0.4147        0.4171       0.415693       2.24748
  34     5.035        0.0011        0.0019        0.2616        0.2635       0.262398       1.09508
  33     6.613        0.0008        0.0015        0.1640        0.1655       0.164687       0.52236
  32     8.786        0.0006        0.0012        0.1029        0.1042       0.103521       0.23755
  31     11.80        0.0005        0.0009        0.0630        0.0640       0.063522       0.11199
  30     15.07        0.0003        0.0007        0.0413        0.0420       0.041685       0.05638
  29     18.79        0.0002        0.0006        0.0271        0.0277       0.027445       0.03229
  28     23.16        0.0002        0.0004        0.0174        0.0178       0.017663       0.01891
  27     28.12        0.0001        0.0003        0.0110        0.0113       0.011175       0.01103
  26     33.73        0.0001        0.0002        0.0070        0.0072       0.007084       0.00615
  25     40.54        0.0001        0.0001        0.0043        0.0044       0.004337       0.00341
  24     48.69        0.0000        0.0001        0.0025        0.0026       0.002534       0.00187
  23     57.69        0.0000        0.0001        0.0014        0.0015       0.001475       0.00099
  22     68.43        0.0000        0.0000        0.0008        0.0008       0.000813       0.00052
  21     81.20        0.0000        0.0000        0.0004        0.0004       0.000426       0.00026
  20     96.49        0.0000        0.0000        0.0002        0.0002       0.000208       0.00012
  19     114.6        0.0000        0.0000        0.0001        0.0001       0.000091       0.00005
  18     136.5        0.0000        0.0000        0.0000        0.0000       0.000034       0.00002
  17     162.9        0.0000        0.0000        0.0000        0.0000       0.000011       0.00001
  16     196.4        0.0000        0.0000        0.0000        0.0000       0.000003       0.00000
  15     218.7        0.0000        0.0000        0.0000        0.0000       0.000001       0.00000
  14     243.0        0.0000        0.0000        0.0000        0.0000       0.000000       0.00000
  13     269.0        0.0000        0.0000        0.0000        0.0000       0.000000       0.00000
  12     297.5        0.0000        0.0000        0.0000        0.0000       0.000000       0.00000
  11     328.5        0.0000        0.0000        0.0000        0.0000       0.000000       0.00000
  10     361.9        0.0000        0.0000        0.0000        0.0000       0.000000       0.00000
   9     398.1        0.0000        0.0000        0.0000        0.0000       0.000000       0.00000
   8     437.6        0.0000        0.0000        0.0000        0.0000       0.000000       0.00000
   7     480.5        0.0000        0.0000        0.0000        0.0000       0.000000       0.00000
   6     533.0        0.0000        0.0000        0.0000        0.0000       0.000000       0.00000
   5     589.8        0.0000        0.0000        0.0000        0.0000       0.000000       0.00000
   4     651.6        0.0000        0.0000        0.0000        0.0000       0.000000       0.00000
   3     718.7        0.0000        0.0000        0.0000        0.0000       0.000000       0.00000
   2     792.3        0.0000        0.0000        0.0000        0.0000       0.000000       0.00000
   1     891.5        0.0000        0.0000        0.0000        0.0000       0.000000       0.00000
   0    1013.0        0.0000        0.0000        0.0000        0.0000       0.000000       0.00000



 Wavenumbers:   820. -  2600. cm-1, ATM      1
 LEVEL PRESSURE   UPWARD FLUX   DIFDOWN FLUX  DIRDOWN FLUX  DOWNWARD FLUX   NET FLUX    HEATING RATE
          mb          W/m2          W/m2          W/m2        W/m2          W/m2       degree/day
  51    .06700        0.0682        0.0000       12.4287       12.4287      12.360489       0.00000
  50    .07753        0.0682        0.0000       12.4220       12.4220      12.353773       5.38280
  49    .09103        0.0682        0.0000       12.4206       12.4206      12.352328       0.90320
  48    0.1069        0.0682        0.0000       12.4195       12.4195      12.351234       0.58229
  47    0.1255        0.0682        0.0000       12.4182       12.4182      12.349974       0.57101
  46    0.1487        0.0682        0.0000       12.4166       12.4166      12.348356       0.58969
  45    0.1794        0.0682        0.0000       12.4144       12.4144      12.346161       0.60268
  44    0.2165        0.0682        0.0000       12.4119       12.4119      12.343634       0.57490
  43    0.2613        0.0682        0.0000       12.4090       12.4090      12.340776       0.53874
  42    0.3336        0.0682        0.0000       12.4047       12.4047      12.336434       0.50622
  41    0.4307        0.0682        0.0000       12.3996       12.3996      12.331353       0.44181
  40    0.5894        0.0682        0.0000       12.3923       12.3923      12.324086       0.38641
  39     1.339        0.0682        0.0000       12.3611       12.3611      12.292894       0.35117
  38     1.782        0.0682        0.0000       12.3433       12.3433      12.275033       0.34004
  37     2.292        0.0682        0.0000       12.3231       12.3231      12.254857       0.33417
  36     2.964        0.0682        0.0000       12.2972       12.2972      12.228963       0.32505
  35     3.853        0.0682        0.0000       12.2636       12.2636      12.195398       0.31854
  34     5.035        0.0682        0.0000       12.2205       12.2205      12.152223       0.30843
  33     6.613        0.0682        0.0000       12.1658       12.1658      12.097515       0.29247
  32     8.786        0.0682        0.0000       12.0964       12.0964      12.028190       0.26923
  31     11.80        0.0682        0.0000       12.0038       12.0038      11.935551       0.25936
  30     15.07        0.0682        0.0000       11.9122       11.9122      11.843979       0.23642
  29     18.79        0.0682        0.0000       11.8212       11.8212      11.752965       0.20636
  28     23.16        0.0682        0.0000       11.7344       11.7344      11.666198       0.16778
  27     28.12        0.0682        0.0000       11.6596       11.6596      11.591337       0.12726
  26     33.73        0.0682        0.0000       11.5998       11.5998      11.531553       0.08989
  25     40.54        0.0683        0.0000       11.5491       11.5491      11.480889       0.06285
  24     48.69        0.0683        0.0000       11.5034       11.5034      11.435183       0.04730
  23     57.69        0.0683        0.0000       11.4600       11.4600      11.391793       0.04067
  22     68.43        0.0683        0.0000       11.4110       11.4110      11.342776       0.03853
  21     81.20        0.0683        0.0000       11.3542       11.3542      11.285909       0.03758
  20     96.49        0.0683        0.0000       11.2873       11.2873      11.219026       0.03691
  19     114.6        0.0683        0.0000       11.2071       11.2071      11.138804       0.03746
  18     136.5        0.0683        0.0000       11.1047       11.1047      11.036453       0.03936
  17     162.9        0.0683        0.0000       10.9520       10.9520      10.883700       0.04883
  16     196.4        0.0683        0.0000       10.6841       10.6841      10.615790       0.06744
  15     218.7        0.0683        0.0000       10.4784       10.4784      10.410099       0.07809
  14     243.0        0.0684        0.0000       10.1893       10.1893      10.120956       0.10028
  13     269.0        0.0684        0.0000        9.7740        9.7741       9.705643       0.13473
  12     297.5        0.0685        0.0000        9.3392        9.3393       9.270760       0.12898
  11     328.5        0.0687        0.0000        8.9094        8.9094       8.840736       0.11692
  10     361.9        0.0689        0.0000        8.3999        8.3999       8.331058       0.12895
   9     398.1        0.0692        0.0000        7.8147        7.8148       7.745591       0.13640
   8     437.6        0.0696        0.0000        7.2361        7.2362       7.166539       0.12380
   7     480.5        0.0702        0.0000        6.7615        6.7615       6.691285       0.09334
   6     533.0        0.0712        0.0000        6.3943        6.3944       6.323144       0.05922
   5     589.8        0.0727        0.0000        6.0834        6.0835       6.010781       0.04636
   4     651.6        0.0748        0.0000        5.7434        5.7434       5.668630       0.04679
   3     718.7        0.0776        0.0000        5.4006        5.4007       5.323031       0.04343
   2     792.3        0.0812        0.0000        5.0903        5.0903       5.009156       0.03600
   1     891.5        0.0873        0.0000        4.7383        4.7383       4.650996       0.03048
   0    1013.0        0.0997        0.0000        4.3352        4.3352       4.235528       0.02885

  Modules and versions used in this calculation:

       rrtmg_sw.1col.f90:  $Revision$                    rrtmg_sw_init.f90:  $Revision$        
     rrtmgsw_cldprop.f90:  $Revision$                  rrtmgsw_cldprmc.f90:  NOT USED          
     rrtmg_sw_reftra.f90:  $Revision$                  rrtmg_sw_spcvrt.f90:  NOT USED          
     rrtmg_sw_spcvmc.f90:  NOT USED                    rrtmgsw_setcoef.f90:  NOT USED          
     rrtmg_sw_taumol.f90:  $Revision$                  rrtmg_sw_vrtqdr.f90:  NOT USED          
                rrtatm.f:  NOT USED                             util_xxx.f:  NOT USED          
                 extra.f:  NOT USED                       rrtmg_sw_k_g.f90:  $Revision$        

