

 Wavenumbers:   820. - 50000. cm-1, ATM      1
 LEVEL PRESSURE   UPWARD FLUX   DIFDOWN FLUX  DIRDOWN FLUX  DOWNWARD FLUX   NET FLUX    HEATING RATE
          mb          W/m2          W/m2          W/m2        W/m2          W/m2       degree/day
  51    .06700      195.0395        0.0000      465.4378      465.4378     270.398347       0.00000
  50    .07753      195.0389        0.0012      465.4212      465.4223     270.383467      11.92666
  49    .09103      195.0382        0.0027      465.4049      465.4076     270.369449       8.76160
  48    0.1069      195.0373        0.0044      465.3858      465.3902     270.352856       8.83271
  47    0.1255      195.0364        0.0063      465.3623      465.3686     270.332165       9.38023
  46    0.1487      195.0353        0.0088      465.3299      465.3387     270.303348      10.50416
  45    0.1794      195.0338        0.0121      465.2822      465.2943     270.260475      11.76946
  44    0.2165      195.0322        0.0161      465.2211      465.2372     270.205022      12.61465
  43    0.2613      195.0303        0.0208      465.1426      465.1634     270.133088      13.55928
  42    0.3336      195.0274        0.0285      465.0022      465.0306     270.003226      15.14059
  41    0.4307      195.0238        0.0386      464.8049      464.8435     269.819632      15.96310
  40    0.5894      195.0186        0.0548      464.4658      464.5207     269.502059      16.88812
  39     1.339      195.0055        0.1276      462.8370      462.9646     267.959109      17.37082
  38     1.782      195.0055        0.1684      462.0477      462.2161     267.210540      14.25154
  37     2.292      195.0124        0.2148      461.2864      461.5011     266.488703      11.95550
  36     2.964      195.0316        0.2750      460.4415      460.7165     265.684840      10.09092
  35     3.853      195.0711        0.3537      459.4841      459.8379     264.766762       8.71273
  34     5.035      195.1375        0.4574      458.4084      458.8658     263.728367       7.41786
  33     6.613      195.2337        0.5948      457.2071      457.8019     262.568141       6.20257
  32     8.786      195.3578        0.7787      455.8604      456.6392     261.281408       4.99721
  31     11.80      195.5113        1.0399      454.2634      455.3034     259.792027       4.16980
  30     15.07      195.6483        1.3183      452.8012      454.1195     258.471186       3.41016
  29     18.79      195.7782        1.6306      451.3349      452.9655     257.187287       2.91099
  28     23.16      195.9011        1.9926      449.7944      451.7870     255.885877       2.51651
  27     28.12      196.0082        2.4037      448.2008      450.6045     254.596239       2.19230
  26     33.73      196.0788        2.8608      446.6103      449.4711     253.392236       1.81025
  25     40.54      196.1070        3.4096      444.8921      448.3016     252.194627       1.48577
  24     48.69      196.0860        4.0661      443.0131      447.0791     250.993153       1.24334
  23     57.69      196.0100        4.7813      441.1261      445.9074     249.897361       1.02714
  22     68.43      195.8626        5.6257      439.0624      444.6881     248.825512       0.84262
  21     81.20      195.6081        6.6226      436.8367      443.4593     247.851182       0.64382
  20     96.49      195.2331        7.7976      434.4067      442.2042     246.971171       0.48570
  19     114.6      194.7621        9.1724      431.6496      440.8219     246.059828       0.42553
  18     136.5      194.1856       10.7729      428.4961      439.2690     245.083449       0.37544
  17     162.9      193.4868       12.6384      424.7872      437.4256     243.938769       0.36589
  16     196.4      192.5463       14.9969      419.9521      434.9490     242.402760       0.38663
  15     218.7      191.9203       16.5100      416.6554      433.1653     241.245003       0.43956
  14     243.0      191.2412       18.1223      412.7075      430.8298     239.588603       0.57449
  13     269.0      190.5082       19.8332      407.6142      427.4474     236.939165       0.85947
  12     297.5      189.7217       21.6409      401.6546      423.2955     233.573797       0.99813
  11     328.5      188.8853       23.5473      394.8775      418.4248     229.539489       1.09692
  10     361.9      188.0022       25.5469      387.2756      412.8225     224.820292       1.19400
   9     398.1      187.0733       27.6404      379.0498      406.6902     219.616895       1.21227
   8     437.6      186.1052       29.8229      370.2323      400.0552     213.950065       1.21160
   7     480.5      185.1078       32.0893      360.6601      392.7494     207.641533       1.23897
   6     533.0      183.9424       34.7808      349.2775      384.0582     200.115817       1.21065
   5     589.8      182.7681       37.5676      337.7080      375.2756     192.507492       1.12932
   4     651.6      181.6147       40.4365      325.9076      366.3441     184.729367       1.06368
   3     718.7      180.4991       43.3760      314.1794      357.5554     177.056235       0.96430
   2     792.3      179.4410       46.3717      302.7267      349.0985     169.657436       0.84856
   1     891.5      178.2793       50.1796      288.5511      338.7307     160.451405       0.78339
   0    1013.0      177.4836       54.4199      272.5792      326.9990     149.515468       0.75934



 Wavenumbers:  2600. -  3250. cm-1, ATM      1
 LEVEL PRESSURE   UPWARD FLUX   DIFDOWN FLUX  DIRDOWN FLUX  DOWNWARD FLUX   NET FLUX    HEATING RATE
          mb          W/m2          W/m2          W/m2        W/m2          W/m2       degree/day
  51    .06700        0.2923        0.0000        4.1021        4.1021       3.809818       0.00000
  50    .07753        0.2923        0.0000        4.1021        4.1021       3.809810       0.00640
  49    .09103        0.2923        0.0000        4.1021        4.1021       3.809800       0.00627
  48    0.1069        0.2923        0.0000        4.1021        4.1021       3.809788       0.00613
  47    0.1255        0.2923        0.0000        4.1021        4.1021       3.809775       0.00599
  46    0.1487        0.2923        0.0000        4.1020        4.1020       3.809758       0.00607
  45    0.1794        0.2923        0.0000        4.1020        4.1020       3.809735       0.00624
  44    0.2165        0.2923        0.0000        4.1020        4.1020       3.809709       0.00611
  43    0.2613        0.2923        0.0000        4.1020        4.1020       3.809677       0.00599
  42    0.3336        0.2923        0.0000        4.1019        4.1019       3.809624       0.00616
  41    0.4307        0.2923        0.0000        4.1018        4.1018       3.809553       0.00619
  40    0.5894        0.2923        0.0000        4.1017        4.1017       3.809433       0.00635
  39     1.339        0.2923        0.0000        4.1010        4.1010       3.808731       0.00791
  38     1.782        0.2923        0.0000        4.1005        4.1005       3.808195       0.01020
  37     2.292        0.2923        0.0000        4.0998        4.0998       3.807493       0.01163
  36     2.964        0.2923        0.0000        4.0988        4.0988       3.806484       0.01267
  35     3.853        0.2923        0.0000        4.0973        4.0973       3.805064       0.01348
  34     5.035        0.2923        0.0000        4.0954        4.0954       3.803126       0.01385
  33     6.613        0.2923        0.0000        4.0928        4.0928       3.800576       0.01363
  32     8.786        0.2923        0.0000        4.0896        4.0896       3.797358       0.01250
  31     11.80        0.2923        0.0000        4.0856        4.0856       3.793310       0.01133
  30     15.07        0.2923        0.0000        4.0819        4.0819       3.789644       0.00947
  29     18.79        0.2923        0.0000        4.0784        4.0784       3.786151       0.00792
  28     23.16        0.2923        0.0000        4.0748        4.0748       3.782561       0.00694
  27     28.12        0.2923        0.0000        4.0709        4.0709       3.778668       0.00662
  26     33.73        0.2923        0.0000        4.0663        4.0663       3.774011       0.00700
  25     40.54        0.2923        0.0000        4.0598        4.0598       3.767528       0.00804
  24     48.69        0.2923        0.0000        4.0507        4.0507       3.758449       0.00940
  23     57.69        0.2923        0.0000        4.0394        4.0394       3.747125       0.01062
  22     68.43        0.2923        0.0000        4.0246        4.0246       3.732346       0.01162
  21     81.20        0.2923        0.0000        4.0060        4.0061       3.713792       0.01226
  20     96.49        0.2923        0.0000        3.9836        3.9836       3.691310       0.01241
  19     114.6        0.2923        0.0000        3.9566        3.9566       3.664352       0.01259
  18     136.5        0.2923        0.0001        3.9264        3.9264       3.634143       0.01162
  17     162.9        0.2923        0.0001        3.8933        3.8934       3.601040       0.01058
  16     196.4        0.2924        0.0001        3.8543        3.8544       3.562024       0.00982
  15     218.7        0.2924        0.0001        3.8293        3.8293       3.536903       0.00954
  14     243.0        0.2925        0.0001        3.7997        3.7998       3.507287       0.01027
  13     269.0        0.2927        0.0001        3.7606        3.7607       3.467957       0.01276
  12     297.5        0.2929        0.0001        3.7089        3.7091       3.416109       0.01538
  11     328.5        0.2933        0.0001        3.6384        3.6385       3.345215       0.01928
  10     361.9        0.2939        0.0001        3.5422        3.5423       3.248431       0.02449
   9     398.1        0.2947        0.0001        3.4157        3.4159       3.121189       0.02964
   8     437.6        0.2958        0.0001        3.2588        3.2590       2.963162       0.03379
   7     480.5        0.2974        0.0001        3.0707        3.0709       2.773419       0.03726
   6     533.0        0.3002        0.0002        2.8450        2.8451       2.544956       0.03675
   5     589.8        0.3041        0.0002        2.6214        2.6215       2.317382       0.03378
   4     651.6        0.3099        0.0002        2.3914        2.3915       2.081668       0.03223
   3     718.7        0.3177        0.0002        2.1625        2.1627       1.844989       0.02974
   2     792.3        0.3279        0.0002        1.9498        1.9500       1.622070       0.02557
   1     891.5        0.3457        0.0002        1.7083        1.7085       1.362745       0.02207
   0    1013.0        0.3785        0.0002        1.4561        1.4562       1.077767       0.01979



 Wavenumbers:  3250. -  4000. cm-1, ATM      1
 LEVEL PRESSURE   UPWARD FLUX   DIFDOWN FLUX  DIRDOWN FLUX  DOWNWARD FLUX   NET FLUX    HEATING RATE
          mb          W/m2          W/m2          W/m2        W/m2          W/m2       degree/day
  51    .06700        0.0004        0.0000        6.9155        6.9155       6.915088       0.00000
  50    .07753        0.0004        0.0000        6.9111        6.9111       6.910663       3.54705
  49    .09103        0.0004        0.0000        6.9084        6.9084       6.907917       1.71594
  48    0.1069        0.0004        0.0000        6.9063        6.9063       6.905860       1.09507
  47    0.1255        0.0004        0.0000        6.9044        6.9044       6.903951       0.86540
  46    0.1487        0.0004        0.0000        6.9023        6.9023       6.901881       0.75451
  45    0.1794        0.0004        0.0000        6.8999        6.8999       6.899491       0.65615
  44    0.2165        0.0004        0.0000        6.8976        6.8976       6.897120       0.53947
  43    0.2613        0.0004        0.0000        6.8952        6.8952       6.894719       0.45251
  42    0.3336        0.0004        0.0000        6.8917        6.8917       6.891278       0.40121
  41    0.4307        0.0004        0.0000        6.8876        6.8876       6.887195       0.35500
  40    0.5894        0.0004        0.0000        6.8815        6.8815       6.881026       0.32803
  39     1.339        0.0004        0.0000        6.8588        6.8588       6.858399       0.25475
  38     1.782        0.0004        0.0000        6.8494        6.8494       6.848962       0.17966
  37     2.292        0.0004        0.0000        6.8403        6.8403       6.839902       0.15006
  36     2.964        0.0004        0.0000        6.8299        6.8299       6.829434       0.13140
  35     3.853        0.0004        0.0000        6.8169        6.8169       6.816479       0.12295
  34     5.035        0.0004        0.0000        6.8000        6.8000       6.799535       0.12105
  33     6.613        0.0004        0.0000        6.7770        6.7770       6.776610       0.12255
  32     8.786        0.0004        0.0000        6.7452        6.7452       6.744744       0.12376
  31     11.80        0.0004        0.0000        6.6982        6.6983       6.697832       0.13134
  30     15.07        0.0004        0.0000        6.6472        6.6472       6.646764       0.13185
  29     18.79        0.0004        0.0000        6.5902        6.5902       6.589790       0.12918
  28     23.16        0.0004        0.0000        6.5267        6.5267       6.526291       0.12279
  27     28.12        0.0004        0.0000        6.4598        6.4599       6.459466       0.11360
  26     33.73        0.0004        0.0000        6.3928        6.3928       6.392420       0.10081
  25     40.54        0.0004        0.0001        6.3202        6.3202       6.319824       0.09006
  24     48.69        0.0004        0.0001        6.2401        6.2402       6.239796       0.08282
  23     57.69        0.0004        0.0001        6.1564        6.1565       6.156099       0.07845
  22     68.43        0.0004        0.0001        6.0590        6.0591       6.058784       0.07650
  21     81.20        0.0003        0.0001        5.9457        5.9458       5.945492       0.07486
  20     96.49        0.0003        0.0001        5.8167        5.8168       5.816507       0.07119
  19     114.6        0.0003        0.0001        5.6657        5.6658       5.665498       0.07051
  18     136.5        0.0003        0.0002        5.4964        5.4965       5.496279       0.06507
  17     162.9        0.0002        0.0002        5.2829        5.2831       5.282829       0.06823
  16     196.4        0.0002        0.0002        4.9528        4.9530       4.952808       0.08307
  15     218.7        0.0002        0.0002        4.7194        4.7197       4.719474       0.08859
  14     243.0        0.0002        0.0002        4.4262        4.4264       4.426227       0.10171
  13     269.0        0.0001        0.0002        4.0107        4.0109       4.010792       0.13477
  12     297.5        0.0001        0.0002        3.5077        3.5079       3.507806       0.14918
  11     328.5        0.0001        0.0002        2.9761        2.9763       2.976209       0.14454
  10     361.9        0.0001        0.0002        2.4869        2.4871       2.487001       0.12377
   9     398.1        0.0001        0.0002        2.0686        2.0688       2.068741       0.09745
   8     437.6        0.0001        0.0002        1.6930        1.6931       1.693085       0.08032
   7     480.5        0.0001        0.0002        1.3397        1.3399       1.339798       0.06938
   6     533.0        0.0000        0.0001        0.9766        0.9767       0.976702       0.05841
   5     589.8        0.0000        0.0001        0.6622        0.6623       0.662218       0.04668
   4     651.6        0.0001        0.0001        0.4116        0.4117       0.411612       0.03427
   3     718.7        0.0001        0.0001        0.2312        0.2313       0.231219       0.02267
   2     792.3        0.0001        0.0000        0.1121        0.1121       0.112016       0.01367
   1     891.5        0.0002        0.0000        0.0328        0.0328       0.032595       0.00676
   0    1013.0        0.0010        0.0000        0.0040        0.0040       0.002976       0.00206



 Wavenumbers:  4000. -  4650. cm-1, ATM      1
 LEVEL PRESSURE   UPWARD FLUX   DIFDOWN FLUX  DIRDOWN FLUX  DOWNWARD FLUX   NET FLUX    HEATING RATE
          mb          W/m2          W/m2          W/m2        W/m2          W/m2       degree/day
  51    .06700        1.2153        0.0000        8.1209        8.1209       6.905650       0.00000
  50    .07753        1.2153        0.0000        8.1209        8.1209       6.905649       0.00079
  49    .09103        1.2153        0.0000        8.1209        8.1209       6.905648       0.00078
  48    0.1069        1.2153        0.0000        8.1209        8.1209       6.905646       0.00076
  47    0.1255        1.2153        0.0000        8.1209        8.1209       6.905645       0.00074
  46    0.1487        1.2153        0.0000        8.1209        8.1209       6.905643       0.00075
  45    0.1794        1.2153        0.0000        8.1209        8.1209       6.905640       0.00077
  44    0.2165        1.2153        0.0000        8.1209        8.1209       6.905637       0.00076
  43    0.2613        1.2153        0.0000        8.1209        8.1209       6.905633       0.00074
  42    0.3336        1.2153        0.0000        8.1209        8.1209       6.905626       0.00076
  41    0.4307        1.2153        0.0000        8.1209        8.1209       6.905617       0.00077
  40    0.5894        1.2153        0.0000        8.1209        8.1209       6.905602       0.00079
  39     1.339        1.2153        0.0000        8.1208        8.1208       6.905514       0.00100
  38     1.782        1.2153        0.0000        8.1207        8.1207       6.905444       0.00132
  37     2.292        1.2153        0.0000        8.1206        8.1206       6.905351       0.00155
  36     2.964        1.2153        0.0000        8.1205        8.1205       6.905211       0.00175
  35     3.853        1.2153        0.0000        8.1202        8.1203       6.905005       0.00196
  34     5.035        1.2153        0.0000        8.1199        8.1200       6.904700       0.00218
  33     6.613        1.2152        0.0000        8.1195        8.1195       6.904252       0.00240
  32     8.786        1.2152        0.0000        8.1188        8.1188       6.903591       0.00257
  31     11.80        1.2152        0.0000        8.1177        8.1178       6.902554       0.00290
  30     15.07        1.2152        0.0001        8.1165        8.1166       6.901340       0.00313
  29     18.79        1.2152        0.0001        8.1150        8.1151       6.899875       0.00332
  28     23.16        1.2152        0.0001        8.1132        8.1133       6.898061       0.00351
  27     28.12        1.2152        0.0001        8.1109        8.1111       6.895872       0.00372
  26     33.73        1.2152        0.0001        8.1082        8.1083       6.893181       0.00405
  25     40.54        1.2152        0.0002        8.1045        8.1047       6.889546       0.00451
  24     48.69        1.2151        0.0002        8.0997        8.0999       6.884725       0.00499
  23     57.69        1.2151        0.0002        8.0939        8.0942       6.879042       0.00533
  22     68.43        1.2151        0.0003        8.0868        8.0871       6.871959       0.00557
  21     81.20        1.2151        0.0003        8.0781        8.0784       6.863277       0.00574
  20     96.49        1.2151        0.0004        8.0675        8.0678       6.852768       0.00580
  19     114.6        1.2151        0.0004        8.0542        8.0547       6.839588       0.00615
  18     136.5        1.2151        0.0005        8.0382        8.0387       6.823671       0.00612
  17     162.9        1.2151        0.0006        8.0184        8.0190       6.803851       0.00634
  16     196.4        1.2152        0.0007        7.9905        7.9912       6.775974       0.00702
  15     218.7        1.2153        0.0008        7.9699        7.9707       6.755346       0.00783
  14     243.0        1.2155        0.0009        7.9437        7.9446       6.729013       0.00913
  13     269.0        1.2159        0.0010        7.9069        7.9079       6.691980       0.01201
  12     297.5        1.2165        0.0011        7.8566        7.8577       6.641189       0.01506
  11     328.5        1.2174        0.0012        7.7856        7.7868       6.569438       0.01951
  10     361.9        1.2185        0.0013        7.6892        7.6906       6.472036       0.02464
   9     398.1        1.2200        0.0014        7.5693        7.5707       6.350651       0.02828
   8     437.6        1.2221        0.0015        7.4304        7.4319       6.209851       0.03010
   7     480.5        1.2248        0.0017        7.2733        7.2750       6.050197       0.03136
   6     533.0        1.2293        0.0018        7.0700        7.0718       5.842510       0.03341
   5     589.8        1.2357        0.0019        6.8221        6.8240       5.588327       0.03773
   4     651.6        1.2450        0.0021        6.5243        6.5264       5.281385       0.04198
   3     718.7        1.2578        0.0022        6.2127        6.2149       4.957109       0.04075
   2     792.3        1.2744        0.0023        5.9221        5.9244       4.649999       0.03522
   1     891.5        1.3030        0.0025        5.5863        5.5888       4.285854       0.03099
   0    1013.0        1.3548        0.0027        5.2101        5.2127       3.857971       0.02971



 Wavenumbers:  4650. -  5150. cm-1, ATM      1
 LEVEL PRESSURE   UPWARD FLUX   DIFDOWN FLUX  DIRDOWN FLUX  DOWNWARD FLUX   NET FLUX    HEATING RATE
          mb          W/m2          W/m2          W/m2        W/m2          W/m2       degree/day
  51    .06700        0.8283        0.0000        7.6868        7.6868       6.858581       0.00000
  50    .07753        0.8283        0.0000        7.6866        7.6866       6.858345       0.18897
  49    .09103        0.8283        0.0000        7.6863        7.6863       6.858051       0.18393
  48    0.1069        0.8283        0.0000        7.6860        7.6860       6.857715       0.17861
  47    0.1255        0.8283        0.0000        7.6856        7.6856       6.857333       0.17318
  46    0.1487        0.8283        0.0000        7.6851        7.6851       6.856856       0.17381
  45    0.1794        0.8283        0.0000        7.6845        7.6845       6.856214       0.17630
  44    0.2165        0.8283        0.0000        7.6837        7.6837       6.855467       0.16989
  43    0.2613        0.8283        0.0000        7.6829        7.6829       6.854601       0.16328
  42    0.3336        0.8283        0.0000        7.6815        7.6815       6.853210       0.16222
  41    0.4307        0.8283        0.0000        7.6797        7.6797       6.851440       0.15383
  40    0.5894        0.8282        0.0000        7.6770        7.6770       6.848719       0.14470
  39     1.339        0.8282        0.0000        7.6665        7.6665       6.838251       0.11786
  38     1.782        0.8282        0.0000        7.6618        7.6618       6.833549       0.08951
  37     2.292        0.8282        0.0000        7.6573        7.6573       6.829107       0.07358
  36     2.964        0.8282        0.0000        7.6527        7.6527       6.824486       0.05801
  35     3.853        0.8282        0.0000        7.6480        7.6481       6.819818       0.04429
  34     5.035        0.8282        0.0000        7.6433        7.6434       6.815128       0.03350
  33     6.613        0.8282        0.0000        7.6384        7.6384       6.810189       0.02640
  32     8.786        0.8282        0.0001        7.6325        7.6326       6.804343       0.02270
  31     11.80        0.8282        0.0001        7.6242        7.6243       6.796058       0.02320
  30     15.07        0.8282        0.0001        7.6147        7.6147       6.786554       0.02454
  29     18.79        0.8282        0.0001        7.6029        7.6030       6.774865       0.02650
  28     23.16        0.8282        0.0001        7.5880        7.5882       6.759995       0.02875
  27     28.12        0.8281        0.0002        7.5696        7.5697       6.741578       0.03131
  26     33.73        0.8281        0.0002        7.5475        7.5476       6.719523       0.03316
  25     40.54        0.8281        0.0002        7.5192        7.5195       6.691349       0.03495
  24     48.69        0.8281        0.0003        7.4838        7.4841       6.655958       0.03662
  23     57.69        0.8281        0.0003        7.4441        7.4444       6.616362       0.03712
  22     68.43        0.8281        0.0004        7.3973        7.3977       6.569609       0.03675
  21     81.20        0.8281        0.0005        7.3434        7.3438       6.515754       0.03559
  20     96.49        0.8281        0.0005        7.2834        7.2839       6.455822       0.03308
  19     114.6        0.8281        0.0006        7.2187        7.2193       6.391194       0.03018
  18     136.5        0.8282        0.0007        7.1506        7.1513       6.323177       0.02615
  17     162.9        0.8283        0.0009        7.0787        7.0795       6.251268       0.02298
  16     196.4        0.8285        0.0010        6.9937        6.9948       6.166329       0.02138
  15     218.7        0.8286        0.0012        6.9392        6.9404       6.111715       0.02073
  14     243.0        0.8289        0.0013        6.8778        6.8791       6.050224       0.02133
  13     269.0        0.8293        0.0014        6.8043        6.8057       5.976416       0.02394
  12     297.5        0.8299        0.0015        6.7141        6.7157       5.885775       0.02688
  11     328.5        0.8308        0.0017        6.6045        6.6061       5.775357       0.03002
  10     361.9        0.8320        0.0018        6.4716        6.4734       5.641431       0.03388
   9     398.1        0.8337        0.0020        6.3129        6.3149       5.481247       0.03732
   8     437.6        0.8359        0.0021        6.1258        6.1279       5.292000       0.04046
   7     480.5        0.8390        0.0022        5.9065        5.9088       5.069769       0.04365
   6     533.0        0.8439        0.0024        5.6254        5.6278       4.783928       0.04598
   5     589.8        0.8507        0.0025        5.3273        5.3298       4.479058       0.04525
   4     651.6        0.8604        0.0027        5.0199        5.0226       4.162181       0.04333
   3     718.7        0.8733        0.0028        4.7212        4.7239       3.850650       0.03915
   2     792.3        0.8901        0.0029        4.4375        4.4404       3.550269       0.03445
   1     891.5        0.9190        0.0031        4.0976        4.1006       3.181557       0.03138
   0    1013.0        0.9694        0.0032        3.7269        3.7301       2.760641       0.02923



 Wavenumbers:  5150. -  6150. cm-1, ATM      1
 LEVEL PRESSURE   UPWARD FLUX   DIFDOWN FLUX  DIRDOWN FLUX  DOWNWARD FLUX   NET FLUX    HEATING RATE
          mb          W/m2          W/m2          W/m2        W/m2          W/m2       degree/day
  51    .06700        2.1947        0.0000       19.2709       19.2709      17.076218       0.00000
  50    .07753        2.1947        0.0000       19.2709       19.2709      17.076184       0.02761
  49    .09103        2.1947        0.0000       19.2708       19.2708      17.076139       0.02811
  48    0.1069        2.1947        0.0000       19.2708       19.2708      17.076085       0.02860
  47    0.1255        2.1947        0.0000       19.2707       19.2707      17.076021       0.02905
  46    0.1487        2.1947        0.0000       19.2706       19.2706      17.075937       0.03060
  45    0.1794        2.1947        0.0000       19.2705       19.2705      17.075818       0.03270
  44    0.2165        2.1947        0.0000       19.2704       19.2704      17.075672       0.03333
  43    0.2613        2.1947        0.0000       19.2702       19.2702      17.075492       0.03378
  42    0.3336        2.1947        0.0000       19.2699       19.2699      17.075186       0.03567
  41    0.4307        2.1947        0.0000       19.2694       19.2695      17.074767       0.03649
  40    0.5894        2.1947        0.0000       19.2687       19.2688      17.074065       0.03735
  39     1.339        2.1947        0.0000       19.2653       19.2653      17.070644       0.03850
  38     1.782        2.1947        0.0000       19.2633       19.2633      17.068634       0.03828
  37     2.292        2.1947        0.0001       19.2609       19.2610      17.066325       0.03824
  36     2.964        2.1946        0.0001       19.2579       19.2580      17.063326       0.03764
  35     3.853        2.1946        0.0001       19.2539       19.2540      17.059424       0.03704
  34     5.035        2.1946        0.0001       19.2488       19.2489      17.054343       0.03629
  33     6.613        2.1946        0.0002       19.2421       19.2423      17.047740       0.03530
  32     8.786        2.1945        0.0002       19.2335       19.2337      17.039186       0.03322
  31     11.80        2.1945        0.0003       19.2217       19.2220      17.027573       0.03251
  30     15.07        2.1944        0.0004       19.2100       19.2104      17.015962       0.02998
  29     18.79        2.1943        0.0005       19.1976       19.1981      17.003765       0.02765
  28     23.16        2.1943        0.0006       19.1843       19.1849      16.990601       0.02546
  27     28.12        2.1942        0.0007       19.1703       19.1710      16.976823       0.02342
  26     33.73        2.1941        0.0009       19.1560       19.1569      16.962784       0.02111
  25     40.54        2.1940        0.0011       19.1405       19.1416      16.947582       0.01886
  24     48.69        2.1939        0.0013       19.1238       19.1251      16.931245       0.01691
  23     57.69        2.1937        0.0015       19.1077       19.1092      16.915436       0.01482
  22     68.43        2.1936        0.0018       19.0908       19.0926      16.899013       0.01291
  21     81.20        2.1934        0.0021       19.0728       19.0749      16.881468       0.01159
  20     96.49        2.1932        0.0025       19.0528       19.0553      16.862127       0.01067
  19     114.6        2.1930        0.0030       19.0299       19.0329      16.839925       0.01037
  18     136.5        2.1927        0.0035       18.9997       19.0032      16.810491       0.01132
  17     162.9        2.1924        0.0042       18.9461       18.9503      16.757896       0.01681
  16     196.4        2.1921        0.0050       18.8183       18.8234      16.631278       0.03187
  15     218.7        2.1919        0.0056       18.6590       18.6646      16.472739       0.06019
  14     243.0        2.1916        0.0061       18.3574       18.3636      16.171907       0.10434
  13     269.0        2.1915        0.0066       17.8280       17.8346      15.643113       0.17154
  12     297.5        2.1914        0.0071       17.2041       17.2112      15.019778       0.18487
  11     328.5        2.1915        0.0076       16.4385       16.4461      14.254638       0.20804
  10     361.9        2.1917        0.0080       15.5445       15.5524      13.360696       0.22618
   9     398.1        2.1923        0.0083       14.6211       14.6294      12.437170       0.21516
   8     437.6        2.1932        0.0086       13.6974       13.7061      11.512890       0.19762
   7     480.5        2.1947        0.0089       12.8065       12.8154      10.620689       0.17522
   6     533.0        2.1976        0.0093       11.9563       11.9655       9.767918       0.13718
   5     589.8        2.2022        0.0097       11.3048       11.3145       9.112315       0.09731
   4     651.6        2.2095        0.0102       10.7919       10.8022       8.592673       0.07106
   3     718.7        2.2201        0.0109       10.3569       10.3678       8.147672       0.05592
   2     792.3        2.2349        0.0116        9.9464        9.9579       7.723077       0.04870
   1     891.5        2.2626        0.0125        9.4456        9.4580       7.195420       0.04490
   0    1013.0        2.3216        0.0135        8.9197        8.9331       6.611526       0.04054



 Wavenumbers:  6150. -  7700. cm-1, ATM      1
 LEVEL PRESSURE   UPWARD FLUX   DIFDOWN FLUX  DIRDOWN FLUX  DOWNWARD FLUX   NET FLUX    HEATING RATE
          mb          W/m2          W/m2          W/m2        W/m2          W/m2       degree/day
  51    .06700        3.2644        0.0000       35.6423       35.6423      32.377941       0.00000
  50    .07753        3.2644        0.0000       35.6422       35.6423      32.377890       0.04144
  49    .09103        3.2644        0.0000       35.6422       35.6422      32.377823       0.04174
  48    0.1069        3.2644        0.0000       35.6421       35.6421      32.377744       0.04202
  47    0.1255        3.2644        0.0000       35.6420       35.6420      32.377651       0.04227
  46    0.1487        3.2644        0.0000       35.6419       35.6419      32.377530       0.04411
  45    0.1794        3.2644        0.0000       35.6417       35.6417      32.377360       0.04670
  44    0.2165        3.2643        0.0000       35.6415       35.6415      32.377152       0.04716
  43    0.2613        3.2643        0.0000       35.6412       35.6412      32.376901       0.04746
  42    0.3336        3.2643        0.0000       35.6408       35.6408      32.376474       0.04977
  41    0.4307        3.2643        0.0000       35.6402       35.6402      32.375892       0.05056
  40    0.5894        3.2643        0.0001       35.6392       35.6392      32.374924       0.05151
  39     1.339        3.2642        0.0001       35.6343       35.6345      32.370230       0.05284
  38     1.782        3.2642        0.0002       35.6315       35.6317      32.367471       0.05253
  37     2.292        3.2641        0.0002       35.6282       35.6284      32.364298       0.05255
  36     2.964        3.2641        0.0003       35.6239       35.6242      32.360166       0.05187
  35     3.853        3.2640        0.0004       35.6183       35.6188      32.354767       0.05124
  34     5.035        3.2639        0.0005       35.6110       35.6116      32.347694       0.05052
  33     6.613        3.2637        0.0007       35.6014       35.6021      32.338422       0.04957
  32     8.786        3.2635        0.0010       35.5888       35.5898      32.326255       0.04725
  31     11.80        3.2632        0.0013       35.5714       35.5727      32.309478       0.04697
  30     15.07        3.2629        0.0017       35.5535       35.5551      32.292250       0.04448
  29     18.79        3.2625        0.0021       35.5341       35.5362      32.273691       0.04208
  28     23.16        3.2621        0.0025       35.5127       35.5152      32.253132       0.03975
  27     28.12        3.2616        0.0031       35.4894       35.4924      32.230867       0.03785
  26     33.73        3.2610        0.0037       35.4649       35.4686      32.207560       0.03504
  25     40.54        3.2604        0.0044       35.4373       35.4418      32.181401       0.03245
  24     48.69        3.2596        0.0053       35.4066       35.4119      32.152354       0.03006
  23     57.69        3.2587        0.0063       35.3757       35.3820      32.123361       0.02718
  22     68.43        3.2576        0.0074       35.3424       35.3499      32.092256       0.02445
  21     81.20        3.2564        0.0088       35.3058       35.3146      32.058286       0.02245
  20     96.49        3.2549        0.0105       35.2647       35.2752      32.020361       0.02093
  19     114.6        3.2531        0.0125       35.2174       35.2298      31.976733       0.02037
  18     136.5        3.2510        0.0148       35.1564       35.1712      31.920230       0.02173
  17     162.9        3.2485        0.0175       35.0564       35.0740      31.825523       0.03027
  16     196.4        3.2452        0.0211       34.8530       34.8741      31.628834       0.04951
  15     218.7        3.2431        0.0233       34.6349       34.6582      31.415058       0.08116
  14     243.0        3.2409        0.0257       34.2279       34.2536      31.012678       0.13956
  13     269.0        3.2387        0.0280       33.4105       33.4385      30.199793       0.26370
  12     297.5        3.2365        0.0301       32.3061       32.3362      29.099712       0.32627
  11     328.5        3.2345        0.0321       31.0185       31.0506      27.816040       0.34903
  10     361.9        3.2329        0.0340       29.4969       29.5309      26.297932       0.38410
   9     398.1        3.2319        0.0356       27.8070       27.8426      24.610632       0.39310
   8     437.6        3.2319        0.0369       26.0349       26.0718      22.839876       0.37860
   7     480.5        3.2337        0.0379       24.1835       24.2215      20.987750       0.36375
   6     533.0        3.2389        0.0390       22.1895       22.2284      18.989535       0.32145
   5     589.8        3.2491        0.0400       20.3982       20.4382      17.189151       0.26724
   4     651.6        3.2669        0.0410       18.7761       18.8171      15.550183       0.22413
   3     718.7        3.2944        0.0422       17.3787       17.4209      14.126535       0.17891
   2     792.3        3.3333        0.0436       16.2095       16.2531      12.919830       0.13840
   1     891.5        3.4068        0.0456       14.9445       14.9902      11.583307       0.11373
   0    1013.0        3.5591        0.0478       13.6480       13.6957      10.136673       0.10045



 Wavenumbers:  7700. -  8050. cm-1, ATM      1
 LEVEL PRESSURE   UPWARD FLUX   DIFDOWN FLUX  DIRDOWN FLUX  DOWNWARD FLUX   NET FLUX    HEATING RATE
          mb          W/m2          W/m2          W/m2        W/m2          W/m2       degree/day
  51    .06700        1.6978        0.0000        8.4233        8.4233       6.725531       0.00000
  50    .07753        1.6978        0.0000        8.4233        8.4233       6.725512       0.01509
  49    .09103        1.6978        0.0000        8.4233        8.4233       6.725488       0.01479
  48    0.1069        1.6978        0.0000        8.4233        8.4233       6.725461       0.01448
  47    0.1255        1.6978        0.0000        8.4232        8.4232       6.725430       0.01417
  46    0.1487        1.6978        0.0000        8.4232        8.4232       6.725390       0.01438
  45    0.1794        1.6978        0.0000        8.4231        8.4231       6.725336       0.01479
  44    0.2165        1.6978        0.0000        8.4231        8.4231       6.725273       0.01451
  43    0.2613        1.6978        0.0000        8.4230        8.4230       6.725197       0.01424
  42    0.3336        1.6978        0.0000        8.4229        8.4229       6.725072       0.01457
  41    0.4307        1.6978        0.0000        8.4227        8.4227       6.724907       0.01441
  40    0.5894        1.6978        0.0000        8.4225        8.4225       6.724636       0.01439
  39     1.339        1.6979        0.0001        8.4212        8.4212       6.723356       0.01441
  38     1.782        1.6979        0.0001        8.4204        8.4205       6.722604       0.01431
  37     2.292        1.6979        0.0001        8.4196        8.4197       6.721734       0.01441
  36     2.964        1.6980        0.0001        8.4185        8.4186       6.720592       0.01433
  35     3.853        1.6980        0.0002        8.4170        8.4171       6.719084       0.01431
  34     5.035        1.6981        0.0002        8.4150        8.4152       6.717082       0.01430
  33     6.613        1.6982        0.0003        8.4123        8.4126       6.714410       0.01429
  32     8.786        1.6984        0.0004        8.4088        8.4092       6.710813       0.01397
  31     11.80        1.6986        0.0005        8.4037        8.4042       6.705676       0.01438
  30     15.07        1.6988        0.0007        8.3983        8.3989       6.700174       0.01421
  29     18.79        1.6990        0.0008        8.3921        8.3930       6.693974       0.01406
  28     23.16        1.6993        0.0010        8.3850        8.3860       6.686754       0.01396
  27     28.12        1.6996        0.0013        8.3769        8.3781       6.678529       0.01398
  26     33.73        1.7000        0.0015        8.3678        8.3693       6.669362       0.01378
  25     40.54        1.7004        0.0018        8.3569        8.3587       6.658343       0.01367
  24     48.69        1.7009        0.0022        8.3439        8.3461       6.645140       0.01366
  23     57.69        1.7015        0.0026        8.3297        8.3323       6.630740       0.01350
  22     68.43        1.7022        0.0030        8.3129        8.3160       6.613729       0.01337
  21     81.20        1.7031        0.0036        8.2931        8.2967       6.593660       0.01326
  20     96.49        1.7041        0.0043        8.2699        8.2741       6.570020       0.01305
  19     114.6        1.7053        0.0050        8.2426        8.2477       6.542329       0.01293
  18     136.5        1.7068        0.0060        8.2109        8.2168       6.510020       0.01242
  17     162.9        1.7086        0.0071        8.1738        8.1808       6.472234       0.01208
  16     196.4        1.7110        0.0085        8.1267        8.1352       6.424222       0.01209
  15     218.7        1.7126        0.0095        8.0965        8.1059       6.393303       0.01174
  14     243.0        1.7144        0.0105        8.0641        8.0745       6.360148       0.01150
  13     269.0        1.7164        0.0116        8.0294        8.0410       6.324627       0.01152
  12     297.5        1.7186        0.0127        7.9924        8.0052       6.286588       0.01128
  11     328.5        1.7211        0.0140        7.9527        7.9667       6.245692       0.01112
  10     361.9        1.7239        0.0154        7.9101        7.9255       6.201641       0.01115
   9     398.1        1.7271        0.0169        7.8643        7.8811       6.154025       0.01109
   8     437.6        1.7308        0.0184        7.8146        7.8330       6.102255       0.01107
   7     480.5        1.7351        0.0201        7.7602        7.7803       6.045181       0.01121
   6     533.0        1.7410        0.0221        7.6913        7.7134       5.972406       0.01171
   5     589.8        1.7481        0.0243        7.6141        7.6384       5.890299       0.01219
   4     651.6        1.7568        0.0266        7.5272        7.5538       5.797015       0.01276
   3     718.7        1.7673        0.0291        7.4304        7.4595       5.692164       0.01318
   2     792.3        1.7798        0.0317        7.3244        7.3561       5.576317       0.01329
   1     891.5        1.7988        0.0351        7.1773        7.2124       5.413605       0.01385
   0    1013.0        1.8260        0.0391        6.9883        7.0274       5.201332       0.01474



 Wavenumbers:  8050. - 12850. cm-1, ATM      1
 LEVEL PRESSURE   UPWARD FLUX   DIFDOWN FLUX  DIRDOWN FLUX  DOWNWARD FLUX   NET FLUX    HEATING RATE
          mb          W/m2          W/m2          W/m2        W/m2          W/m2       degree/day
  51    .06700       22.0046        0.0000      117.9329      117.9329      95.928371       0.00000
  50    .07753       22.0045        0.0000      117.9329      117.9329      95.928371       0.00000
  49    .09103       22.0045        0.0001      117.9328      117.9329      95.928371       0.00000
  48    0.1069       22.0045        0.0001      117.9328      117.9329      95.928371      -0.00000
  47    0.1255       22.0045        0.0001      117.9327      117.9328      95.928371      -0.00000
  46    0.1487       22.0044        0.0002      117.9326      117.9328      95.928371       0.00000
  45    0.1794       22.0044        0.0002      117.9325      117.9327      95.928371      -0.00000
  44    0.2165       22.0043        0.0003      117.9323      117.9327      95.928371       0.00000
  43    0.2613       22.0042        0.0004      117.9322      117.9326      95.928371       0.00000
  42    0.3336       22.0041        0.0006      117.9319      117.9325      95.928371       0.00000
  41    0.4307       22.0039        0.0008      117.9315      117.9323      95.928371      -0.00000
  40    0.5894       22.0036        0.0011      117.9309      117.9320      95.928371       0.00000
  39     1.339       22.0023        0.0028      117.9279      117.9307      95.928371      -0.00000
  38     1.782       22.0015        0.0037      117.9262      117.9299      95.928371       0.00000
  37     2.292       22.0006        0.0048      117.9242      117.9290      95.928371       0.00000
  36     2.964       21.9994        0.0063      117.9215      117.9278      95.928371       0.00000
  35     3.853       21.9979        0.0082      117.9180      117.9263      95.928371       0.00000
  34     5.035       21.9958        0.0108      117.9134      117.9242      95.928371      -0.00000
  33     6.613       21.9930        0.0142      117.9072      117.9214      95.928371       0.00000
  32     8.786       21.9893        0.0188      117.8988      117.9176      95.928371      -0.00000
  31     11.80       21.9839        0.0254      117.8868      117.9123      95.928371       0.00000
  30     15.07       21.9781        0.0325      117.8740      117.9065      95.928371       0.00000
  29     18.79       21.9716        0.0405      117.8594      117.9000      95.928371       0.00000
  28     23.16       21.9639        0.0499      117.8424      117.8923      95.928371       0.00000
  27     28.12       21.9552        0.0607      117.8229      117.8836      95.928371       0.00000
  26     33.73       21.9454        0.0727      117.8011      117.8738      95.928371      -0.00000
  25     40.54       21.9336        0.0873      117.7746      117.8619      95.928371       0.00000
  24     48.69       21.9192        0.1049      117.7427      117.8476      95.928371       0.00000
  23     57.69       21.9035        0.1242      117.7077      117.8319      95.928371       0.00000
  22     68.43       21.8847        0.1473      117.6658      117.8131      95.928371      -0.00000
  21     81.20       21.8623        0.1748      117.6159      117.7907      95.928371       0.00000
  20     96.49       21.8355        0.2076      117.5563      117.7639      95.928371      -0.00000
  19     114.6       21.8037        0.2467      117.4777      117.7244      95.920679       0.00359
  18     136.5       21.7660        0.2930      117.3825      117.6756      95.909591       0.00426
  17     162.9       21.7209        0.3483      117.2596      117.6080      95.887027       0.00721
  16     196.4       21.6624        0.4201      117.0688      117.4889      95.826475       0.01524
  15     218.7       21.6240        0.4673      116.9056      117.3729      95.748952       0.02943
  14     243.0       21.5822        0.5185      116.6583      117.1769      95.594675       0.05351
  13     269.0       21.5373        0.5737      116.2377      116.8114      95.274037       0.10401
  12     297.5       21.4896        0.6329      115.6558      116.2887      94.799044       0.14088
  11     328.5       21.4394        0.6962      114.8855      115.5817      94.142288       0.17857
  10     361.9       21.3874        0.7635      113.8560      114.6194      93.232001       0.23031
   9     398.1       21.3347        0.8344      112.5292      113.3636      92.028902       0.28030
   8     437.6       21.2830        0.9086      110.8547      111.7633      90.480304       0.33110
   7     480.5       21.2363        0.9850      108.7159      109.7009      88.464681       0.39586
   6     533.0       21.1931        1.0751      105.8337      106.9088      85.715677       0.44223
   5     589.8       21.1679        1.1679      102.6411      103.8090      82.641091       0.45637
   4     651.6       21.1721        1.2629       99.1671      100.4300      79.257890       0.46266
   3     718.7       21.2129        1.3610       95.5999       96.9609      75.748032       0.44109
   2     792.3       21.2967        1.4626       92.1023       93.5650      72.268207       0.39910
   1     891.5       21.4963        1.5936       87.7789       89.3725      67.876156       0.37374
   0    1013.0       21.9663        1.7388       82.8435       84.5823      62.616063       0.36524



 Wavenumbers: 12850. - 16000. cm-1, ATM      1
 LEVEL PRESSURE   UPWARD FLUX   DIFDOWN FLUX  DIRDOWN FLUX  DOWNWARD FLUX   NET FLUX    HEATING RATE
          mb          W/m2          W/m2          W/m2        W/m2          W/m2       degree/day
  51    .06700       35.2949        0.0000       73.8954       73.8954      38.600549       0.00000
  50    .07753       35.2948        0.0001       73.8945       73.8946      38.599768       0.62552
  49    .09103       35.2948        0.0001       73.8935       73.8936      38.598794       0.60932
  48    0.1069       35.2948        0.0002       73.8922       73.8924      38.597681       0.59247
  47    0.1255       35.2947        0.0003       73.8908       73.8911      38.596411       0.57561
  46    0.1487       35.2947        0.0004       73.8891       73.8895      38.594822       0.57919
  45    0.1794       35.2946        0.0006       73.8867       73.8873      38.592682       0.58752
  44    0.2165       35.2946        0.0008       73.8840       73.8848      38.590194       0.56593
  43    0.2613       35.2945        0.0010       73.8808       73.8818      38.587307       0.54415
  42    0.3336       35.2945        0.0014       73.8757       73.8771      38.582671       0.54052
  41    0.4307       35.2944        0.0019       73.8693       73.8712      38.576815       0.50914
  40    0.5894       35.2944        0.0027       73.8595       73.8622      38.567852       0.47667
  39     1.339       35.2956        0.0066       73.8188       73.8254      38.529834       0.42801
  38     1.782       35.2972        0.0089       73.7961       73.8050      38.507803       0.41943
  37     2.292       35.3000        0.0115       73.7689       73.7804      38.480369       0.45439
  36     2.964       35.3050        0.0150       73.7300       73.7449      38.439924       0.50770
  35     3.853       35.3135        0.0195       73.6731       73.6927      38.379154       0.57672
  34     5.035       35.3267        0.0256       73.5920       73.6176      38.290864       0.63071
  33     6.613       35.3453        0.0336       73.4811       73.5148      38.169499       0.64881
  32     8.786       35.3693        0.0445       73.3367       73.3812      38.011908       0.61203
  31     11.80       35.3999        0.0600       73.1456       73.2057      37.805749       0.57718
  30     15.07       35.4285        0.0767       72.9584       73.0351      37.606546       0.51430
  29     18.79       35.4569        0.0954       72.7631       72.8586      37.401616       0.46464
  28     23.16       35.4857        0.1173       72.5537       72.6710      37.185341       0.41821
  27     28.12       35.5133        0.1422       72.3359       72.4781      36.964840       0.37484
  26     33.73       35.5367        0.1701       72.1220       72.2920      36.755353       0.31497
  25     40.54       35.5563        0.2037       71.8978       72.1016      36.545239       0.26067
  24     48.69       35.5716        0.2442       71.6619       71.9061      36.334509       0.21807
  23     57.69       35.5802        0.2886       71.4358       71.7245      36.144263       0.17833
  22     68.43       35.5817        0.3415       71.2019       71.5434      35.961774       0.14346
  21     81.20       35.5713        0.4045       70.9692       71.3738      35.802451       0.10528
  20     96.49       35.5478        0.4796       70.7337       71.2133      35.665507       0.07558
  19     114.6       35.5206        0.5693       70.4719       71.0412      35.520576       0.06767
  18     136.5       35.4832        0.6754       70.1745       70.8499      35.366683       0.05918
  17     162.9       35.4340        0.8016       69.8295       70.6311      35.197114       0.05420
  16     196.4       35.3602        0.9648       69.4038       70.3686      35.008399       0.04750
  15     218.7       35.3081        1.0718       69.1313       70.2031      34.895029       0.04304
  14     243.0       35.2499        1.1879       68.8371       70.0250      34.775149       0.04158
  13     269.0       35.1854        1.3135       68.5189       69.8324      34.646977       0.04158
  12     297.5       35.1147        1.4490       68.1734       69.6223      34.507623       0.04133
  11     328.5       35.0387        1.5950       67.7934       69.3885      34.349800       0.04291
  10     361.9       34.9579        1.7519       67.3735       69.1254      34.167550       0.04611
   9     398.1       34.8729        1.9202       66.9066       68.8268      33.953900       0.04978
   8     437.6       34.7856        2.1002       66.3805       68.4807      33.695097       0.05533
   7     480.5       34.6990        2.2920       65.7751       68.0671      33.368118       0.06422
   6     533.0       34.6044        2.5262       64.9731       67.4993      32.894973       0.07611
   5     589.8       34.5172        2.7755       64.0600       66.8356      32.318349       0.08559
   4     651.6       34.4441        3.0393       63.0296       66.0689      31.624786       0.09485
   3     718.7       34.3881        3.3177       61.9050       65.2227      30.834589       0.09931
   2     792.3       34.3538        3.6108       60.7115       64.3223      29.968512       0.09933
   1     891.5       34.3597        3.9974       59.1098       63.1072      28.747474       0.10390
   0    1013.0       34.4752        4.4467       57.1685       61.6152      27.140028       0.11161



 Wavenumbers: 16000. - 22650. cm-1, ATM      1
 LEVEL PRESSURE   UPWARD FLUX   DIFDOWN FLUX  DIRDOWN FLUX  DOWNWARD FLUX   NET FLUX    HEATING RATE
          mb          W/m2          W/m2          W/m2        W/m2          W/m2       degree/day
  51    .06700       85.4586        0.0000      117.8180      117.8180      32.359454       0.00000
  50    .07753       85.4585        0.0003      117.8175      117.8178      32.359333       0.09753
  49    .09103       85.4583        0.0008      117.8167      117.8175      32.359156       0.11062
  48    0.1069       85.4582        0.0012      117.8159      117.8171      32.358919       0.12614
  47    0.1255       85.4581        0.0018      117.8149      117.8167      32.358602       0.14379
  46    0.1487       85.4579        0.0025      117.8135      117.8160      32.358134       0.17038
  45    0.1794       85.4577        0.0035      117.8116      117.8151      32.357403       0.20061
  44    0.2165       85.4575        0.0046      117.8093      117.8139      32.356412       0.22546
  43    0.2613       85.4573        0.0060      117.8064      117.8124      32.355068       0.25347
  42    0.3336       85.4571        0.0082      117.8014      117.8096      32.352511       0.29808
  41    0.4307       85.4570        0.0112      117.7945      117.8057      32.348657       0.33507
  40    0.5894       85.4572        0.0160      117.7825      117.7985      32.341308       0.39083
  39     1.339       85.4642        0.0389      117.7122      117.7512      32.287017       0.61121
  38     1.782       85.4728        0.0524      117.6612      117.7136      32.240778       0.88033
  37     2.292       85.4871        0.0680      117.5930      117.6609      32.173860       1.10833
  36     2.964       85.5123        0.0884      117.4894      117.5778      32.065487       1.36041
  35     3.853       85.5549        0.1154      117.3332      117.4485      31.893610       1.63115
  34     5.035       85.6205        0.1511      117.1068      117.2579      31.637371       1.83046
  33     6.613       85.7129        0.1988      116.7957      116.9945      31.281645       1.90171
  32     8.786       85.8326        0.2630      116.3890      116.6520      30.819411       1.79515
  31     11.80       85.9861        0.3545      115.8490      116.2035      30.217421       1.68538
  30     15.07       86.1301        0.4525      115.3171      115.7696      29.639517       1.49204
  29     18.79       86.2742        0.5629      114.7597      115.3226      29.048446       1.34014
  28     23.16       86.4210        0.6914      114.1583      114.8497      28.428739       1.19831
  27     28.12       86.5637        0.8380      113.5275      114.3654      27.801695       1.06593
  26     33.73       86.6874        1.0015      112.9000      113.9015      27.214070       0.88351
  25     40.54       86.7952        1.1987      112.2312      113.4298      26.634628       0.71886
  24     48.69       86.8847        1.4356      111.5114      112.9470      26.062352       0.59222
  23     57.69       86.9439        1.6951      110.8037      112.4987      25.554762       0.47579
  22     68.43       86.9725        2.0031      110.0488      112.0519      25.079398       0.37370
  21     81.20       86.9490        2.3690      109.2670      111.6361      24.687091       0.25923
  20     96.49       86.8677        2.8036      108.4440      111.2476      24.379944       0.16952
  19     114.6       86.7445        3.3167      107.5270      110.8437      24.099181       0.13110
  18     136.5       86.5808        3.9207      106.4838      110.4045      23.823687       0.10593
  17     162.9       86.3703        4.6340      105.2848      109.9188      23.548502       0.08796
  16     196.4       86.0628        5.5504      103.8142      109.3646      23.301770       0.06211
  15     218.7       85.8488        6.1468      102.8826      109.0294      23.180560       0.04602
  14     243.0       85.6111        6.7902      101.8892      108.6793      23.068218       0.03896
  13     269.0       85.3485        7.4818      100.8330      108.3148      22.966348       0.03305
  12     297.5       85.0600        8.2228       99.7123      107.9351      22.875100       0.02706
  11     328.5       84.7474        9.0161       98.5167      107.5328      22.785403       0.02439
  10     361.9       84.4104        9.8616       97.2455      107.1071      22.696698       0.02244
   9     398.1       84.0480       10.7618       95.8940      106.6557      22.607691       0.02074
   8     437.6       83.6607       11.7173       94.4582      106.1755      22.514839       0.01985
   7     480.5       83.2485       12.7290       92.9343      105.6633      22.414758       0.01966
   6     533.0       82.7466       13.9567       91.0776      105.0342      22.287668       0.02044
   5     589.8       82.2137       15.2584       89.0969      104.3553      22.141598       0.02168
   4     651.6       81.6521       16.6329       86.9892      103.6222      21.970082       0.02346
   3     718.7       81.0616       18.0788       84.7580      102.8368      21.775195       0.02449
   2     792.3       80.4446       19.5914       82.4097      102.0011      21.556506       0.02508
   1     891.5       79.6408       21.5737       79.3032      100.8769      21.236141       0.02726
   0    1013.0       78.7231       23.8678       75.6590       99.5269      20.803766       0.03002



 Wavenumbers: 22650. - 29000. cm-1, ATM      1
 LEVEL PRESSURE   UPWARD FLUX   DIFDOWN FLUX  DIRDOWN FLUX  DOWNWARD FLUX   NET FLUX    HEATING RATE
          mb          W/m2          W/m2          W/m2        W/m2          W/m2       degree/day
  51    .06700       37.0204        0.0000       44.4602       44.4602       7.439832       0.00000
  50    .07753       37.0203        0.0004       44.4597       44.4601       7.439832      -0.00000
  49    .09103       37.0201        0.0009       44.4590       44.4599       7.439832      -0.00000
  48    0.1069       37.0198        0.0015       44.4582       44.4597       7.439832       0.00000
  47    0.1255       37.0196        0.0021       44.4573       44.4594       7.439832       0.00000
  46    0.1487       37.0192        0.0029       44.4561       44.4591       7.439832      -0.00000
  45    0.1794       37.0188        0.0041       44.4545       44.4586       7.439832      -0.00000
  44    0.2165       37.0182        0.0054       44.4527       44.4581       7.439832       0.00000
  43    0.2613       37.0176        0.0070       44.4505       44.4574       7.439832      -0.00000
  42    0.3336       37.0166        0.0096       44.4468       44.4564       7.439832       0.00000
  41    0.4307       37.0152        0.0131       44.4419       44.4550       7.439832       0.00000
  40    0.5894       37.0129        0.0187       44.4340       44.4527       7.439832       0.00000
  39     1.339       37.0022        0.0456       44.3964       44.4420       7.439832       0.00000
  38     1.782       36.9959        0.0613       44.3744       44.4357       7.439832      -0.00000
  37     2.292       36.9886        0.0795       44.3488       44.4284       7.439832       0.00000
  36     2.964       36.9790        0.1035       44.3153       44.4188       7.439832       0.00000
  35     3.853       36.9663        0.1350       44.2711       44.4062       7.439832       0.00000
  34     5.035       36.9495        0.1770       44.2124       44.3894       7.439832      -0.00000
  33     6.613       36.9271        0.2329       44.1340       44.3669       7.439832      -0.00000
  32     8.786       36.8969        0.3081       44.0286       44.3368       7.439832       0.00000
  31     11.80       36.8538        0.4155       43.8781       44.2936       7.439832       0.00000
  30     15.07       36.8076        0.5305       43.7170       44.2475       7.439832      -0.00000
  29     18.79       36.7556        0.6600       43.5355       44.1954       7.439832       0.00000
  28     23.16       36.6950        0.8106       43.3243       44.1348       7.439832       0.00000
  27     28.12       36.6259        0.9820       43.0838       44.0657       7.439832       0.00000
  26     33.73       36.5489        1.1728       42.8160       43.9888       7.439832       0.00000
  25     40.54       36.4564        1.4018       42.4944       43.8962       7.439832       0.00000
  24     48.69       36.3454        1.6757       42.1095       43.7853       7.439832      -0.00000
  23     57.69       36.2244        1.9738       41.6905       43.6643       7.439832       0.00000
  22     68.43       36.0815        2.3250       41.1963       43.5214       7.439832      -0.00000
  21     81.20       35.9129        2.7380       40.6148       43.3528       7.439832       0.00000
  20     96.49       35.7144        3.2223       39.9320       43.1543       7.439832       0.00000
  19     114.6       35.4822        3.7864       39.1356       42.9220       7.439832      -0.00000
  18     136.5       35.2116        4.4399       38.2115       42.6514       7.439832       0.00000
  17     162.9       34.8959        5.1971       37.1386       42.3357       7.439832       0.00000
  16     196.4       34.4968        6.1457       35.7910       41.9367       7.439832       0.00000
  15     218.7       34.2409        6.7490       34.9318       41.6808       7.439832       0.00000
  14     243.0       33.9681        7.3874       34.0206       41.4080       7.439832      -0.00000
  13     269.0       33.6786        8.0594       33.0590       41.1184       7.439832       0.00000
  12     297.5       33.3727        8.7632       32.0493       40.8125       7.439832      -0.00000
  11     328.5       33.0499        9.4983       30.9914       40.4897       7.439832       0.00000
  10     361.9       32.7111       10.2613       29.8897       40.1510       7.439832       0.00000
   9     398.1       32.3561       11.0509       28.7451       39.7960       7.439832       0.00000
   8     437.6       31.9858       11.8630       27.5627       39.4257       7.439832      -0.00000
   7     480.5       31.6006       12.6948       26.3456       39.0404       7.439832       0.00000
   6     533.0       31.1423       13.6655       24.9166       38.5822       7.439832       0.00000
   5     589.8       30.6665       14.6511       23.4552       38.1063       7.439832      -0.00000
   4     651.6       30.1750       15.6426       21.9722       37.6149       7.439832       0.00000
   3     718.7       29.6702       16.6305       20.4795       37.1100       7.439832      -0.00000
   2     792.3       29.1540       17.6063       18.9875       36.5939       7.439832       0.00000
   1     891.5       28.4944       18.7981       17.1361       35.9342       7.439832       0.00000
   0    1013.0       27.7528       20.0556       15.1370       35.1926       7.439832       0.00000



 Wavenumbers: 29000. - 38000. cm-1, ATM      1
 LEVEL PRESSURE   UPWARD FLUX   DIFDOWN FLUX  DIRDOWN FLUX  DOWNWARD FLUX   NET FLUX    HEATING RATE
          mb          W/m2          W/m2          W/m2        W/m2          W/m2       degree/day
  51    .06700        5.5496        0.0000       15.6785       15.6785      10.128881       0.00000
  50    .07753        5.5494        0.0003       15.6742       15.6745      10.125081       3.04616
  49    .09103        5.5492        0.0007       15.6681       15.6687      10.119556       3.45291
  48    0.1069        5.5489        0.0011       15.6599       15.6610      10.112169       3.93238
  47    0.1255        5.5485        0.0016       15.6492       15.6508      10.102303       4.47248
  46    0.1487        5.5481        0.0022       15.6337       15.6359      10.087818       5.28020
  45    0.1794        5.5476        0.0031       15.6098       15.6129      10.065319       6.17632
  44    0.2165        5.5469        0.0041       15.5780       15.5820      10.035109       6.87240
  43    0.2613        5.5462        0.0052       15.5357       15.5409       9.994691       7.61855
  42    0.3336        5.5450        0.0072       15.4576       15.4647       9.919688       8.74461
  41    0.4307        5.5436        0.0097       15.3450       15.3547       9.811092       9.44221
  40    0.5894        5.5413        0.0136       15.1459       15.1595       9.618158      10.25997
  39     1.339        5.5338        0.0304       14.1080       14.1383       8.604540      11.41150
  38     1.782        5.5311        0.0389       13.5691       13.6080       8.076885      10.04569
  37     2.292        5.5296        0.0481       13.0422       13.0903       7.560724       8.54898
  36     2.964        5.5296        0.0594       12.4702       12.5296       6.999969       7.03918
  35     3.853        5.5324        0.0734       11.8594       11.9328       6.400342       5.69057
  34     5.035        5.5391        0.0909       11.2395       11.3305       5.791401       4.35002
  33     6.613        5.5498        0.1132       10.6392       10.7524       5.202595       3.14776
  32     8.786        5.5643        0.1421       10.0712       10.2132       4.648969       2.15008
  31     11.80        5.5825        0.1819        9.5130        9.6949       4.112440       1.50211
  30     15.07        5.5990        0.2230        9.0826        9.3057       3.706708       1.04752
  29     18.79        5.6151        0.2681        8.7060        8.9741       3.358962       0.78845
  28     23.16        5.6311        0.3190        8.3552        8.6742       3.043032       0.61091
  27     28.12        5.6460        0.3754        8.0303        8.4057       2.759760       0.48154
  26     33.73        5.6565        0.4372        7.7391        8.1764       2.519809       0.36077
  25     40.54        5.6621        0.5104        7.4546        7.9650       2.302882       0.26912
  24     48.69        5.6620        0.5964        7.1705        7.7669       2.104863       0.20492
  23     57.69        5.6553        0.6886        6.9076        7.5961       1.940818       0.15377
  22     68.43        5.6401        0.7958        6.6405        7.4363       1.796125       0.11375
  21     81.20        5.6111        0.9209        6.3730        7.2939       1.682723       0.07493
  20     96.49        5.5668        1.0661        6.0985        7.1646       1.597827       0.04686
  19     114.6        5.5110        1.2315        5.8030        7.0345       1.523535       0.03469
  18     136.5        5.4447        1.4181        5.4800        6.8981       1.453397       0.02697
  17     162.9        5.3674        1.6268        5.1266        6.7534       1.386076       0.02152
  16     196.4        5.2664        1.8792        4.7153        6.5945       1.328101       0.01459
  15     218.7        5.2013        2.0344        4.4672        6.5016       1.300319       0.01055
  14     243.0        5.1327        2.1935        4.2143        6.4077       1.275028       0.00877
  13     269.0        5.0606        2.3558        3.9574        6.3132       1.252620       0.00727
  12     297.5        4.9852        2.5201        3.6983        6.2184       1.233141       0.00578
  11     328.5        4.9076        2.6847        3.4377        6.1223       1.214774       0.00499
  10     361.9        4.8281        2.8478        3.1778        6.0256       1.197561       0.00435
   9     398.1        4.7469        3.0087        2.9197        5.9284       1.181500       0.00374
   8     437.6        4.6644        3.1659        2.6647        5.8306       1.166256       0.00326
   7     480.5        4.5811        3.3173        2.4159        5.7332       1.152019       0.00280
   6     533.0        4.4852        3.4823        2.1396        5.6219       1.136764       0.00245
   5     589.8        4.3892        3.6359        1.8755        5.5115       1.122272       0.00215
   4     651.6        4.2939        3.7759        1.6264        5.4022       1.108361       0.00190
   3     718.7        4.1995        3.9006        1.3939        5.2945       1.094993       0.00168
   2     792.3        4.1065        4.0083        1.1804        5.1887       1.082158       0.00147
   1     891.5        3.9922        4.1178        0.9411        5.0589       1.066657       0.00132
   0    1013.0        3.8690        4.2045        0.7145        4.9190       1.049979       0.00116



 Wavenumbers: 38000. - 50000. cm-1, ATM      1
 LEVEL PRESSURE   UPWARD FLUX   DIFDOWN FLUX  DIRDOWN FLUX  DOWNWARD FLUX   NET FLUX    HEATING RATE
          mb          W/m2          W/m2          W/m2        W/m2          W/m2       degree/day
  51    .06700        0.0055        0.0000        0.9670        0.9670       0.961557       0.00000
  50    .07753        0.0054        0.0001        0.9646        0.9646       0.959223       1.87018
  49    .09103        0.0053        0.0002        0.9611        0.9612       0.955897       2.07920
  48    0.1069        0.0053        0.0002        0.9565        0.9568       0.951530       2.32416
  47    0.1255        0.0052        0.0004        0.9506        0.9510       0.945800       2.59773
  46    0.1487        0.0051        0.0005        0.9421        0.9426       0.937529       3.01499
  45    0.1794        0.0049        0.0007        0.9291        0.9298       0.924888       3.47021
  44    0.2165        0.0047        0.0009        0.9121        0.9129       0.908213       3.79334
  43    0.2613        0.0045        0.0011        0.8897        0.8909       0.886340       4.12290
  42    0.3336        0.0042        0.0015        0.8495        0.8510       0.846821       4.60761
  41    0.4307        0.0038        0.0019        0.7936        0.7955       0.791657       4.79631
  40    0.5894        0.0033        0.0025        0.7000        0.7025       0.699232       4.91507
  39     1.339        0.0017        0.0032        0.3266        0.3298       0.328051       4.17882
  38     1.782        0.0012        0.0028        0.2066        0.2094       0.208165       2.28244
  37     2.292        0.0009        0.0024        0.1299        0.1323       0.131391       1.27158
  36     2.964        0.0006        0.0019        0.0776        0.0795       0.078945       0.65836
  35     3.853        0.0004        0.0015        0.0436        0.0451       0.044708       0.32491
  34     5.035        0.0002        0.0011        0.0236        0.0247       0.024454       0.14469
  33     6.613        0.0001        0.0008        0.0121        0.0129       0.012725       0.06270
  32     8.786        0.0001        0.0005        0.0055        0.0060       0.005939       0.02635
  31     11.80        0.0000        0.0003        0.0020        0.0023       0.002306       0.01017
  30     15.07        0.0000        0.0002        0.0008        0.0010       0.000954       0.00349
  29     18.79        0.0000        0.0001        0.0003        0.0004       0.000393       0.00127
  28     23.16        0.0000        0.0001        0.0001        0.0002       0.000156       0.00046
  27     28.12        0.0000        0.0000        0.0000        0.0001       0.000061       0.00016
  26     33.73        0.0000        0.0000        0.0000        0.0000       0.000024       0.00005
  25     40.54        0.0000        0.0000        0.0000        0.0000       0.000009       0.00002
  24     48.69        0.0000        0.0000        0.0000        0.0000       0.000003       0.00001
  23     57.69        0.0000        0.0000        0.0000        0.0000       0.000001       0.00000
  22     68.43        0.0000        0.0000        0.0000        0.0000       0.000000       0.00000
  21     81.20        0.0000        0.0000        0.0000        0.0000       0.000000       0.00000
  20     96.49        0.0000        0.0000        0.0000        0.0000       0.000000       0.00000
  19     114.6        0.0000        0.0000        0.0000        0.0000       0.000000       0.00000
  18     136.5        0.0000        0.0000        0.0000        0.0000       0.000000       0.00000
  17     162.9        0.0000        0.0000        0.0000        0.0000       0.000000       0.00000
  16     196.4        0.0000        0.0000        0.0000        0.0000       0.000000       0.00000
  15     218.7        0.0000        0.0000        0.0000        0.0000       0.000000       0.00000
  14     243.0        0.0000        0.0000        0.0000        0.0000       0.000000       0.00000
  13     269.0        0.0000        0.0000        0.0000        0.0000       0.000000       0.00000
  12     297.5        0.0000        0.0000        0.0000        0.0000       0.000000       0.00000
  11     328.5        0.0000        0.0000        0.0000        0.0000       0.000000       0.00000
  10     361.9        0.0000        0.0000        0.0000        0.0000       0.000000       0.00000
   9     398.1        0.0000        0.0000        0.0000        0.0000       0.000000       0.00000
   8     437.6        0.0000        0.0000        0.0000        0.0000       0.000000       0.00000
   7     480.5        0.0000        0.0000        0.0000        0.0000       0.000000       0.00000
   6     533.0        0.0000        0.0000        0.0000        0.0000       0.000000       0.00000
   5     589.8        0.0000        0.0000        0.0000        0.0000       0.000000       0.00000
   4     651.6        0.0000        0.0000        0.0000        0.0000       0.000000       0.00000
   3     718.7        0.0000        0.0000        0.0000        0.0000       0.000000       0.00000
   2     792.3        0.0000        0.0000        0.0000        0.0000       0.000000       0.00000
   1     891.5        0.0000        0.0000        0.0000        0.0000       0.000000       0.00000
   0    1013.0        0.0000        0.0000        0.0000        0.0000       0.000000       0.00000



 Wavenumbers:   820. -  2600. cm-1, ATM      1
 LEVEL PRESSURE   UPWARD FLUX   DIFDOWN FLUX  DIRDOWN FLUX  DOWNWARD FLUX   NET FLUX    HEATING RATE
          mb          W/m2          W/m2          W/m2        W/m2          W/m2       degree/day
  51    .06700        0.2128        0.0000        4.5237        4.5237       4.310875       0.00000
  50    .07753        0.2128        0.0000        4.5206        4.5206       4.307806       2.45992
  49    .09103        0.2128        0.0000        4.5198        4.5198       4.306978       0.51800
  48    0.1069        0.2128        0.0000        4.5189        4.5189       4.306053       0.49190
  47    0.1255        0.2128        0.0000        4.5179        4.5179       4.305039       0.45982
  46    0.1487        0.2128        0.0000        4.5167        4.5167       4.303845       0.43516
  45    0.1794        0.2128        0.0000        4.5152        4.5152       4.302384       0.40114
  44    0.2165        0.2128        0.0000        4.5137        4.5137       4.300862       0.34628
  43    0.2613        0.2128        0.0000        4.5121        4.5121       4.299259       0.30220
  42    0.3336        0.2128        0.0000        4.5097        4.5097       4.296862       0.27942
  41    0.4307        0.2128        0.0000        4.5066        4.5066       4.293836       0.26313
  40    0.5894        0.2128        0.0000        4.5017        4.5017       4.288900       0.26248
  39     1.339        0.2128        0.0000        4.4792        4.4792       4.266338       0.25401
  38     1.782        0.2128        0.0000        4.4667        4.4667       4.253845       0.23784
  37     2.292        0.2128        0.0000        4.4528        4.4528       4.239946       0.23021
  36     2.964        0.2128        0.0000        4.4354        4.4354       4.222612       0.21759
  35     3.853        0.2128        0.0000        4.4139        4.4139       4.201103       0.20412
  34     5.035        0.2128        0.0000        4.3873        4.3873       4.174465       0.19029
  33     6.613        0.2128        0.0000        4.3541        4.3541       4.141274       0.17744
  32     8.786        0.2128        0.0000        4.3135        4.3135       4.100687       0.15762
  31     11.80        0.2128        0.0000        4.2662        4.2662       4.053427       0.13231
  30     15.07        0.2128        0.0000        4.2294        4.2294       4.016571       0.09515
  29     18.79        0.2128        0.0000        4.2004        4.2004       3.987556       0.06579
  28     23.16        0.2128        0.0000        4.1758        4.1758       3.963010       0.04746
  27     28.12        0.2128        0.0000        4.1527        4.1527       3.939878       0.03932
  26     33.73        0.2128        0.0000        4.1288        4.1288       3.915935       0.03600
  25     40.54        0.2128        0.0000        4.1009        4.1009       3.888092       0.03454
  24     48.69        0.2128        0.0000        4.0684        4.0684       3.855555       0.03367
  23     57.69        0.2128        0.0000        4.0340        4.0340       3.821148       0.03225
  22     68.43        0.2129        0.0000        3.9952        3.9952       3.782316       0.03053
  21     81.20        0.2129        0.0000        3.9518        3.9518       3.738985       0.02863
  20     96.49        0.2129        0.0000        3.9036        3.9036       3.690776       0.02661
  19     114.6        0.2129        0.0000        3.8493        3.8493       3.636406       0.02539
  18     136.5        0.2129        0.0000        3.7851        3.7851       3.572248       0.02467
  17     162.9        0.2129        0.0000        3.6985        3.6985       3.485578       0.02770
  16     196.4        0.2130        0.0000        3.5697        3.5697       3.356713       0.03244
  15     218.7        0.2130        0.0000        3.4888        3.4888       3.275775       0.03073
  14     243.0        0.2131        0.0000        3.3913        3.3913       3.178216       0.03384
  13     269.0        0.2132        0.0000        3.2579        3.2579       3.044672       0.04332
  12     297.5        0.2134        0.0000        3.0755        3.0755       2.862100       0.05415
  11     328.5        0.2137        0.0000        2.8385        2.8385       2.624802       0.06452
  10     361.9        0.2142        0.0000        2.5917        2.5917       2.377481       0.06257
   9     398.1        0.2150        0.0000        2.3963        2.3964       2.181415       0.04568
   8     437.6        0.2160        0.0000        2.2566        2.2566       2.040618       0.03010
   7     480.5        0.2175        0.0000        2.1328        2.1328       1.915322       0.02461
   6     533.0        0.2200        0.0000        1.9829        1.9829       1.762946       0.02451
   5     589.8        0.2236        0.0000        1.8292        1.8292       1.605600       0.02336
   4     651.6        0.2290        0.0000        1.6806        1.6807       1.451700       0.02105
   3     718.7        0.2361        0.0000        1.5493        1.5494       1.313256       0.01740
   2     792.3        0.2449        0.0000        1.4335        1.4335       1.188642       0.01429
   1     891.5        0.2597        0.0000        1.2897        1.2898       1.030061       0.01349
   0    1013.0        0.2869        0.0000        1.1037        1.1038       0.816913       0.01480

  Modules and versions used in this calculation:

       rrtmg_sw.1col.f90:  $Revision$                    rrtmg_sw_init.f90:  $Revision$        
     rrtmgsw_cldprop.f90:  $Revision$                  rrtmgsw_cldprmc.f90:  NOT USED          
     rrtmg_sw_reftra.f90:  $Revision$                  rrtmg_sw_spcvrt.f90:  NOT USED          
     rrtmg_sw_spcvmc.f90:  NOT USED                    rrtmgsw_setcoef.f90:  NOT USED          
     rrtmg_sw_taumol.f90:  $Revision$                  rrtmg_sw_vrtqdr.f90:  NOT USED          
                rrtatm.f:  NOT USED                             util_xxx.f:  NOT USED          
                 extra.f:  NOT USED                       rrtmg_sw_k_g.f90:  $Revision$        

