

 Wavenumbers:   820. - 50000. cm-1, ATM      1
 LEVEL PRESSURE   UPWARD FLUX   DIFDOWN FLUX  DIRDOWN FLUX  DOWNWARD FLUX   NET FLUX    HEATING RATE
          mb          W/m2          W/m2          W/m2        W/m2          W/m2       degree/day
  51    .06700      391.5403        0.0000     1042.4709     1042.4709     650.930597       0.00000
  50    .07753      391.5401        0.0015     1042.4506     1042.4520     650.911927      14.96426
  49    .09103      391.5399        0.0033     1042.4321     1042.4354     650.895584      10.21473
  48    0.1069      391.5396        0.0055     1042.4112     1042.4166     650.877026       9.87838
  47    0.1255      391.5394        0.0079     1042.3860     1042.3939     650.854526      10.20057
  46    0.1487      391.5392        0.0110     1042.3518     1042.3627     650.823577      11.28127
  45    0.1794      391.5390        0.0152     1042.3014     1042.3165     650.777559      12.63302
  44    0.2165      391.5389        0.0202     1042.2365     1042.2567     650.717768      13.60134
  43    0.2613      391.5390        0.0260     1042.1528     1042.1788     650.639757      14.70478
  42    0.3336      391.5396        0.0357     1042.0014     1042.0372     650.497540      16.58105
  41    0.4307      391.5409        0.0485     1041.7852     1041.8337     650.292728      17.80799
  40    0.5894      391.5443        0.0691     1041.3994     1041.4686     649.924219      19.59683
  39     1.339      391.5832        0.1634     1039.1793     1039.3426     647.759392      24.37202
  38     1.782      391.6221        0.2165     1037.8275     1038.0440     646.421897      25.46374
  37     2.292      391.6818        0.2769     1036.3864     1036.6633     644.981508      23.85660
  36     2.964      391.7824        0.3554     1034.7713     1035.1267     643.344240      20.55267
  35     3.853      391.9465        0.4584     1033.0527     1033.5110     641.564572      16.88937
  34     5.035      392.1950        0.5945     1031.2555     1031.8500     639.654945      13.64159
  33     6.613      392.5435        0.7757     1029.3716     1030.1473     637.603815      10.96534
  32     8.786      392.9987        1.0190     1027.3871     1028.4061     635.407412       8.53004
  31     11.80      393.5939        1.3657     1025.1506     1026.5164     632.922415       6.95721
  30     15.07      394.1680        1.7368     1023.1776     1024.9144     630.746390       5.61807
  29     18.79      394.7585        2.1547     1021.2523     1023.4070     628.648491       4.75658
  28     23.16      395.3815        2.6413     1019.2777     1021.9190     626.537496       4.08198
  27     28.12      396.0156        3.1964     1017.2777     1020.4741     624.458551       3.53407
  26     33.73      396.6089        3.8169     1015.3173     1019.1342     622.525328       2.90665
  25     40.54      397.1892        4.5656     1013.2288     1017.7943     620.605152       2.38219
  24     48.69      397.7558        5.4665     1010.9686     1016.4351     618.679264       1.99299
  23     57.69      398.2479        6.4542     1008.7183     1015.1725     616.924543       1.64479
  22     68.43      398.6910        7.6281     1006.2730     1013.9010     615.210017       1.34785
  21     81.20      399.0174        9.0250     1003.6464     1012.6714     613.653971       1.02821
  20     96.49      399.2162       10.6859     1000.7732     1011.4591     612.242884       0.77882
  19     114.6      399.3648       12.6476      997.4867     1010.1343     610.769475       0.68798
  18     136.5      399.4722       14.9546      993.6817     1008.6362     609.164031       0.61733
  17     162.9      399.5379       17.6841      989.1215     1006.8056     607.267642       0.60616
  16     196.4      399.4817       21.1765      983.0074     1004.1839     604.702246       0.64574
  15     218.7      399.3925       23.4475      978.7540     1002.2015     602.809020       0.71879
  14     243.0      399.2710       25.8944      973.5710      999.4655     600.194526       0.90679
  13     269.0      399.1148       28.5213      966.5965      995.1178     596.003014       1.35971
  12     297.5      398.9237       31.3312      957.9813      989.3126     590.388877       1.66509
  11     328.5      398.7100       34.3338      948.0321      982.3660     583.655928       1.83067
  10     361.9      398.4771       37.5280      936.8427      974.3707     575.893564       1.96396
   9     398.1      398.2292       40.9218      924.3522      965.2739     567.044691       2.06159
   8     437.6      397.9785       44.5159      910.4199      954.9358     556.957313       2.15674
   7     480.5      397.7453       48.3114      894.8672      943.1785     545.433244       2.26328
   6     533.0      397.5245       52.9044      875.9841      928.8885     531.364004       2.26329
   5     589.8      397.3868       57.7615      856.3640      914.1255     516.738665       2.17088
   4     651.6      397.3947       62.8752      836.0783      898.9534     501.558692       2.07590
   3     718.7      397.5878       68.2426      815.9749      884.2175     486.629704       1.87616
   2     792.3      398.0158       73.8456      796.4316      870.2772     472.261392       1.64788
   1     891.5      399.1169       81.1771      771.9005      853.0776     453.960683       1.55730
   0    1013.0      401.9904       89.6403      743.3067      832.9471     430.956736       1.59728



 Wavenumbers:  2600. -  3250. cm-1, ATM      1
 LEVEL PRESSURE   UPWARD FLUX   DIFDOWN FLUX  DIRDOWN FLUX  DOWNWARD FLUX   NET FLUX    HEATING RATE
          mb          W/m2          W/m2          W/m2        W/m2          W/m2       degree/day
  51    .06700        0.4726        0.0000        9.1877        9.1877       8.715121       0.00000
  50    .07753        0.4726        0.0000        9.1877        9.1877       8.715113       0.00640
  49    .09103        0.4726        0.0000        9.1877        9.1877       8.715103       0.00627
  48    0.1069        0.4726        0.0000        9.1877        9.1877       8.715091       0.00613
  47    0.1255        0.4726        0.0000        9.1877        9.1877       8.715078       0.00600
  46    0.1487        0.4726        0.0000        9.1877        9.1877       8.715062       0.00608
  45    0.1794        0.4726        0.0000        9.1876        9.1876       8.715039       0.00625
  44    0.2165        0.4726        0.0000        9.1876        9.1876       8.715012       0.00613
  43    0.2613        0.4726        0.0000        9.1876        9.1876       8.714980       0.00601
  42    0.3336        0.4726        0.0000        9.1875        9.1875       8.714927       0.00618
  41    0.4307        0.4726        0.0000        9.1875        9.1875       8.714855       0.00622
  40    0.5894        0.4726        0.0000        9.1873        9.1873       8.714735       0.00639
  39     1.339        0.4726        0.0000        9.1866        9.1866       8.714021       0.00804
  38     1.782        0.4726        0.0000        9.1861        9.1861       8.713469       0.01051
  37     2.292        0.4726        0.0000        9.1853        9.1853       8.712735       0.01216
  36     2.964        0.4726        0.0000        9.1843        9.1843       8.711659       0.01351
  35     3.853        0.4726        0.0000        9.1827        9.1827       8.710102       0.01477
  34     5.035        0.4726        0.0000        9.1805        9.1805       8.707887       0.01582
  33     6.613        0.4726        0.0000        9.1774        9.1774       8.704787       0.01657
  32     8.786        0.4726        0.0000        9.1731        9.1731       8.700540       0.01649
  31     11.80        0.4726        0.0000        9.1672        9.1672       8.694569       0.01672
  30     15.07        0.4726        0.0000        9.1611        9.1611       8.688476       0.01573
  29     18.79        0.4726        0.0000        9.1547        9.1547       8.682134       0.01438
  28     23.16        0.4726        0.0000        9.1480        9.1480       8.675436       0.01295
  27     28.12        0.4726        0.0000        9.1411        9.1411       8.668528       0.01174
  26     33.73        0.4726        0.0000        9.1337        9.1337       8.661140       0.01111
  25     40.54        0.4726        0.0000        9.1248        9.1248       8.652189       0.01111
  24     48.69        0.4726        0.0000        9.1136        9.1136       8.641046       0.01153
  23     57.69        0.4726        0.0000        9.1006        9.1006       8.627991       0.01224
  22     68.43        0.4726        0.0000        9.0838        9.0838       8.611181       0.01321
  21     81.20        0.4726        0.0000        9.0621        9.0622       8.589532       0.01431
  20     96.49        0.4726        0.0000        9.0346        9.0347       8.562038       0.01517
  19     114.6        0.4727        0.0000        8.9993        8.9993       8.526660       0.01652
  18     136.5        0.4727        0.0001        8.9562        8.9563       8.483567       0.01657
  17     162.9        0.4728        0.0001        8.9039        8.9040       8.431196       0.01674
  16     196.4        0.4729        0.0001        8.8348        8.8349       8.362011       0.01741
  15     218.7        0.4730        0.0001        8.7873        8.7873       8.314354       0.01809
  14     243.0        0.4732        0.0001        8.7301        8.7302       8.257003       0.01989
  13     269.0        0.4735        0.0001        8.6547        8.6548       8.181329       0.02455
  12     297.5        0.4740        0.0001        8.5613        8.5614       8.087422       0.02785
  11     328.5        0.4747        0.0001        8.4479        8.4480       7.973310       0.03103
  10     361.9        0.4758        0.0001        8.3109        8.3110       7.835231       0.03494
   9     398.1        0.4773        0.0001        8.1413        8.1414       7.664099       0.03987
   8     437.6        0.4795        0.0001        7.9234        7.9236       7.444057       0.04705
   7     480.5        0.4828        0.0002        7.6332        7.6334       7.150526       0.05765
   6     533.0        0.4884        0.0002        7.2354        7.2356       6.747149       0.06489
   5     589.8        0.4965        0.0002        6.8026        6.8028       6.306231       0.06545
   4     651.6        0.5085        0.0002        6.3576        6.3577       5.849259       0.06249
   3     718.7        0.5253        0.0002        5.9291        5.9293       5.404026       0.05595
   2     792.3        0.5481        0.0002        5.5242        5.5243       4.976242       0.04906
   1     891.5        0.5905        0.0002        5.0254        5.0256       4.435054       0.04605
   0    1013.0        0.6816        0.0002        4.4514        4.4516       3.770051       0.04617



 Wavenumbers:  3250. -  4000. cm-1, ATM      1
 LEVEL PRESSURE   UPWARD FLUX   DIFDOWN FLUX  DIRDOWN FLUX  DOWNWARD FLUX   NET FLUX    HEATING RATE
          mb          W/m2          W/m2          W/m2        W/m2          W/m2       degree/day
  51    .06700        0.0011        0.0000       15.4892       15.4892      15.488034       0.00000
  50    .07753        0.0011        0.0000       15.4837       15.4837      15.482621       4.33808
  49    .09103        0.0011        0.0000       15.4791       15.4791      15.478019       2.87674
  48    0.1069        0.0011        0.0000       15.4755       15.4755      15.474344       1.95607
  47    0.1255        0.0011        0.0000       15.4723       15.4723      15.471179       1.43480
  46    0.1487        0.0011        0.0000       15.4691       15.4691      15.467935       1.18257
  45    0.1794        0.0011        0.0000       15.4653       15.4653      15.464165       1.03486
  44    0.2165        0.0011        0.0000       15.4614       15.4614      15.460243       0.89222
  43    0.2613        0.0011        0.0000       15.4572       15.4572      15.456120       0.77713
  42    0.3336        0.0011        0.0000       15.4514       15.4514      15.450245       0.68499
  41    0.4307        0.0011        0.0000       15.4448       15.4448      15.443727       0.56669
  40    0.5894        0.0011        0.0000       15.4359       15.4359      15.434806       0.47445
  39     1.339        0.0011        0.0000       15.4029       15.4029      15.401823       0.37133
  38     1.782        0.0011        0.0000       15.3873       15.3873      15.386195       0.29752
  37     2.292        0.0011        0.0000       15.3718       15.3718      15.370655       0.25738
  36     2.964        0.0011        0.0000       15.3541       15.3541      15.352994       0.22170
  35     3.853        0.0011        0.0000       15.3336       15.3336      15.332473       0.19475
  34     5.035        0.0011        0.0000       15.3089       15.3089      15.307830       0.17604
  33     6.613        0.0011        0.0000       15.2779       15.2779      15.276789       0.16594
  32     8.786        0.0011        0.0000       15.2362       15.2362      15.235066       0.16204
  31     11.80        0.0011        0.0000       15.1744       15.1744      15.173330       0.17284
  30     15.07        0.0011        0.0000       15.1053       15.1053      15.104198       0.17849
  29     18.79        0.0011        0.0000       15.0244       15.0244      15.023320       0.18337
  28     23.16        0.0011        0.0000       14.9278       14.9278      14.926746       0.18674
  27     28.12        0.0011        0.0000       14.8170       14.8170      14.815930       0.18838
  26     33.73        0.0011        0.0000       14.6958       14.6959      14.694819       0.18209
  25     40.54        0.0011        0.0001       14.5572       14.5573      14.556228       0.17194
  24     48.69        0.0011        0.0001       14.4046       14.4046      14.403585       0.15796
  23     57.69        0.0010        0.0001       14.2541       14.2541      14.253094       0.14106
  22     68.43        0.0010        0.0001       14.0926       14.0927      14.091662       0.12691
  21     81.20        0.0010        0.0001       13.9139       13.9141      13.913039       0.11803
  20     96.49        0.0010        0.0001       13.7096       13.7097      13.708707       0.11278
  19     114.6        0.0010        0.0001       13.4594       13.4596      13.458616       0.11677
  18     136.5        0.0009        0.0002       13.1619       13.1621      13.161162       0.11438
  17     162.9        0.0009        0.0002       12.7743       12.7745      12.773611       0.12388
  16     196.4        0.0009        0.0002       12.1563       12.1565      12.155633       0.15555
  15     218.7        0.0009        0.0002       11.6889       11.6892      11.688298       0.17743
  14     243.0        0.0008        0.0002       11.0707       11.0709      11.070062       0.21442
  13     269.0        0.0008        0.0002       10.1988       10.1991      10.198274       0.28280
  12     297.5        0.0008        0.0002        9.1879        9.1881       9.187335       0.29983
  11     328.5        0.0008        0.0002        8.1065        8.1068       8.105982       0.29402
  10     361.9        0.0008        0.0002        6.9973        6.9975       6.996777       0.28064
   9     398.1        0.0008        0.0002        5.9801        5.9803       5.979559       0.23699
   8     437.6        0.0008        0.0002        5.0582        5.0584       5.057605       0.19712
   7     480.5        0.0008        0.0002        4.1934        4.1936       4.192780       0.16985
   6     533.0        0.0009        0.0001        3.3154        3.3155       3.314643       0.14126
   5     589.8        0.0010        0.0001        2.5502        2.5503       2.549262       0.11361
   4     651.6        0.0013        0.0001        1.8628        1.8629       1.861615       0.09404
   3     718.7        0.0019        0.0001        1.3022        1.3023       1.300452       0.07052
   2     792.3        0.0030        0.0000        0.8832        0.8832       0.880205       0.04820
   1     891.5        0.0070        0.0000        0.4945        0.4946       0.487566       0.03341
   0    1013.0        0.0295        0.0000        0.1924        0.1924       0.162955       0.02254



 Wavenumbers:  4000. -  4650. cm-1, ATM      1
 LEVEL PRESSURE   UPWARD FLUX   DIFDOWN FLUX  DIRDOWN FLUX  DOWNWARD FLUX   NET FLUX    HEATING RATE
          mb          W/m2          W/m2          W/m2        W/m2          W/m2       degree/day
  51    .06700        1.7484        0.0000       18.1889       18.1889      16.440561       0.00000
  50    .07753        1.7484        0.0000       18.1889       18.1889      16.440560       0.00079
  49    .09103        1.7484        0.0000       18.1889       18.1889      16.440559       0.00078
  48    0.1069        1.7484        0.0000       18.1889       18.1889      16.440558       0.00076
  47    0.1255        1.7484        0.0000       18.1889       18.1889      16.440556       0.00074
  46    0.1487        1.7484        0.0000       18.1889       18.1889      16.440554       0.00075
  45    0.1794        1.7484        0.0000       18.1889       18.1889      16.440551       0.00077
  44    0.2165        1.7484        0.0000       18.1889       18.1889      16.440548       0.00076
  43    0.2613        1.7484        0.0000       18.1889       18.1889      16.440544       0.00074
  42    0.3336        1.7484        0.0000       18.1889       18.1889      16.440537       0.00076
  41    0.4307        1.7484        0.0000       18.1889       18.1889      16.440528       0.00077
  40    0.5894        1.7484        0.0000       18.1889       18.1889      16.440514       0.00079
  39     1.339        1.7484        0.0000       18.1888       18.1888      16.440425       0.00100
  38     1.782        1.7484        0.0000       18.1887       18.1887      16.440355       0.00132
  37     2.292        1.7484        0.0000       18.1886       18.1886      16.440262       0.00155
  36     2.964        1.7484        0.0000       18.1885       18.1885      16.440122       0.00175
  35     3.853        1.7484        0.0000       18.1883       18.1883      16.439915       0.00196
  34     5.035        1.7484        0.0000       18.1880       18.1880      16.439610       0.00218
  33     6.613        1.7484        0.0000       18.1875       18.1875      16.439160       0.00241
  32     8.786        1.7484        0.0000       18.1868       18.1869      16.438495       0.00258
  31     11.80        1.7483        0.0000       18.1857       18.1858      16.437449       0.00293
  30     15.07        1.7483        0.0001       18.1845       18.1846      16.436220       0.00317
  29     18.79        1.7483        0.0001       18.1830       18.1831      16.434731       0.00338
  28     23.16        1.7483        0.0001       18.1811       18.1812      16.432878       0.00358
  27     28.12        1.7483        0.0001       18.1788       18.1789      16.430630       0.00382
  26     33.73        1.7483        0.0001       18.1760       18.1761      16.427850       0.00418
  25     40.54        1.7483        0.0002       18.1722       18.1723      16.424067       0.00469
  24     48.69        1.7483        0.0002       18.1671       18.1673      16.419005       0.00524
  23     57.69        1.7483        0.0002       18.1610       18.1612      16.412977       0.00565
  22     68.43        1.7483        0.0003       18.1534       18.1537      16.405393       0.00596
  21     81.20        1.7483        0.0003       18.1440       18.1443      16.396005       0.00620
  20     96.49        1.7483        0.0004       18.1324       18.1328      16.384534       0.00633
  19     114.6        1.7483        0.0004       18.1179       18.1183      16.369993       0.00679
  18     136.5        1.7484        0.0005       18.1001       18.1007      16.352265       0.00682
  17     162.9        1.7485        0.0006       18.0779       18.0785      16.329993       0.00712
  16     196.4        1.7488        0.0008       18.0462       18.0470      16.298146       0.00802
  15     218.7        1.7491        0.0008       18.0222       18.0230      16.273926       0.00920
  14     243.0        1.7495        0.0009       17.9902       17.9911      16.241601       0.01121
  13     269.0        1.7502        0.0010       17.9421       17.9432      16.192973       0.01577
  12     297.5        1.7512        0.0011       17.8762       17.8774      16.126119       0.01983
  11     328.5        1.7528        0.0013       17.7870       17.7882      16.035478       0.02465
  10     361.9        1.7548        0.0014       17.6627       17.6640      15.909223       0.03194
   9     398.1        1.7575        0.0015       17.4918       17.4933      15.735807       0.04040
   8     437.6        1.7611        0.0016       17.2668       17.2684      15.507338       0.04885
   7     480.5        1.7660        0.0017       16.9854       16.9871      15.221111       0.05621
   6     533.0        1.7741        0.0019       16.6327       16.6346      14.860507       0.05801
   5     589.8        1.7859        0.0020       16.2581       16.2601      14.474226       0.05734
   4     651.6        1.8033        0.0022       15.8223       15.8245      14.021192       0.06195
   3     718.7        1.8276        0.0023       15.3202       15.3225      13.494944       0.06613
   2     792.3        1.8598        0.0025       14.7872       14.7897      12.929878       0.06481
   1     891.5        1.9181        0.0027       14.1044       14.1071      12.188919       0.06305
   0    1013.0        2.0404        0.0029       13.3223       13.3251      11.284759       0.06278



 Wavenumbers:  4650. -  5150. cm-1, ATM      1
 LEVEL PRESSURE   UPWARD FLUX   DIFDOWN FLUX  DIRDOWN FLUX  DOWNWARD FLUX   NET FLUX    HEATING RATE
          mb          W/m2          W/m2          W/m2        W/m2          W/m2       degree/day
  51    .06700        1.2371        0.0000       17.2167       17.2167      15.979548       0.00000
  50    .07753        1.2371        0.0000       17.2165       17.2165      15.979312       0.18929
  49    .09103        1.2371        0.0000       17.2162       17.2162      15.979016       0.18494
  48    0.1069        1.2371        0.0000       17.2158       17.2158      15.978677       0.18040
  47    0.1255        1.2371        0.0000       17.2154       17.2154      15.978289       0.17582
  46    0.1487        1.2371        0.0000       17.2149       17.2149      15.977802       0.17752
  45    0.1794        1.2371        0.0000       17.2143       17.2143      15.977141       0.18151
  44    0.2165        1.2371        0.0000       17.2135       17.2135      15.976365       0.17664
  43    0.2613        1.2371        0.0000       17.2126       17.2126      15.975454       0.17173
  42    0.3336        1.2371        0.0000       17.2111       17.2111      15.973966       0.17342
  41    0.4307        1.2371        0.0000       17.2092       17.2092      15.972030       0.16832
  40    0.5894        1.2371        0.0000       17.2061       17.2061      15.968956       0.16350
  39     1.339        1.2371        0.0000       17.1929       17.1929      15.955731       0.14888
  38     1.782        1.2371        0.0000       17.1860       17.1860      15.948883       0.13037
  37     2.292        1.2371        0.0000       17.1788       17.1789      15.941719       0.11866
  36     2.964        1.2371        0.0000       17.1705       17.1705      15.933384       0.10462
  35     3.853        1.2371        0.0000       17.1611       17.1611      15.923947       0.08957
  34     5.035        1.2371        0.0000       17.1507       17.1507      15.913582       0.07404
  33     6.613        1.2371        0.0000       17.1396       17.1397      15.902570       0.05887
  32     8.786        1.2371        0.0001       17.1281       17.1281      15.891012       0.04489
  31     11.80        1.2371        0.0001       17.1150       17.1151      15.877956       0.03655
  30     15.07        1.2371        0.0001       17.1028       17.1028      15.865756       0.03150
  29     18.79        1.2371        0.0001       17.0893       17.0894      15.852323       0.03046
  28     23.16        1.2371        0.0001       17.0729       17.0730      15.835958       0.03165
  27     28.12        1.2371        0.0002       17.0527       17.0529      15.815780       0.03430
  26     33.73        1.2371        0.0002       17.0281       17.0283      15.791251       0.03688
  25     40.54        1.2371        0.0002       16.9959       16.9961      15.759048       0.03995
  24     48.69        1.2371        0.0003       16.9540       16.9543      15.717159       0.04335
  23     57.69        1.2371        0.0003       16.9049       16.9052      15.668110       0.04598
  22     68.43        1.2372        0.0004       16.8435       16.8439      15.606745       0.04824
  21     81.20        1.2373        0.0005       16.7680       16.7685      15.531223       0.04990
  20     96.49        1.2374        0.0006       16.6768       16.6774      15.440022       0.05034
  19     114.6        1.2376        0.0007       16.5699       16.5706      15.332997       0.04997
  18     136.5        1.2378        0.0008       16.4477       16.4485      15.210702       0.04703
  17     162.9        1.2382        0.0009       16.3110       16.3120      15.073765       0.04377
  16     196.4        1.2388        0.0011       16.1485       16.1495      14.910731       0.04104
  15     218.7        1.2393        0.0012       16.0490       16.0502      14.810862       0.03792
  14     243.0        1.2400        0.0013       15.9442       15.9455      14.705481       0.03655
  13     269.0        1.2410        0.0015       15.8284       15.8299      14.588845       0.03784
  12     297.5        1.2425        0.0016       15.6965       15.6981      14.455632       0.03951
  11     328.5        1.2445        0.0018       15.5435       15.5452      14.300754       0.04211
  10     361.9        1.2472        0.0019       15.3628       15.3647      14.117463       0.04637
   9     398.1        1.2509        0.0021       15.1469       15.1489      13.898038       0.05112
   8     437.6        1.2559        0.0022       14.8861       14.8883      13.632452       0.05678
   7     480.5        1.2627        0.0024       14.5649       14.5673      13.304601       0.06439
   6     533.0        1.2735        0.0025       14.1200       14.1226      12.849065       0.07328
   5     589.8        1.2887        0.0027       13.6012       13.6039      12.315217       0.07924
   4     651.6        1.3103        0.0028       13.0155       13.0184      11.708036       0.08303
   3     718.7        1.3398        0.0030       12.4111       12.4141      11.074215       0.07965
   2     792.3        1.3793        0.0031       11.8248       11.8279      10.448544       0.07176
   1     891.5        1.4501        0.0033       11.1194       11.1228       9.672620       0.06603
   0    1013.0        1.5840        0.0035       10.3404       10.3439       8.759913       0.06337



 Wavenumbers:  5150. -  6150. cm-1, ATM      1
 LEVEL PRESSURE   UPWARD FLUX   DIFDOWN FLUX  DIRDOWN FLUX  DOWNWARD FLUX   NET FLUX    HEATING RATE
          mb          W/m2          W/m2          W/m2        W/m2          W/m2       degree/day
  51    .06700        3.0353        0.0000       43.1623       43.1623      40.127055       0.00000
  50    .07753        3.0353        0.0000       43.1623       43.1623      40.127021       0.02762
  49    .09103        3.0353        0.0000       43.1622       43.1622      40.126976       0.02812
  48    0.1069        3.0353        0.0000       43.1622       43.1622      40.126922       0.02861
  47    0.1255        3.0353        0.0000       43.1621       43.1621      40.126858       0.02907
  46    0.1487        3.0353        0.0000       43.1620       43.1620      40.126774       0.03063
  45    0.1794        3.0353        0.0000       43.1619       43.1619      40.126654       0.03274
  44    0.2165        3.0353        0.0000       43.1618       43.1618      40.126508       0.03337
  43    0.2613        3.0353        0.0000       43.1616       43.1616      40.126328       0.03385
  42    0.3336        3.0353        0.0000       43.1613       43.1613      40.126021       0.03576
  41    0.4307        3.0352        0.0000       43.1608       43.1608      40.125600       0.03662
  40    0.5894        3.0352        0.0000       43.1601       43.1601      40.124894       0.03754
  39     1.339        3.0352        0.0000       43.1566       43.1567      40.121437       0.03892
  38     1.782        3.0352        0.0000       43.1546       43.1546      40.119389       0.03899
  37     2.292        3.0352        0.0001       43.1522       43.1522      40.117024       0.03918
  36     2.964        3.0352        0.0001       43.1491       43.1491      40.113929       0.03885
  35     3.853        3.0352        0.0001       43.1449       43.1450      40.109861       0.03860
  34     5.035        3.0352        0.0001       43.1395       43.1397      40.104498       0.03831
  33     6.613        3.0351        0.0002       43.1324       43.1325      40.097410       0.03790
  32     8.786        3.0351        0.0002       43.1229       43.1231      40.088021       0.03646
  31     11.80        3.0351        0.0003       43.1097       43.1100      40.074922       0.03667
  30     15.07        3.0350        0.0004       43.0959       43.0963      40.061296       0.03518
  29     18.79        3.0349        0.0005       43.0809       43.0814      40.046430       0.03370
  28     23.16        3.0349        0.0006       43.0640       43.0646      40.029744       0.03227
  27     28.12        3.0348        0.0008       43.0455       43.0463      40.011475       0.03105
  26     33.73        3.0348        0.0009       43.0258       43.0268      39.992000       0.02928
  25     40.54        3.0347        0.0011       43.0035       43.0046      39.969883       0.02744
  24     48.69        3.0346        0.0013       42.9782       42.9795      39.944897       0.02586
  23     57.69        3.0345        0.0015       42.9526       42.9542      39.919634       0.02368
  22     68.43        3.0344        0.0018       42.9251       42.9269      39.892503       0.02133
  21     81.20        3.0343        0.0022       42.8948       42.8970      39.862667       0.01972
  20     96.49        3.0342        0.0026       42.8608       42.8633      39.829107       0.01852
  19     114.6        3.0341        0.0030       42.8214       42.8245      39.790322       0.01811
  18     136.5        3.0340        0.0036       42.7693       42.7730      39.738940       0.01976
  17     162.9        3.0339        0.0043       42.6785       42.6828      39.648906       0.02878
  16     196.4        3.0338        0.0052       42.4879       42.4931      39.459303       0.04773
  15     218.7        3.0337        0.0057       42.2848       42.2905      39.256820       0.07688
  14     243.0        3.0337        0.0063       41.9007       41.9070      38.873256       0.13303
  13     269.0        3.0338        0.0068       41.0944       41.1012      38.067389       0.26142
  12     297.5        3.0341        0.0073       39.9821       39.9894      36.955377       0.32981
  11     328.5        3.0346        0.0078       38.7276       38.7354      35.700849       0.34110
  10     361.9        3.0355        0.0082       37.2582       37.2664      34.230906       0.37191
   9     398.1        3.0370        0.0086       35.5507       35.5593      32.522348       0.39806
   8     437.6        3.0393        0.0090       33.6951       33.7040      30.664789       0.39716
   7     480.5        3.0429        0.0093       31.7187       31.7280      28.685115       0.38880
   6     533.0        3.0495        0.0097       29.5798       29.5895      26.539921       0.34509
   5     589.8        3.0602        0.0102       27.7514       27.7615      24.701364       0.27290
   4     651.6        3.0773        0.0107       26.2575       26.2683      23.191008       0.20655
   3     718.7        3.1032        0.0114       25.1212       25.1326      22.029480       0.14597
   2     792.3        3.1407        0.0122       24.2448       24.2570      21.116271       0.10473
   1     891.5        3.2166        0.0132       23.2825       23.2957      20.079083       0.08826
   0    1013.0        3.3954        0.0143       22.1543       22.1686      18.773199       0.09067



 Wavenumbers:  6150. -  7700. cm-1, ATM      1
 LEVEL PRESSURE   UPWARD FLUX   DIFDOWN FLUX  DIRDOWN FLUX  DOWNWARD FLUX   NET FLUX    HEATING RATE
          mb          W/m2          W/m2          W/m2        W/m2          W/m2       degree/day
  51    .06700        4.6568        0.0000       79.8304       79.8304      75.173564       0.00000
  50    .07753        4.6568        0.0000       79.8303       79.8303      75.173512       0.04144
  49    .09103        4.6568        0.0000       79.8302       79.8302      75.173446       0.04174
  48    0.1069        4.6568        0.0000       79.8301       79.8302      75.173367       0.04203
  47    0.1255        4.6568        0.0000       79.8300       79.8301      75.173273       0.04229
  46    0.1487        4.6568        0.0000       79.8299       79.8299      75.173152       0.04413
  45    0.1794        4.6568        0.0000       79.8297       79.8298      75.172982       0.04673
  44    0.2165        4.6568        0.0000       79.8295       79.8295      75.172775       0.04720
  43    0.2613        4.6568        0.0000       79.8293       79.8293      75.172522       0.04751
  42    0.3336        4.6568        0.0000       79.8288       79.8289      75.172095       0.04985
  41    0.4307        4.6568        0.0000       79.8282       79.8283      75.171512       0.05067
  40    0.5894        4.6567        0.0001       79.8272       79.8273      75.170540       0.05167
  39     1.339        4.6567        0.0001       79.8223       79.8225      75.165816       0.05319
  38     1.782        4.6566        0.0002       79.8195       79.8196      75.163025       0.05313
  37     2.292        4.6566        0.0003       79.8161       79.8164      75.159804       0.05335
  36     2.964        4.6565        0.0003       79.8118       79.8121      75.155590       0.05290
  35     3.853        4.6564        0.0004       79.8060       79.8065      75.150050       0.05257
  34     5.035        4.6563        0.0006       79.7985       79.7990      75.142736       0.05225
  33     6.613        4.6562        0.0007       79.7885       79.7892      75.133045       0.05181
  32     8.786        4.6559        0.0010       79.7751       79.7761      75.120150       0.05008
  31     11.80        4.6556        0.0013       79.7564       79.7577      75.102028       0.05074
  30     15.07        4.6553        0.0017       79.7366       79.7383      75.082996       0.04914
  29     18.79        4.6550        0.0021       79.7149       79.7170      75.062003       0.04760
  28     23.16        4.6545        0.0026       79.6901       79.6927      75.038131       0.04616
  27     28.12        4.6541        0.0031       79.6625       79.6657      75.011610       0.04508
  26     33.73        4.6535        0.0038       79.6327       79.6364      74.982908       0.04315
  25     40.54        4.6529        0.0045       79.5981       79.6026      74.949715       0.04118
  24     48.69        4.6521        0.0054       79.5583       79.5637      74.911600       0.03944
  23     57.69        4.6512        0.0064       79.5170       79.5234      74.872177       0.03695
  22     68.43        4.6502        0.0076       79.4712       79.4788      74.828585       0.03427
  21     81.20        4.6490        0.0090       79.4194       79.4284      74.779458       0.03246
  20     96.49        4.6475        0.0107       79.3601       79.3708      74.723310       0.03099
  19     114.6        4.6457        0.0127       79.2904       79.3031      74.657331       0.03081
  18     136.5        4.6437        0.0151       79.1990       79.2141      74.570399       0.03343
  17     162.9        4.6412        0.0179       79.0442       79.0622      74.420923       0.04778
  16     196.4        4.6381        0.0215       78.7197       78.7413      74.103179       0.07998
  15     218.7        4.6361        0.0239       78.3916       78.4154      73.779367       0.12294
  14     243.0        4.6340        0.0263       77.8462       77.8725      73.238564       0.18757
  13     269.0        4.6319        0.0286       76.7540       76.7826      72.150683       0.35290
  12     297.5        4.6301        0.0309       75.0115       75.0423      70.412253       0.51560
  11     328.5        4.6287        0.0330       72.7634       72.7964      68.167656       0.61030
  10     361.9        4.6282        0.0350       70.2365       70.2715      65.643372       0.63867
   9     398.1        4.6289        0.0368       67.3685       67.4053      62.776425       0.66793
   8     437.6        4.6317        0.0383       64.0488       64.0871      59.455330       0.71007
   7     480.5        4.6383        0.0395       60.3271       60.3666      55.728304       0.73197
   6     533.0        4.6526        0.0408       56.0526       56.0933      51.440712       0.68974
   5     589.8        4.6777        0.0420       51.9989       52.0409      47.363200       0.60524
   4     651.6        4.7202        0.0432       48.2396       48.2829      43.562708       0.51973
   3     718.7        4.7855        0.0447       44.9557       45.0003      40.214846       0.42073
   2     792.3        4.8802        0.0464       42.1701       42.2164      37.336244       0.33014
   1     891.5        5.0694        0.0487       39.1216       39.1703      34.100909       0.27531
   0    1013.0        5.5193        0.0513       35.9662       36.0175      30.498245       0.25015



 Wavenumbers:  7700. -  8050. cm-1, ATM      1
 LEVEL PRESSURE   UPWARD FLUX   DIFDOWN FLUX  DIRDOWN FLUX  DOWNWARD FLUX   NET FLUX    HEATING RATE
          mb          W/m2          W/m2          W/m2        W/m2          W/m2       degree/day
  51    .06700        2.4067        0.0000       18.8663       18.8663      16.459625       0.00000
  50    .07753        2.4067        0.0000       18.8663       18.8663      16.459606       0.01557
  49    .09103        2.4067        0.0000       18.8662       18.8662      16.459581       0.01526
  48    0.1069        2.4067        0.0000       18.8662       18.8662      16.459553       0.01494
  47    0.1255        2.4067        0.0000       18.8662       18.8662      16.459521       0.01462
  46    0.1487        2.4067        0.0000       18.8661       18.8662      16.459480       0.01483
  45    0.1794        2.4067        0.0000       18.8661       18.8661      16.459425       0.01526
  44    0.2165        2.4067        0.0000       18.8660       18.8660      16.459359       0.01497
  43    0.2613        2.4067        0.0000       18.8660       18.8660      16.459281       0.01469
  42    0.3336        2.4067        0.0000       18.8658       18.8658      16.459152       0.01503
  41    0.4307        2.4067        0.0000       18.8657       18.8657      16.458981       0.01487
  40    0.5894        2.4067        0.0000       18.8654       18.8654      16.458701       0.01485
  39     1.339        2.4068        0.0001       18.8641       18.8642      16.457380       0.01488
  38     1.782        2.4069        0.0001       18.8634       18.8635      16.456603       0.01478
  37     2.292        2.4069        0.0001       18.8625       18.8626      16.455705       0.01489
  36     2.964        2.4070        0.0001       18.8614       18.8615      16.454524       0.01482
  35     3.853        2.4071        0.0002       18.8599       18.8601      16.452965       0.01480
  34     5.035        2.4073        0.0002       18.8579       18.8581      16.450893       0.01480
  33     6.613        2.4074        0.0003       18.8553       18.8556      16.448125       0.01480
  32     8.786        2.4077        0.0004       18.8517       18.8521      16.444395       0.01449
  31     11.80        2.4081        0.0005       18.8466       18.8471      16.439059       0.01494
  30     15.07        2.4085        0.0007       18.8411       18.8418      16.433331       0.01479
  29     18.79        2.4089        0.0009       18.8349       18.8358      16.426863       0.01467
  28     23.16        2.4094        0.0011       18.8277       18.8287      16.419312       0.01460
  27     28.12        2.4100        0.0013       18.8194       18.8207      16.410683       0.01467
  26     33.73        2.4107        0.0016       18.8102       18.8117      16.401034       0.01451
  25     40.54        2.4115        0.0019       18.7990       18.8009      16.389391       0.01444
  24     48.69        2.4125        0.0023       18.7857       18.7879      16.375376       0.01450
  23     57.69        2.4136        0.0027       18.7710       18.7736      16.360011       0.01440
  22     68.43        2.4150        0.0032       18.7535       18.7567      16.341752       0.01435
  21     81.20        2.4165        0.0037       18.7329       18.7366      16.320061       0.01433
  20     96.49        2.4185        0.0044       18.7083       18.7128      16.294305       0.01422
  19     114.6        2.4208        0.0053       18.6793       18.6846      16.263853       0.01422
  18     136.5        2.4235        0.0063       18.6452       18.6515      16.227940       0.01381
  17     162.9        2.4269        0.0074       18.6049       18.6123      16.185420       0.01359
  16     196.4        2.4313        0.0089       18.5530       18.5620      16.130658       0.01378
  15     218.7        2.4343        0.0099       18.5193       18.5292      16.094900       0.01358
  14     243.0        2.4376        0.0110       18.4828       18.4938      16.056167       0.01343
  13     269.0        2.4412        0.0122       18.4433       18.4555      16.014241       0.01360
  12     297.5        2.4453        0.0134       18.4007       18.4142      15.968872       0.01346
  11     328.5        2.4499        0.0148       18.3547       18.3694      15.919588       0.01340
  10     361.9        2.4550        0.0162       18.3047       18.3210      15.865984       0.01356
   9     398.1        2.4608        0.0178       18.2504       18.2682      15.807433       0.01364
   8     437.6        2.4674        0.0195       18.1910       18.2105      15.743123       0.01375
   7     480.5        2.4751        0.0213       18.1254       18.1467      15.671547       0.01406
   6     533.0        2.4855        0.0235       18.0413       18.0648      15.579270       0.01484
   5     589.8        2.4981        0.0259       17.9461       17.9720      15.473940       0.01563
   4     651.6        2.5133        0.0284       17.8376       17.8660      15.352708       0.01658
   3     718.7        2.5317        0.0311       17.7154       17.7465      15.214723       0.01734
   2     792.3        2.5536        0.0340       17.5804       17.6143      15.060731       0.01766
   1     891.5        2.5870        0.0378       17.3915       17.4292      14.842202       0.01860
   0    1013.0        2.6358        0.0422       17.1469       17.1892      14.553387       0.02005



 Wavenumbers:  8050. - 12850. cm-1, ATM      1
 LEVEL PRESSURE   UPWARD FLUX   DIFDOWN FLUX  DIRDOWN FLUX  DOWNWARD FLUX   NET FLUX    HEATING RATE
          mb          W/m2          W/m2          W/m2        W/m2          W/m2       degree/day
  51    .06700       30.4766        0.0000      264.1420      264.1420     233.665365       0.00000
  50    .07753       30.4766        0.0000      264.1419      264.1419     233.665365      -0.00000
  49    .09103       30.4765        0.0001      264.1419      264.1419     233.665365       0.00000
  48    0.1069       30.4765        0.0001      264.1418      264.1419     233.665365      -0.00000
  47    0.1255       30.4765        0.0001      264.1417      264.1419     233.665365       0.00000
  46    0.1487       30.4765        0.0002      264.1416      264.1418     233.665365       0.00000
  45    0.1794       30.4764        0.0003      264.1415      264.1418     233.665365       0.00000
  44    0.2165       30.4763        0.0003      264.1414      264.1417     233.665365      -0.00000
  43    0.2613       30.4763        0.0004      264.1412      264.1416     233.665365      -0.00000
  42    0.3336       30.4761        0.0006      264.1409      264.1415     233.665365       0.00000
  41    0.4307       30.4760        0.0008      264.1405      264.1413     233.665365       0.00000
  40    0.5894       30.4757        0.0012      264.1399      264.1411     233.665365      -0.00000
  39     1.339       30.4744        0.0029      264.1369      264.1398     233.665365       0.00000
  38     1.782       30.4737        0.0039      264.1352      264.1391     233.665365      -0.00000
  37     2.292       30.4728        0.0050      264.1332      264.1382     233.665365       0.00000
  36     2.964       30.4717        0.0065      264.1305      264.1371     233.665365       0.00000
  35     3.853       30.4702        0.0085      264.1271      264.1356     233.665365       0.00000
  34     5.035       30.4682        0.0112      264.1224      264.1336     233.665365       0.00000
  33     6.613       30.4655        0.0147      264.1162      264.1309     233.665365      -0.00000
  32     8.786       30.4620        0.0195      264.1078      264.1273     233.665365       0.00000
  31     11.80       30.4568        0.0263      264.0959      264.1222     233.665365       0.00000
  30     15.07       30.4513        0.0337      264.0830      264.1166     233.665365       0.00000
  29     18.79       30.4450        0.0420      264.0684      264.1104     233.665365       0.00000
  28     23.16       30.4377        0.0517      264.0514      264.1031     233.665365       0.00000
  27     28.12       30.4294        0.0628      264.0319      264.0947     233.665365       0.00000
  26     33.73       30.4200        0.0753      264.0100      264.0853     233.665365      -0.00000
  25     40.54       30.4086        0.0904      263.9836      264.0740     233.665365       0.00000
  24     48.69       30.3949        0.1086      263.9517      264.0603     233.665365       0.00000
  23     57.69       30.3798        0.1286      263.9166      264.0452     233.665365      -0.00000
  22     68.43       30.3618        0.1525      263.8747      264.0272     233.665365      -0.00000
  21     81.20       30.3403        0.1811      263.8247      264.0057     233.665365       0.00000
  20     96.49       30.3147        0.2151      263.7649      263.9801     233.665365      -0.00000
  19     114.6       30.2842        0.2556      263.6863      263.9419     233.657620       0.00362
  18     136.5       30.2481        0.3037      263.5908      263.8945     233.646401       0.00431
  17     162.9       30.2049        0.3611      263.4672      263.8283     233.623389       0.00736
  16     196.4       30.1488        0.4357      263.2735      263.7092     233.560390       0.01586
  15     218.7       30.1120        0.4848      263.1043      263.5891     233.477124       0.03161
  14     243.0       30.0720        0.5380      262.8366      263.3746     233.302598       0.06053
  13     269.0       30.0295        0.5955      262.3363      262.9318     232.902381       0.12983
  12     297.5       29.9848        0.6572      261.5663      262.2234     232.238687       0.19684
  11     328.5       29.9388        0.7234      260.5165      261.2398     231.301022       0.25495
  10     361.9       29.8931        0.7938      259.1732      259.9671     230.073996       0.31045
   9     398.1       29.8494        0.8684      257.4426      258.3110     228.461607       0.37565
   8     437.6       29.8114        0.9468      255.1696      256.1163     226.304900       0.46112
   7     480.5       29.7865        1.0279      252.1482      253.1761     223.389562       0.57256
   6     533.0       29.7827        1.1241      247.8743      248.9985     219.215797       0.67143
   5     589.8       29.8187        1.2238      242.8088      244.0326     214.213844       0.74245
   4     651.6       29.9189        1.3265      237.0332      238.3597     208.440851       0.78947
   3     718.7       30.1008        1.4335      231.0152      232.4487     202.347909       0.76571
   2     792.3       30.3841        1.5453      225.0475      226.5928     196.208702       0.70410
   1     891.5       30.9745        1.6908      217.3921      219.0829     188.108436       0.68929
   0    1013.0       32.3282        1.8536      208.1268      209.9805     177.652273       0.72603



 Wavenumbers: 12850. - 16000. cm-1, ATM      1
 LEVEL PRESSURE   UPWARD FLUX   DIFDOWN FLUX  DIRDOWN FLUX  DOWNWARD FLUX   NET FLUX    HEATING RATE
          mb          W/m2          W/m2          W/m2        W/m2          W/m2       degree/day
  51    .06700       71.1304        0.0000      165.5083      165.5083      94.377890       0.00000
  50    .07753       71.1304        0.0001      165.5074      165.5075      94.377098       0.63461
  49    .09103       71.1304        0.0002      165.5063      165.5065      94.376100       0.62395
  48    0.1069       71.1304        0.0003      165.5051      165.5053      94.374948       0.61331
  47    0.1255       71.1304        0.0004      165.5036      165.5040      94.373617       0.60314
  46    0.1487       71.1304        0.0005      165.5018      165.5023      94.371928       0.61555
  45    0.1794       71.1304        0.0007      165.4993      165.5000      94.369614       0.63536
  44    0.2165       71.1305        0.0009      165.4964      165.4973      94.366867       0.62487
  43    0.2613       71.1306        0.0012      165.4930      165.4942      94.363605       0.61496
  42    0.3336       71.1308        0.0017      165.4873      165.4890      94.358209       0.62902
  41    0.4307       71.1311        0.0023      165.4799      165.4822      94.351114       0.61695
  40    0.5894       71.1317        0.0032      165.4681      165.4714      94.339653       0.60947
  39     1.339       71.1375        0.0079      165.4152      165.4231      94.285531       0.60932
  38     1.782       71.1429        0.0106      165.3851      165.3957      94.252822       0.62272
  37     2.292       71.1510        0.0138      165.3502      165.3640      94.212985       0.65980
  36     2.964       71.1644        0.0179      165.3031      165.3210      94.156654       0.70713
  35     3.853       71.1861        0.0234      165.2385      165.2619      94.075825       0.76708
  34     5.035       71.2187        0.0307      165.1507      165.1814      93.962641       0.80854
  33     6.613       71.2644        0.0404      165.0348      165.0751      93.810746       0.81203
  32     8.786       71.3238        0.0534      164.8862      164.9396      93.615845       0.75693
  31     11.80       71.4010        0.0721      164.6904      164.7625      93.361494       0.71210
  30     15.07       71.4750        0.0922      164.4977      164.5898      93.114850       0.63679
  29     18.79       71.5504        0.1148      164.2951      164.4099      92.859573       0.57879
  28     23.16       71.6291        0.1413      164.0759      164.2171      92.588038       0.52506
  27     28.12       71.7082        0.1715      163.8451      164.0166      92.308402       0.47536
  26     33.73       71.7810        0.2053      163.6149      163.8203      92.039219       0.40472
  25     40.54       71.8510        0.2463      163.3695      163.6158      91.764780       0.34047
  24     48.69       71.9177        0.2956      163.1058      163.4014      91.483676       0.29090
  23     57.69       71.9740        0.3499      162.8478      163.1977      91.223721       0.24367
  22     68.43       72.0225        0.4146      162.5754      162.9900      90.967517       0.20141
  21     81.20       72.0551        0.4918      162.2986      162.7905      90.735421       0.15337
  20     96.49       72.0704        0.5840      162.0150      162.5990      90.528572       0.11417
  19     114.6       72.0880        0.6945      161.7045      162.3991      90.311066       0.10156
  18     136.5       72.0985        0.8256      161.3597      162.1853      90.086802       0.08623
  17     162.9       72.1014        0.9818      160.9691      161.9508      89.849432       0.07587
  16     196.4       72.0851        1.1845      160.4933      161.6778      89.592701       0.06462
  15     218.7       72.0672        1.3178      160.1889      161.5067      89.439517       0.05816
  14     243.0       72.0446        1.4627      159.8582      161.3209      89.276274       0.05662
  13     269.0       72.0177        1.6198      159.4965      161.1163      89.098595       0.05764
  12     297.5       71.9869        1.7897      159.0980      160.8877      88.900785       0.05867
  11     328.5       71.9551        1.9734      158.6533      160.6267      88.671550       0.06233
  10     361.9       71.9243        2.1712      158.1550      160.3262      88.401978       0.06820
   9     398.1       71.8968        2.3841      157.5945      159.9786      88.081766       0.07460
   8     437.6       71.8779        2.6126      156.9568      159.5695      87.691546       0.08343
   7     480.5       71.8766        2.8572      156.2166      159.0738      87.197210       0.09709
   6     533.0       71.9070        3.1573      155.2262      158.3835      86.476538       0.11593
   5     589.8       71.9799        3.4788      154.0788      157.5576      85.577730       0.13341
   4     651.6       72.1151        3.8217      152.7536      156.5753      84.460219       0.15282
   3     718.7       72.3251        4.1866      151.2685      155.4551      83.129999       0.16717
   2     792.3       72.6267        4.5740      149.6454      154.2194      81.592680       0.17631
   1     891.5       73.1990        5.0907      147.3971      152.4878      79.288771       0.19605
   0    1013.0       74.2650        5.6997      144.5768      150.2765      76.011479       0.22756



 Wavenumbers: 16000. - 22650. cm-1, ATM      1
 LEVEL PRESSURE   UPWARD FLUX   DIFDOWN FLUX  DIRDOWN FLUX  DOWNWARD FLUX   NET FLUX    HEATING RATE
          mb          W/m2          W/m2          W/m2        W/m2          W/m2       degree/day
  51    .06700      186.3691        0.0000      263.8846      263.8846      77.515552       0.00000
  50    .07753      186.3691        0.0004      263.8841      263.8845      77.515383       0.13548
  49    .09103      186.3692        0.0010      263.8833      263.8843      77.515138       0.15366
  48    0.1069      186.3693        0.0016      263.8825      263.8841      77.514808       0.17522
  47    0.1255      186.3695        0.0024      263.8814      263.8838      77.514368       0.19973
  46    0.1487      186.3697        0.0033      263.8801      263.8834      77.513719       0.23668
  45    0.1794      186.3701        0.0046      263.8782      263.8828      77.512703       0.27867
  44    0.2165      186.3706        0.0061      263.8759      263.8820      77.511327       0.31320
  43    0.2613      186.3714        0.0079      263.8730      263.8809      77.509459       0.35211
  42    0.3336      186.3730        0.0108      263.8680      263.8789      77.505907       0.41408
  41    0.4307      186.3753        0.0148      263.8611      263.8759      77.500554       0.46547
  40    0.5894      186.3799        0.0212      263.8491      263.8702      77.490343       0.54297
  39     1.339      186.4154        0.0515      263.7788      263.8303      77.414901       0.84934
  38     1.782      186.4463        0.0693      263.7277      263.7970      77.350624       1.22374
  37     2.292      186.4917        0.0899      263.6594      263.7493      77.257567       1.54126
  36     2.964      186.5658        0.1169      263.5557      263.6726      77.106778       1.89285
  35     3.853      186.6843        0.1526      263.3991      263.5517      76.867426       2.27150
  34     5.035      186.8618        0.2000      263.1720      263.3720      76.510135       2.55234
  33     6.613      187.1094        0.2633      262.8594      263.1226      76.013220       2.65651
  32     8.786      187.4324        0.3485      262.4498      262.7983      75.365951       2.51376
  31     11.80      187.8545        0.4703      261.9045      262.3748      74.520285       2.36760
  30     15.07      188.2614        0.6011      261.3658      261.9669      73.705545       2.10350
  29     18.79      188.6791        0.7488      260.7996      261.5484      72.869236       1.89617
  28     23.16      189.1188        0.9212      260.1867      261.1079      71.989079       1.70194
  27     28.12      189.5651        1.1183      259.5418      260.6600      71.094950       1.51996
  26     33.73      189.9835        1.3389      258.8983      260.2372      70.253678       1.26487
  25     40.54      190.3952        1.6056      258.2104      259.8160      69.420795       1.03329
  24     48.69      190.8002        1.9273      257.4677      259.3950      68.594784       0.85479
  23     57.69      191.1568        2.2807      256.7352      259.0159      67.859096       0.68960
  22     68.43      191.4861        2.7019      255.9515      258.6534      67.167295       0.54385
  21     81.20      191.7477        3.2042      255.1376      258.3418      66.594035       0.37880
  20     96.49      191.9380        3.8033      254.2781      258.0814      66.143418       0.24871
  19     114.6      192.1004        4.5140      253.3171      257.8311      65.730708       0.19271
  18     136.5      192.2498        5.3553      252.2184      257.5738      65.323947       0.15641
  17     162.9      192.3878        6.3552      250.9482      257.3034      64.915605       0.13052
  16     196.4      192.4817        7.6498      249.3792      257.0290      64.547336       0.09270
  15     218.7      192.5114        8.4983      248.3786      256.8769      64.365484       0.06904
  14     243.0      192.5284        9.4190      247.3056      256.7247      64.196252       0.05870
  13     269.0      192.5309       10.4151      246.1580      256.5731      64.042151       0.04999
  12     297.5      192.5182       11.4893      244.9324      256.4218      63.903520       0.04112
  11     328.5      192.4968       12.6477      243.6157      256.2634      63.766633       0.03722
  10     361.9      192.4665       13.8922      242.2050      256.0971      63.630613       0.03441
   9     398.1      192.4277       15.2283      240.6927      255.9211      63.493420       0.03196
   8     437.6      192.3823       16.6597      239.0721      255.7318      63.349454       0.03078
   7     480.5      192.3323       18.1901      237.3353      255.5254      63.193180       0.03069
   6     533.0      192.2715       20.0687      235.1956      255.2643      62.992737       0.03224
   5     589.8      192.2114       22.0873      232.8832      254.9705      62.759105       0.03468
   4     651.6      192.1573       24.2498      230.3873      254.6371      62.479750       0.03820
   3     718.7      192.1090       26.5607      227.7037      254.2643      62.155310       0.04077
   2     792.3      192.0685       29.0195      224.8318      253.8514      61.782883       0.04271
   1     891.5      192.0424       32.3110      220.9530      253.2640      61.221584       0.04776
   0    1013.0      192.0703       36.2229      216.2817      252.5047      60.434426       0.05466



 Wavenumbers: 22650. - 29000. cm-1, ATM      1
 LEVEL PRESSURE   UPWARD FLUX   DIFDOWN FLUX  DIRDOWN FLUX  DOWNWARD FLUX   NET FLUX    HEATING RATE
          mb          W/m2          W/m2          W/m2        W/m2          W/m2       degree/day
  51    .06700       77.2175        0.0000       99.5805       99.5805      22.362934       0.00000
  50    .07753       77.2175        0.0005       99.5799       99.5804      22.362934      -0.00000
  49    .09103       77.2175        0.0012       99.5792       99.5804      22.362934       0.00000
  48    0.1069       77.2174        0.0019       99.5784       99.5803      22.362934      -0.00000
  47    0.1255       77.2174        0.0028       99.5775       99.5803      22.362934       0.00000
  46    0.1487       77.2173        0.0039       99.5763       99.5802      22.362934       0.00000
  45    0.1794       77.2172        0.0054       99.5748       99.5801      22.362934       0.00000
  44    0.2165       77.2171        0.0072       99.5729       99.5800      22.362934       0.00000
  43    0.2613       77.2170        0.0093       99.5707       99.5799      22.362934      -0.00000
  42    0.3336       77.2168        0.0127       99.5670       99.5797      22.362934       0.00000
  41    0.4307       77.2165        0.0173       99.5621       99.5795      22.362934       0.00000
  40    0.5894       77.2161        0.0248       99.5542       99.5790      22.362934       0.00000
  39     1.339       77.2141        0.0604       99.5166       99.5770      22.362934      -0.00000
  38     1.782       77.2129        0.0813       99.4945       99.5758      22.362934       0.00000
  37     2.292       77.2115        0.1055       99.4690       99.5745      22.362934       0.00000
  36     2.964       77.2097        0.1372       99.4354       99.5727      22.362934      -0.00000
  35     3.853       77.2073        0.1792       99.3911       99.5703      22.362934       0.00000
  34     5.035       77.2042        0.2349       99.3322       99.5671      22.362934       0.00000
  33     6.613       77.1999        0.3093       99.2535       99.5628      22.362934       0.00000
  32     8.786       77.1942        0.4095       99.1476       99.5571      22.362934      -0.00000
  31     11.80       77.1859        0.5528       98.9960       99.5489      22.362934       0.00000
  30     15.07       77.1770        0.7066       98.8334       99.5400      22.362934       0.00000
  29     18.79       77.1670        0.8801       98.6498       99.5299      22.362934       0.00000
  28     23.16       77.1552        1.0825       98.4356       99.5181      22.362934       0.00000
  27     28.12       77.1416        1.3136       98.1909       99.5045      22.362934       0.00000
  26     33.73       77.1263        1.5717       97.9175       99.4893      22.362934       0.00000
  25     40.54       77.1078        1.8829       97.5878       99.4707      22.362934       0.00000
  24     48.69       77.0853        2.2569       97.1913       99.4482      22.362934      -0.00000
  23     57.69       77.0603        2.6663       96.7570       99.4233      22.362934       0.00000
  22     68.43       77.0304        3.1518       96.2415       99.3933      22.362934       0.00000
  21     81.20       76.9943        3.7272       95.6301       99.3572      22.362934       0.00000
  20     96.49       76.9508        4.4083       94.9054       99.3138      22.362934      -0.00000
  19     114.6       76.8985        5.2107       94.0508       99.2615      22.362934       0.00000
  18     136.5       76.8355        6.1526       93.0458       99.1985      22.362934      -0.00000
  17     162.9       76.7592        7.2614       91.8607       99.1221      22.362934       0.00000
  16     196.4       76.6579        8.6783       90.3426       99.0208      22.362934      -0.00000
  15     218.7       76.5901        9.5960       89.3570       98.9530      22.362934       0.00000
  14     243.0       76.5151       10.5823       88.2958       98.8780      22.362934       0.00000
  13     269.0       76.4325       11.6380       87.1574       98.7954      22.362934      -0.00000
  12     297.5       76.3415       12.7637       85.9407       98.7044      22.362934       0.00000
  11     328.5       76.2411       13.9629       84.6412       98.6041      22.362934       0.00000
  10     361.9       76.1309       15.2344       83.2594       98.4938      22.362934       0.00000
   9     398.1       76.0095       16.5802       81.7922       98.3724      22.362934      -0.00000
   8     437.6       75.8760       18.0001       80.2389       98.2390      22.362934       0.00000
   7     480.5       75.7294       19.4935       78.5988       98.0923      22.362934       0.00000
   6     533.0       75.5436       21.2919       76.6147       97.9066      22.362934      -0.00000
   5     589.8       75.3370       23.1823       74.5176       97.6999      22.362934       0.00000
   4     651.6       75.1072       25.1598       72.3104       97.4702      22.362934       0.00000
   3     718.7       74.8521       27.2185       69.9965       97.2151      22.362934       0.00000
   2     792.3       74.5695       29.3478       67.5846       96.9325      22.362934       0.00000
   1     891.5       74.1727       32.1015       64.4342       96.5357      22.362934       0.00000
   0    1013.0       73.6728       35.2330       60.8027       96.0357      22.362934       0.00000



 Wavenumbers: 29000. - 38000. cm-1, ATM      1
 LEVEL PRESSURE   UPWARD FLUX   DIFDOWN FLUX  DIRDOWN FLUX  DOWNWARD FLUX   NET FLUX    HEATING RATE
          mb          W/m2          W/m2          W/m2        W/m2          W/m2       degree/day
  51    .06700       12.4256        0.0000       35.1162       35.1162      22.690654       0.00000
  50    .07753       12.4254        0.0003       35.1119       35.1122      22.686836       3.06005
  49    .09103       12.4252        0.0008       35.1057       35.1065      22.681280       3.47278
  48    0.1069       12.4250        0.0013       35.0976       35.0989      22.673838       3.96146
  47    0.1255       12.4248        0.0018       35.0868       35.0887      22.663878       4.51529
  46    0.1487       12.4245        0.0026       35.0712       35.0738      22.649210       5.34691
  45    0.1794       12.4242        0.0035       35.0470       35.0505      22.626322       6.28307
  44    0.2165       12.4239        0.0047       35.0146       35.0193      22.595388       7.03694
  43    0.2613       12.4235        0.0061       34.9711       34.9771      22.553639       7.86965
  42    0.3336       12.4230        0.0083       34.8897       34.8980      22.475036       9.16435
  41    0.4307       12.4224        0.0112       34.7698       34.7810      22.358579      10.12559
  40    0.5894       12.4218        0.0159       34.5489       34.5649      22.143026      11.46284
  39     1.339       12.4246        0.0365       33.1853       33.2218      20.797263      15.15085
  38     1.782       12.4297        0.0473       32.3007       32.3480      19.918236      16.73526
  37     2.292       12.4388        0.0590       31.3187       31.3777      18.938917      16.22008
  36     2.964       12.4553        0.0735       30.1831       30.2566      17.801303      14.28048
  35     3.853       12.4835        0.0918       28.9695       29.0613      16.577751      11.61173
  34     5.035       12.5273        0.1151       27.7467       27.8618      15.334514       8.88117
  33     6.613       12.5896        0.1454       26.5565       26.7019      14.112281       6.53406
  32     8.786       12.6720        0.1853       25.4315       25.6167      12.944722       4.53438
  31     11.80       12.7814        0.2410       24.3279       24.5689      11.787527       3.23978
  30     15.07       12.8892        0.2998       23.4834       23.7832      10.894052       2.30678
  29     18.79       13.0029        0.3649       22.7549       23.1198      10.116928       1.76198
  28     23.16       13.1267        0.4399       22.0882       22.5281       9.401403       1.38359
  27     28.12       13.2572        0.5245       21.4824       22.0069       8.749700       1.10785
  26     33.73       13.3839        0.6189       20.9522       21.5710       8.187127       0.84584
  25     40.54       13.5124        0.7324       20.4458       21.1782       7.665781       0.64679
  24     48.69       13.6434        0.8685       19.9504       20.8189       7.175536       0.50733
  23     57.69       13.7625        1.0174       19.5016       20.5190       6.756481       0.39280
  22     68.43       13.8754        1.1939       19.0552       20.2491       6.373687       0.30093
  21     81.20       13.9648        1.4048       18.6237       20.0286       6.063800       0.20477
  20     96.49       14.0266        1.6563       18.1945       19.8509       5.824271       0.13220
  19     114.6       14.0773        1.9504       17.7341       19.6845       5.607262       0.10133
  18     136.5       14.1230        2.2908       17.2273       19.5181       5.395103       0.08158
  17     162.9       14.1659        2.6931       16.6629       19.3560       5.190156       0.06551
  16     196.4       14.1871        3.1905       15.9953       19.1858       4.998732       0.04818
  15     218.7       14.1889        3.5088       15.5842       19.0930       4.904054       0.03595
  14     243.0       14.1852        3.8462       15.1546       19.0008       4.815594       0.03068
  13     269.0       14.1748        4.2024       14.7076       18.9100       4.735239       0.02607
  12     297.5       14.1569        4.5766       14.2439       18.8205       4.663599       0.02125
  11     328.5       14.1341        4.9675       13.7609       18.7283       4.594239       0.01886
  10     361.9       14.1059        5.3733       13.2602       18.6335       4.527530       0.01688
   9     398.1       14.0719        5.7935       12.7421       18.5356       4.463693       0.01487
   8     437.6       14.0321        6.2258       12.2079       18.4336       4.401533       0.01329
   7     480.5       13.9857        6.6681       11.6595       18.3276       4.341924       0.01171
   6     533.0       13.9240        7.1837       11.0166       18.2003       4.276299       0.01056
   5     589.8       13.8532        7.7063       10.3591       18.0654       4.212148       0.00952
   4     651.6       13.7729        8.2297        9.6920       17.9217       4.148826       0.00866
   3     718.7       13.6823        8.7505        9.0182       17.7687       4.086360       0.00785
   2     792.3       13.5808        9.2605        8.3452       17.6056       4.024847       0.00705
   1     891.5       13.4374        9.8772        7.5088       17.3860       3.948548       0.00649
   0    1013.0       13.2569       10.5167        6.6041       17.1209       3.863943       0.00587



 Wavenumbers: 38000. - 50000. cm-1, ATM      1
 LEVEL PRESSURE   UPWARD FLUX   DIFDOWN FLUX  DIRDOWN FLUX  DOWNWARD FLUX   NET FLUX    HEATING RATE
          mb          W/m2          W/m2          W/m2        W/m2          W/m2       degree/day
  51    .06700        0.0072        0.0000        2.1659        2.1659       2.158735       0.00000
  50    .07753        0.0072        0.0001        2.1635        2.1635       2.156398       1.87347
  49    .09103        0.0071        0.0002        2.1600        2.1601       2.153059       2.08688
  48    0.1069        0.0070        0.0002        2.1554        2.1557       2.148665       2.33901
  47    0.1255        0.0069        0.0004        2.1494        2.1498       2.142878       2.62370
  46    0.1487        0.0068        0.0005        2.1408        2.1413       2.134481       3.06055
  45    0.1794        0.0067        0.0007        2.1275        2.1282       2.121551       3.54978
  44    0.2165        0.0065        0.0009        2.1099        2.1108       2.104305       3.92317
  43    0.2613        0.0063        0.0011        2.0865        2.0876       2.081345       4.32773
  42    0.3336        0.0060        0.0015        2.0433        2.0448       2.038825       4.95740
  41    0.4307        0.0056        0.0020        1.9807        1.9827       1.977108       5.36616
  40    0.5894        0.0051        0.0027        1.8688        1.8715       1.866443       5.88502
  39     1.339        0.0033        0.0040        1.2620        1.2660       1.262726       6.79676
  38     1.782        0.0026        0.0038        0.9454        0.9492       0.946622       6.01811
  37     2.292        0.0020        0.0033        0.6659        0.6692       0.667180       4.62829
  36     2.964        0.0015        0.0027        0.4331        0.4359       0.434336       2.92289
  35     3.853        0.0011        0.0022        0.2712        0.2734       0.272217       1.53854
  34     5.035        0.0009        0.0017        0.1671        0.1689       0.168005       0.74445
  33     6.613        0.0006        0.0013        0.1018        0.1032       0.102517       0.35010
  32     8.786        0.0005        0.0011        0.0621        0.0631       0.062658       0.15480
  31     11.80        0.0003        0.0008        0.0361        0.0369       0.036601       0.07295
  30     15.07        0.0002        0.0006        0.0222        0.0227       0.022535       0.03632
  29     18.79        0.0001        0.0004        0.0135        0.0139       0.013785       0.01984
  28     23.16        0.0001        0.0003        0.0080        0.0083       0.008179       0.01084
  27     28.12        0.0001        0.0002        0.0046        0.0048       0.004749       0.00583
  26     33.73        0.0000        0.0001        0.0027        0.0028       0.002762       0.00299
  25     40.54        0.0000        0.0001        0.0015        0.0016       0.001538       0.00152
  24     48.69        0.0000        0.0000        0.0008        0.0008       0.000809       0.00075
  23     57.69        0.0000        0.0000        0.0004        0.0004       0.000422       0.00036
  22     68.43        0.0000        0.0000        0.0002        0.0002       0.000206       0.00017
  21     81.20        0.0000        0.0000        0.0001        0.0001       0.000094       0.00007
  20     96.49        0.0000        0.0000        0.0000        0.0000       0.000039       0.00003
  19     114.6        0.0000        0.0000        0.0000        0.0000       0.000014       0.00001
  18     136.5        0.0000        0.0000        0.0000        0.0000       0.000004       0.00000
  17     162.9        0.0000        0.0000        0.0000        0.0000       0.000001       0.00000
  16     196.4        0.0000        0.0000        0.0000        0.0000       0.000000       0.00000
  15     218.7        0.0000        0.0000        0.0000        0.0000       0.000000       0.00000
  14     243.0        0.0000        0.0000        0.0000        0.0000       0.000000       0.00000
  13     269.0        0.0000        0.0000        0.0000        0.0000       0.000000       0.00000
  12     297.5        0.0000        0.0000        0.0000        0.0000       0.000000       0.00000
  11     328.5        0.0000        0.0000        0.0000        0.0000       0.000000       0.00000
  10     361.9        0.0000        0.0000        0.0000        0.0000       0.000000       0.00000
   9     398.1        0.0000        0.0000        0.0000        0.0000       0.000000       0.00000
   8     437.6        0.0000        0.0000        0.0000        0.0000       0.000000       0.00000
   7     480.5        0.0000        0.0000        0.0000        0.0000       0.000000       0.00000
   6     533.0        0.0000        0.0000        0.0000        0.0000       0.000000       0.00000
   5     589.8        0.0000        0.0000        0.0000        0.0000       0.000000       0.00000
   4     651.6        0.0000        0.0000        0.0000        0.0000       0.000000       0.00000
   3     718.7        0.0000        0.0000        0.0000        0.0000       0.000000       0.00000
   2     792.3        0.0000        0.0000        0.0000        0.0000       0.000000       0.00000
   1     891.5        0.0000        0.0000        0.0000        0.0000       0.000000       0.00000
   0    1013.0        0.0000        0.0000        0.0000        0.0000       0.000000       0.00000



 Wavenumbers:   820. -  2600. cm-1, ATM      1
 LEVEL PRESSURE   UPWARD FLUX   DIFDOWN FLUX  DIRDOWN FLUX  DOWNWARD FLUX   NET FLUX    HEATING RATE
          mb          W/m2          W/m2          W/m2        W/m2          W/m2       degree/day
  51    .06700        0.3560        0.0000       10.1320       10.1320       9.775958       0.00000
  50    .07753        0.3560        0.0000       10.1262       10.1262       9.770167       4.64147
  49    .09103        0.3560        0.0000       10.1250       10.1250       9.769009       0.72361
  48    0.1069        0.3560        0.0000       10.1240       10.1240       9.767956       0.56043
  47    0.1255        0.3560        0.0000       10.1228       10.1228       9.766731       0.55539
  46    0.1487        0.3560        0.0000       10.1212       10.1212       9.765181       0.56506
  45    0.1794        0.3560        0.0000       10.1191       10.1191       9.763112       0.56800
  44    0.2165        0.3560        0.0000       10.1168       10.1168       9.760774       0.53186
  43    0.2613        0.3560        0.0000       10.1142       10.1142       9.758182       0.48866
  42    0.3336        0.3560        0.0000       10.1104       10.1104       9.754320       0.45019
  41    0.4307        0.3560        0.0000       10.1059       10.1059       9.749839       0.38965
  40    0.5894        0.3560        0.0000       10.0993       10.0993       9.743307       0.34734
  39     1.339        0.3560        0.0000       10.0701       10.0701       9.714040       0.32950
  38     1.782        0.3560        0.0000       10.0534       10.0534       9.697374       0.31729
  37     2.292        0.3560        0.0000       10.0347       10.0347       9.678657       0.31000
  36     2.964        0.3560        0.0000       10.0107       10.0107       9.654666       0.30116
  35     3.853        0.3560        0.0000        9.9798        9.9798       9.623740       0.29349
  34     5.035        0.3560        0.0000        9.9404        9.9404       9.584314       0.28164
  33     6.613        0.3560        0.0000        9.8909        9.8909       9.534866       0.26435
  32     8.786        0.3560        0.0000        9.8283        9.8283       9.472259       0.24314
  31     11.80        0.3561        0.0000        9.7449        9.7449       9.388896       0.23339
  30     15.07        0.3561        0.0000        9.6649        9.6649       9.308836       0.20670
  29     18.79        0.3561        0.0000        9.5889        9.5889       9.232865       0.17225
  28     23.16        0.3561        0.0000        9.5204        9.5204       9.164294       0.13259
  27     28.12        0.3561        0.0000        9.4639        9.4639       9.107816       0.09601
  26     33.73        0.3561        0.0000        9.4193        9.4193       9.063241       0.06702
  25     40.54        0.3561        0.0000        9.3795        9.3795       9.023439       0.04938
  24     48.69        0.3561        0.0000        9.3396        9.3396       8.983493       0.04134
  23     57.69        0.3561        0.0000        9.2986        9.2987       8.942530       0.03840
  22     68.43        0.3561        0.0000        9.2513        9.2513       8.895192       0.03721
  21     81.20        0.3562        0.0000        9.1965        9.1965       8.840337       0.03625
  20     96.49        0.3562        0.0000        9.1324        9.1325       8.776262       0.03536
  19     114.6        0.3562        0.0000        9.0563        9.0563       8.700100       0.03556
  18     136.5        0.3563        0.0000        8.9601        8.9601       8.603867       0.03700
  17     162.9        0.3563        0.0000        8.8186        8.8187       8.462312       0.04525
  16     196.4        0.3565        0.0000        8.5770        8.5770       8.220493       0.06087
  15     218.7        0.3566        0.0000        8.3980        8.3980       8.041382       0.06800
  14     243.0        0.3568        0.0000        8.1555        8.1555       7.798741       0.08416
  13     269.0        0.3570        0.0000        7.8250        7.8250       7.467982       0.10730
  12     297.5        0.3575        0.0000        7.4838        7.4838       7.126342       0.10133
  11     328.5        0.3582        0.0000        7.1141        7.1141       6.755934       0.10071
  10     361.9        0.3593        0.0000        6.6568        6.6569       6.297557       0.11597
   9     398.1        0.3609        0.0000        6.1584        6.1584       5.797563       0.11649
   8     437.6        0.3630        0.0000        5.7053        5.7053       5.342252       0.09735
   7     480.5        0.3661        0.0000        5.3605        5.3606       4.994449       0.06831
   6     533.0        0.3712        0.0000        5.0796        5.0796       4.708432       0.04601
   5     589.8        0.3785        0.0000        4.8079        4.8079       4.429464       0.04141
   4     651.6        0.3892        0.0000        4.5087        4.5088       4.119584       0.04238
   3     718.7        0.4035        0.0000        4.2179        4.2180       3.814505       0.03834
   2     792.3        0.4213        0.0000        3.9625        3.9626       3.541231       0.03134
   1     891.5        0.4519        0.0000        3.6759        3.6759       3.224057       0.02699
   0    1013.0        0.5115        0.0000        3.3406        3.3406       2.829171       0.02742

  Modules and versions used in this calculation:

       rrtmg_sw.1col.f90:  $Revision$                    rrtmg_sw_init.f90:  $Revision$        
     rrtmgsw_cldprop.f90:  $Revision$                  rrtmgsw_cldprmc.f90:  NOT USED          
     rrtmg_sw_reftra.f90:  $Revision$                  rrtmg_sw_spcvrt.f90:  NOT USED          
     rrtmg_sw_spcvmc.f90:  NOT USED                    rrtmgsw_setcoef.f90:  NOT USED          
     rrtmg_sw_taumol.f90:  $Revision$                  rrtmg_sw_vrtqdr.f90:  NOT USED          
                rrtatm.f:  NOT USED                             util_xxx.f:  NOT USED          
                 extra.f:  NOT USED                       rrtmg_sw_k_g.f90:  $Revision$        

