

 Wavenumbers:   820. - 50000. cm-1, ATM      1
 LEVEL PRESSURE   UPWARD FLUX   DIFDOWN FLUX  DIRDOWN FLUX  DOWNWARD FLUX   NET FLUX    HEATING RATE
          mb          W/m2          W/m2          W/m2        W/m2          W/m2       degree/day
  51    .06700      174.0821        0.0000      397.8738      397.8738     223.791717       0.00000
  50    .07753      174.0814        0.0011      397.8578      397.8589     223.777491      11.40244
  49    .09103      174.0807        0.0026      397.8420      397.8445     223.763884       8.50454
  48    0.1069      174.0798        0.0042      397.8232      397.8274     223.747628       8.65302
  47    0.1255      174.0788        0.0061      397.7999      397.8061     223.727291       9.21999
  46    0.1487      174.0776        0.0085      397.7680      397.7765     223.698970      10.32348
  45    0.1794      174.0759        0.0118      397.7210      397.7328     223.656867      11.55809
  44    0.2165      174.0741        0.0156      397.6609      397.6765     223.602454      12.37807
  43    0.2613      174.0720        0.0201      397.5838      397.6039     223.531953      13.28913
  42    0.3336      174.0687        0.0276      397.4461      397.4737     223.405032      14.79780
  41    0.4307      174.0645        0.0374      397.2541      397.2914     223.226893      15.48875
  40    0.5894      174.0583        0.0530      396.9277      396.9807     222.922423      16.19134
  39     1.339      174.0394        0.1231      395.4308      395.5539     221.514561      15.84996
  38     1.782      174.0351        0.1624      394.7358      394.8982     220.863160      12.40163
  37     2.292      174.0360        0.2070      394.0660      394.2731     220.237032      10.37031
  36     2.964      174.0461        0.2650      393.3118      393.5768     219.530667       8.86702
  35     3.853      174.0717        0.3407      392.4457      392.7864     218.714773       7.74298
  34     5.035      174.1177        0.4404      391.4613      391.9017     217.784003       6.64903
  33     6.613      174.1859        0.5723      390.3478      390.9201     216.734237       5.61205
  32     8.786      174.2732        0.7487      389.0878      389.8365     215.563297       4.54751
  31     11.80      174.3780        0.9991      387.5805      388.5795     214.201505       3.81259
  30     15.07      174.4670        1.2656      386.1908      387.4564     212.989403       3.12941
  29     18.79      174.5465        1.5642      384.7904      386.3546     211.808059       2.67847
  28     23.16      174.6152        1.9101      383.3140      385.2241     210.608876       2.31883
  27     28.12      174.6656        2.3023      381.7836      384.0860     209.420369       2.02038
  26     33.73      174.6804        2.7380      380.2540      382.9920     208.311537       1.66716
  25     40.54      174.6503        3.2602      378.5996      381.8599     207.209608       1.36707
  24     48.69      174.5680        3.8842      376.7884      380.6726     206.104600       1.14351
  23     57.69      174.4337        4.5628      374.9682      379.5310     205.097308       0.94418
  22     68.43      174.2267        5.3625      372.9774      378.3399     204.113270       0.77359
  21     81.20      173.9150        6.3048      370.8322      377.1370     203.221954       0.58897
  20     96.49      173.4854        7.4128      368.4934      375.9061     202.420773       0.44219
  19     114.6      172.9569        8.7062      365.8479      374.5541     201.597173       0.38456
  18     136.5      172.3197       10.2073      362.8335      373.0407     200.721031       0.33690
  17     162.9      171.5567       11.9509      359.3151      371.2659     199.709178       0.32343
  16     196.4      170.5474       14.1470      354.7843      368.9313     198.383966       0.33357
  15     218.7      169.8831       15.5504      351.7315      367.2819     197.398825       0.37402
  14     243.0      169.1666       17.0419      348.1325      365.1744     196.007803       0.48245
  13     269.0      168.3979       18.6196      343.5670      362.1866     193.788745       0.71985
  12     297.5      167.5777       20.2810      338.2521      358.5330     190.955348       0.84035
  11     328.5      166.7091       22.0274      332.2484      354.2757     187.566608       0.92139
  10     361.9      165.7954       23.8531      325.5485      349.4016     183.606289       1.00200
   9     398.1      164.8378       25.7574      318.3015      344.0589     179.221165       1.02164
   8     437.6      163.8422       27.7351      310.5492      338.2843     174.442120       1.02179
   7     480.5      162.8177       29.7802      302.1624      331.9426     169.124985       1.04427
   6     533.0      161.6201       32.1981      292.2004      324.3986     162.778456       1.02095
   5     589.8      160.4131       34.6889      282.0706      316.7595     156.346387       0.95473
   4     651.6      159.2208       37.2397      271.7782      309.0180     149.797209       0.89562
   3     718.7      158.0581       39.8401      261.5761      301.4162     143.358076       0.80922
   2     792.3      156.9416       42.4775      251.6185      294.0960     137.154420       0.71149
   1     891.5      155.6753       45.8091      239.3034      285.1124     129.437102       0.65671
   0    1013.0      154.6690       49.4925      225.4664      274.9589     120.289932       0.63513



 Wavenumbers:  2600. -  3250. cm-1, ATM      1
 LEVEL PRESSURE   UPWARD FLUX   DIFDOWN FLUX  DIRDOWN FLUX  DOWNWARD FLUX   NET FLUX    HEATING RATE
          mb          W/m2          W/m2          W/m2        W/m2          W/m2       degree/day
  51    .06700        0.3067        0.0000        3.5066        3.5066       3.199894       0.00000
  50    .07753        0.3067        0.0000        3.5066        3.5066       3.199886       0.00640
  49    .09103        0.3067        0.0000        3.5066        3.5066       3.199876       0.00627
  48    0.1069        0.3067        0.0000        3.5066        3.5066       3.199864       0.00613
  47    0.1255        0.3067        0.0000        3.5066        3.5066       3.199851       0.00599
  46    0.1487        0.3067        0.0000        3.5066        3.5066       3.199835       0.00607
  45    0.1794        0.3067        0.0000        3.5065        3.5065       3.199812       0.00624
  44    0.2165        0.3067        0.0000        3.5065        3.5065       3.199785       0.00611
  43    0.2613        0.3067        0.0000        3.5065        3.5065       3.199753       0.00598
  42    0.3336        0.3067        0.0000        3.5064        3.5064       3.199701       0.00615
  41    0.4307        0.3067        0.0000        3.5064        3.5064       3.199629       0.00618
  40    0.5894        0.3067        0.0000        3.5062        3.5062       3.199510       0.00633
  39     1.339        0.3067        0.0000        3.5055        3.5055       3.198812       0.00787
  38     1.782        0.3067        0.0000        3.5050        3.5050       3.198281       0.01011
  37     2.292        0.3067        0.0000        3.5043        3.5043       3.197588       0.01147
  36     2.964        0.3067        0.0000        3.5033        3.5033       3.196597       0.01245
  35     3.853        0.3067        0.0000        3.5019        3.5019       3.195220       0.01307
  34     5.035        0.3067        0.0000        3.5001        3.5001       3.193359       0.01329
  33     6.613        0.3067        0.0000        3.4977        3.4977       3.190949       0.01288
  32     8.786        0.3067        0.0000        3.4947        3.4947       3.187978       0.01154
  31     11.80        0.3067        0.0000        3.4911        3.4911       3.184343       0.01018
  30     15.07        0.3067        0.0000        3.4878        3.4878       3.181122       0.00832
  29     18.79        0.3067        0.0000        3.4848        3.4848       3.178059       0.00695
  28     23.16        0.3067        0.0000        3.4816        3.4816       3.174839       0.00623
  27     28.12        0.3067        0.0000        3.4779        3.4779       3.171221       0.00615
  26     33.73        0.3067        0.0000        3.4735        3.4735       3.166754       0.00672
  25     40.54        0.3067        0.0000        3.4671        3.4671       3.160428       0.00785
  24     48.69        0.3067        0.0000        3.4582        3.4583       3.151532       0.00921
  23     57.69        0.3067        0.0000        3.4472        3.4472       3.140484       0.01036
  22     68.43        0.3067        0.0000        3.4329        3.4329       3.126223       0.01121
  21     81.20        0.3067        0.0000        3.4152        3.4152       3.108493       0.01172
  20     96.49        0.3067        0.0000        3.3940        3.3941       3.087347       0.01167
  19     114.6        0.3067        0.0000        3.3693        3.3694       3.062620       0.01155
  18     136.5        0.3068        0.0001        3.3423        3.3423       3.035578       0.01040
  17     162.9        0.3068        0.0001        3.3135        3.3136       3.006789       0.00920
  16     196.4        0.3068        0.0001        3.2807        3.2808       2.973972       0.00826
  15     218.7        0.3069        0.0001        3.2602        3.2603       2.953350       0.00783
  14     243.0        0.3070        0.0001        3.2357        3.2358       2.928752       0.00853
  13     269.0        0.3072        0.0001        3.2031        3.2032       2.896064       0.01060
  12     297.5        0.3074        0.0001        3.1597        3.1598       2.852398       0.01295
  11     328.5        0.3078        0.0001        3.0999        3.1000       2.792211       0.01636
  10     361.9        0.3083        0.0001        3.0181        3.0182       2.709910       0.02082
   9     398.1        0.3091        0.0001        2.9121        2.9122       2.603136       0.02488
   8     437.6        0.3101        0.0001        2.7801        2.7803       2.470148       0.02843
   7     480.5        0.3117        0.0001        2.6232        2.6234       2.311707       0.03112
   6     533.0        0.3143        0.0002        2.4311        2.4313       2.117004       0.03132
   5     589.8        0.3180        0.0002        2.2413        2.2415       1.923484       0.02872
   4     651.6        0.3233        0.0002        2.0479        2.0481       1.724790       0.02717
   3     718.7        0.3304        0.0002        1.8558        1.8560       1.525549       0.02504
   2     792.3        0.3397        0.0002        1.6764        1.6766       1.336879       0.02164
   1     891.5        0.3555        0.0002        1.4720        1.4721       1.116584       0.01875
   0    1013.0        0.3839        0.0002        1.2585        1.2587       0.874791       0.01679



 Wavenumbers:  3250. -  4000. cm-1, ATM      1
 LEVEL PRESSURE   UPWARD FLUX   DIFDOWN FLUX  DIRDOWN FLUX  DOWNWARD FLUX   NET FLUX    HEATING RATE
          mb          W/m2          W/m2          W/m2        W/m2          W/m2       degree/day
  51    .06700        0.0005        0.0000        5.9117        5.9117       5.911155       0.00000
  50    .07753        0.0005        0.0000        5.9075        5.9075       5.906994       3.33509
  49    .09103        0.0005        0.0000        5.9051        5.9051       5.904584       1.50605
  48    0.1069        0.0005        0.0000        5.9032        5.9032       5.902750       0.97622
  47    0.1255        0.0005        0.0000        5.9015        5.9015       5.901024       0.78270
  46    0.1487        0.0005        0.0000        5.8997        5.8997       5.899171       0.67531
  45    0.1794        0.0005        0.0000        5.8976        5.8976       5.897066       0.57791
  44    0.2165        0.0005        0.0000        5.8955        5.8955       5.894998       0.47045
  43    0.2613        0.0005        0.0000        5.8934        5.8934       5.892898       0.39579
  42    0.3336        0.0005        0.0000        5.8903        5.8903       5.889835       0.35708
  41    0.4307        0.0005        0.0000        5.8866        5.8866       5.886126       0.32248
  40    0.5894        0.0005        0.0000        5.8810        5.8810       5.880504       0.29902
  39     1.339        0.0005        0.0000        5.8609        5.8609       5.860369       0.22667
  38     1.782        0.0005        0.0000        5.8526        5.8526       5.852097       0.15749
  37     2.292        0.0005        0.0000        5.8446        5.8446       5.844097       0.13251
  36     2.964        0.0005        0.0000        5.8352        5.8352       5.834697       0.11800
  35     3.853        0.0005        0.0000        5.8233        5.8233       5.822849       0.11244
  34     5.035        0.0005        0.0000        5.8077        5.8077       5.807189       0.11187
  33     6.613        0.0005        0.0000        5.7864        5.7864       5.785900       0.11381
  32     8.786        0.0005        0.0000        5.7568        5.7568       5.756362       0.11472
  31     11.80        0.0005        0.0000        5.7136        5.7136       5.713102       0.12111
  30     15.07        0.0005        0.0000        5.6669        5.6669       5.666403       0.12057
  29     18.79        0.0005        0.0000        5.6153        5.6154       5.614897       0.11678
  28     23.16        0.0005        0.0000        5.5588        5.5588       5.558380       0.10929
  27     28.12        0.0005        0.0000        5.5002        5.5003       5.499796       0.09959
  26     33.73        0.0005        0.0000        5.4418        5.4418       5.441392       0.08781
  25     40.54        0.0004        0.0001        5.3783        5.3783       5.377895       0.07877
  24     48.69        0.0004        0.0001        5.3071        5.3072       5.306743       0.07363
  23     57.69        0.0004        0.0001        5.2315        5.2316       5.231203       0.07081
  22     68.43        0.0004        0.0001        5.1434        5.1435       5.143060       0.06929
  21     81.20        0.0004        0.0001        5.0417        5.0418       5.041416       0.06716
  20     96.49        0.0004        0.0001        4.9273        4.9275       4.927082       0.06310
  19     114.6        0.0004        0.0001        4.7963        4.7965       4.796118       0.06115
  18     136.5        0.0003        0.0002        4.6516        4.6518       4.651466       0.05562
  17     162.9        0.0003        0.0002        4.4738        4.4740       4.473729       0.05681
  16     196.4        0.0003        0.0002        4.2081        4.2083       4.208075       0.06687
  15     218.7        0.0002        0.0002        4.0173        4.0176       4.017330       0.07242
  14     243.0        0.0002        0.0002        3.7801        3.7804       3.780153       0.08226
  13     269.0        0.0002        0.0002        3.4395        3.4398       3.439560       0.11049
  12     297.5        0.0002        0.0002        3.0202        3.0205       3.020291       0.12435
  11     328.5        0.0002        0.0002        2.5719        2.5722       2.572005       0.12189
  10     361.9        0.0001        0.0002        2.1586        2.1589       2.158715       0.10457
   9     398.1        0.0001        0.0002        1.8000        1.8002       1.800054       0.08356
   8     437.6        0.0001        0.0002        1.4798        1.4800       1.479908       0.06845
   7     480.5        0.0001        0.0002        1.1784        1.1785       1.178425       0.05921
   6     533.0        0.0001        0.0001        0.8686        0.8687       0.868626       0.04984
   5     589.8        0.0001        0.0001        0.5979        0.5980       0.597869       0.04019
   4     651.6        0.0001        0.0001        0.3788        0.3789       0.378749       0.02997
   3     718.7        0.0002        0.0001        0.2195        0.2196       0.219433       0.02002
   2     792.3        0.0003        0.0000        0.1116        0.1117       0.111438       0.01239
   1     891.5        0.0005        0.0000        0.0356        0.0356       0.035144       0.00649
   0    1013.0        0.0015        0.0000        0.0051        0.0051       0.003519       0.00220



 Wavenumbers:  4000. -  4650. cm-1, ATM      1
 LEVEL PRESSURE   UPWARD FLUX   DIFDOWN FLUX  DIRDOWN FLUX  DOWNWARD FLUX   NET FLUX    HEATING RATE
          mb          W/m2          W/m2          W/m2        W/m2          W/m2       degree/day
  51    .06700        1.2438        0.0000        6.9421        6.9421       5.698227       0.00000
  50    .07753        1.2438        0.0000        6.9421        6.9421       5.698226       0.00080
  49    .09103        1.2438        0.0000        6.9421        6.9421       5.698225       0.00078
  48    0.1069        1.2438        0.0000        6.9421        6.9421       5.698223       0.00076
  47    0.1255        1.2438        0.0000        6.9421        6.9421       5.698222       0.00074
  46    0.1487        1.2438        0.0000        6.9421        6.9421       5.698220       0.00075
  45    0.1794        1.2438        0.0000        6.9421        6.9421       5.698217       0.00078
  44    0.2165        1.2438        0.0000        6.9421        6.9421       5.698213       0.00076
  43    0.2613        1.2438        0.0000        6.9420        6.9420       5.698209       0.00074
  42    0.3336        1.2438        0.0000        6.9420        6.9420       5.698203       0.00077
  41    0.4307        1.2438        0.0000        6.9420        6.9420       5.698194       0.00077
  40    0.5894        1.2438        0.0000        6.9420        6.9420       5.698179       0.00079
  39     1.339        1.2438        0.0000        6.9419        6.9419       5.698090       0.00100
  38     1.782        1.2438        0.0000        6.9418        6.9419       5.698021       0.00132
  37     2.292        1.2438        0.0000        6.9418        6.9418       5.697927       0.00155
  36     2.964        1.2438        0.0000        6.9416        6.9416       5.697787       0.00175
  35     3.853        1.2438        0.0000        6.9414        6.9414       5.697581       0.00196
  34     5.035        1.2438        0.0000        6.9411        6.9411       5.697275       0.00218
  33     6.613        1.2438        0.0000        6.9406        6.9406       5.696827       0.00240
  32     8.786        1.2438        0.0000        6.9399        6.9400       5.696166       0.00257
  31     11.80        1.2438        0.0000        6.9389        6.9389       5.695130       0.00290
  30     15.07        1.2438        0.0001        6.9377        6.9377       5.693918       0.00313
  29     18.79        1.2438        0.0001        6.9362        6.9362       5.692457       0.00331
  28     23.16        1.2438        0.0001        6.9343        6.9344       5.690651       0.00349
  27     28.12        1.2438        0.0001        6.9321        6.9322       5.688475       0.00370
  26     33.73        1.2437        0.0001        6.9294        6.9295       5.685804       0.00402
  25     40.54        1.2437        0.0002        6.9258        6.9259       5.682203       0.00447
  24     48.69        1.2437        0.0002        6.9210        6.9211       5.677438       0.00493
  23     57.69        1.2437        0.0002        6.9153        6.9155       5.671831       0.00525
  22     68.43        1.2437        0.0003        6.9083        6.9085       5.664863       0.00548
  21     81.20        1.2437        0.0003        6.8997        6.9000       5.656343       0.00563
  20     96.49        1.2437        0.0004        6.8893        6.8897       5.646055       0.00568
  19     114.6        1.2436        0.0004        6.8765        6.8769       5.633299       0.00596
  18     136.5        1.2437        0.0005        6.8611        6.8616       5.617940       0.00591
  17     162.9        1.2437        0.0006        6.8420        6.8427       5.598940       0.00607
  16     196.4        1.2438        0.0007        6.8156        6.8164       5.572557       0.00664
  15     218.7        1.2440        0.0008        6.7965        6.7973       5.553346       0.00729
  14     243.0        1.2442        0.0009        6.7725        6.7734       5.529288       0.00834
  13     269.0        1.2445        0.0010        6.7399        6.7409       5.496364       0.01068
  12     297.5        1.2451        0.0011        6.6961        6.6972       5.452159       0.01311
  11     328.5        1.2460        0.0012        6.6354        6.6366       5.390666       0.01672
  10     361.9        1.2471        0.0013        6.5543        6.5557       5.308549       0.02078
   9     398.1        1.2486        0.0014        6.4536        6.4551       5.206465       0.02378
   8     437.6        1.2505        0.0016        6.3363        6.3379       5.087328       0.02547
   7     480.5        1.2532        0.0017        6.2033        6.2050       4.951797       0.02662
   6     533.0        1.2573        0.0018        6.0323        6.0341       4.776754       0.02816
   5     589.8        1.2632        0.0020        5.8266        5.8285       4.565288       0.03139
   4     651.6        1.2717        0.0021        5.5805        5.5826       4.310908       0.03479
   3     718.7        1.2831        0.0022        5.3210        5.3233       4.040163       0.03403
   2     792.3        1.2978        0.0024        5.0767        5.0791       3.781280       0.02969
   1     891.5        1.3227        0.0025        4.7935        4.7960       3.473292       0.02621
   0    1013.0        1.3667        0.0027        4.4787        4.4814       3.114731       0.02490



 Wavenumbers:  4650. -  5150. cm-1, ATM      1
 LEVEL PRESSURE   UPWARD FLUX   DIFDOWN FLUX  DIRDOWN FLUX  DOWNWARD FLUX   NET FLUX    HEATING RATE
          mb          W/m2          W/m2          W/m2        W/m2          W/m2       degree/day
  51    .06700        0.8362        0.0000        6.5710        6.5710       5.734828       0.00000
  50    .07753        0.8362        0.0000        6.5708        6.5708       5.734592       0.18885
  49    .09103        0.8362        0.0000        6.5705        6.5705       5.734298       0.18360
  48    0.1069        0.8362        0.0000        6.5701        6.5701       5.733964       0.17804
  47    0.1255        0.8362        0.0000        6.5697        6.5697       5.733584       0.17236
  46    0.1487        0.8362        0.0000        6.5693        6.5693       5.733110       0.17266
  45    0.1794        0.8362        0.0000        6.5686        6.5686       5.732474       0.17471
  44    0.2165        0.8362        0.0000        6.5679        6.5679       5.731736       0.16785
  43    0.2613        0.8362        0.0000        6.5670        6.5670       5.730883       0.16076
  42    0.3336        0.8362        0.0000        6.5657        6.5657       5.729520       0.15892
  41    0.4307        0.8362        0.0000        6.5640        6.5640       5.727798       0.14969
  40    0.5894        0.8362        0.0000        6.5613        6.5613       5.725183       0.13910
  39     1.339        0.8362        0.0000        6.5516        6.5516       5.715407       0.11006
  38     1.782        0.8362        0.0000        6.5473        6.5473       5.711192       0.08024
  37     2.292        0.8362        0.0000        6.5434        6.5435       5.707306       0.06436
  36     2.964        0.8362        0.0000        6.5395        6.5395       5.703353       0.04962
  35     3.853        0.8361        0.0000        6.5355        6.5356       5.699412       0.03740
  34     5.035        0.8361        0.0000        6.5315        6.5316       5.695412       0.02857
  33     6.613        0.8361        0.0000        6.5271        6.5272       5.691021       0.02348
  32     8.786        0.8361        0.0001        6.5216        6.5217       5.685529       0.02133
  31     11.80        0.8361        0.0001        6.5135        6.5136       5.677457       0.02260
  30     15.07        0.8361        0.0001        6.5041        6.5042       5.668095       0.02417
  29     18.79        0.8361        0.0001        6.4926        6.4927       5.656588       0.02609
  28     23.16        0.8361        0.0001        6.4779        6.4781       5.642006       0.02820
  27     28.12        0.8361        0.0002        6.4599        6.4601       5.624045       0.03053
  26     33.73        0.8360        0.0002        6.4385        6.4387       5.602630       0.03220
  25     40.54        0.8360        0.0002        6.4113        6.4115       5.575525       0.03363
  24     48.69        0.8360        0.0003        6.3776        6.3779       5.541914       0.03478
  23     57.69        0.8360        0.0003        6.3405        6.3408       5.504852       0.03474
  22     68.43        0.8360        0.0004        6.2973        6.2977       5.461697       0.03393
  21     81.20        0.8360        0.0005        6.2485        6.2489       5.412923       0.03223
  20     96.49        0.8360        0.0005        6.1951        6.1956       5.359599       0.02943
  19     114.6        0.8360        0.0006        6.1384        6.1391       5.303038       0.02641
  18     136.5        0.8361        0.0007        6.0794        6.0801       5.244021       0.02269
  17     162.9        0.8362        0.0009        6.0165        6.0174       5.181214       0.02008
  16     196.4        0.8364        0.0010        5.9406        5.9417       5.105284       0.01911
  15     218.7        0.8366        0.0012        5.8908        5.8919       5.055336       0.01896
  14     243.0        0.8368        0.0013        5.8341        5.8354       4.998547       0.01970
  13     269.0        0.8372        0.0014        5.7665        5.7679       4.930740       0.02200
  12     297.5        0.8378        0.0015        5.6837        5.6852       4.847438       0.02471
  11     328.5        0.8386        0.0017        5.5843        5.5860       4.747334       0.02722
  10     361.9        0.8398        0.0018        5.4650        5.4668       4.626999       0.03045
   9     398.1        0.8413        0.0020        5.3253        5.3273       4.485908       0.03287
   8     437.6        0.8434        0.0021        5.1629        5.1650       4.321576       0.03514
   7     480.5        0.8463        0.0022        4.9754        4.9776       4.131325       0.03736
   6     533.0        0.8508        0.0024        4.7388        4.7412       3.890381       0.03876
   5     589.8        0.8571        0.0025        4.4892        4.4917       3.634661       0.03796
   4     651.6        0.8657        0.0027        4.2334        4.2361       3.370400       0.03614
   3     718.7        0.8772        0.0028        3.9817        3.9845       3.107301       0.03306
   2     792.3        0.8921        0.0029        3.7418        3.7447       2.852614       0.02921
   1     891.5        0.9174        0.0031        3.4546        3.4577       2.540275       0.02658
   0    1013.0        0.9601        0.0032        3.1451        3.1484       2.188313       0.02444



 Wavenumbers:  5150. -  6150. cm-1, ATM      1
 LEVEL PRESSURE   UPWARD FLUX   DIFDOWN FLUX  DIRDOWN FLUX  DOWNWARD FLUX   NET FLUX    HEATING RATE
          mb          W/m2          W/m2          W/m2        W/m2          W/m2       degree/day
  51    .06700        2.2303        0.0000       16.4735       16.4735      14.243234       0.00000
  50    .07753        2.2303        0.0000       16.4735       16.4735      14.243206       0.02213
  49    .09103        2.2303        0.0000       16.4734       16.4734      14.243170       0.02252
  48    0.1069        2.2303        0.0000       16.4734       16.4734      14.243127       0.02291
  47    0.1255        2.2303        0.0000       16.4733       16.4733      14.243076       0.02328
  46    0.1487        2.2303        0.0000       16.4733       16.4733      14.243008       0.02452
  45    0.1794        2.2303        0.0000       16.4732       16.4732      14.242913       0.02620
  44    0.2165        2.2303        0.0000       16.4731       16.4731      14.242796       0.02670
  43    0.2613        2.2303        0.0000       16.4729       16.4729      14.242652       0.02707
  42    0.3336        2.2303        0.0000       16.4727       16.4727      14.242407       0.02858
  41    0.4307        2.2303        0.0000       16.4723       16.4723      14.242071       0.02924
  40    0.5894        2.2303        0.0000       16.4718       16.4718      14.241508       0.02993
  39     1.339        2.2302        0.0000       16.4690       16.4690      14.238764       0.03089
  38     1.782        2.2302        0.0000       16.4673       16.4674      14.237149       0.03075
  37     2.292        2.2302        0.0001       16.4655       16.4655      14.235292       0.03075
  36     2.964        2.2302        0.0001       16.4630       16.4631      14.232878       0.03031
  35     3.853        2.2302        0.0001       16.4598       16.4599      14.229731       0.02986
  34     5.035        2.2302        0.0001       16.4557       16.4558      14.225627       0.02932
  33     6.613        2.2301        0.0002       16.4502       16.4504      14.220280       0.02859
  32     8.786        2.2301        0.0002       16.4432       16.4434      14.213332       0.02698
  31     11.80        2.2300        0.0003       16.4336       16.4339      14.203858       0.02652
  30     15.07        2.2300        0.0004       16.4239       16.4243      14.194307       0.02466
  29     18.79        2.2299        0.0005       16.4137       16.4142      14.184255       0.02279
  28     23.16        2.2298        0.0006       16.4026       16.4032      14.173341       0.02110
  27     28.12        2.2298        0.0007       16.3909       16.3916      14.161850       0.01953
  26     33.73        2.2297        0.0009       16.3789       16.3797      14.150073       0.01771
  25     40.54        2.2296        0.0011       16.3657       16.3668      14.137215       0.01595
  24     48.69        2.2294        0.0013       16.3514       16.3527      14.123273       0.01443
  23     57.69        2.2293        0.0015       16.3375       16.3390      14.109698       0.01272
  22     68.43        2.2292        0.0018       16.3229       16.3247      14.095482       0.01118
  21     81.20        2.2290        0.0021       16.3071       16.3092      14.080223       0.01008
  20     96.49        2.2288        0.0025       16.2897       16.2922      14.063359       0.00931
  19     114.6        2.2286        0.0030       16.2696       16.2726      14.044013       0.00903
  18     136.5        2.2284        0.0035       16.2434       16.2469      14.018556       0.00979
  17     162.9        2.2281        0.0042       16.1978       16.2020      13.973907       0.01427
  16     196.4        2.2277        0.0050       16.0918       16.0969      13.869147       0.02637
  15     218.7        2.2275        0.0056       15.9616       15.9672      13.739633       0.04917
  14     243.0        2.2273        0.0061       15.7131       15.7193      13.491945       0.08591
  13     269.0        2.2272        0.0067       15.2697       15.2764      13.049199       0.14362
  12     297.5        2.2271        0.0072       14.7455       14.7527      12.525574       0.15530
  11     328.5        2.2271        0.0077       14.1091       14.1167      11.889617       0.17291
  10     361.9        2.2274        0.0081       13.3584       13.3665      11.139123       0.18988
   9     398.1        2.2278        0.0085       12.5768       12.5853      10.357460       0.18211
   8     437.6        2.2287        0.0088       11.7897       11.7985       9.569839       0.16840
   7     480.5        2.2301        0.0091       11.0224       11.0315       8.801452       0.15091
   6     533.0        2.2327        0.0095       10.2832       10.2926       8.059901       0.11929
   5     589.8        2.2370        0.0099        9.7121        9.7220       7.485061       0.08533
   4     651.6        2.2437        0.0104        9.2654        9.2758       7.032123       0.06194
   3     718.7        2.2535        0.0111        8.8952        8.9062       6.652755       0.04768
   2     792.3        2.2671        0.0118        8.5513        8.5631       6.296036       0.04091
   1     891.5        2.2924        0.0127        8.1288        8.1415       5.849062       0.03804
   0    1013.0        2.3448        0.0137        7.6767        7.6904       5.345575       0.03496



 Wavenumbers:  6150. -  7700. cm-1, ATM      1
 LEVEL PRESSURE   UPWARD FLUX   DIFDOWN FLUX  DIRDOWN FLUX  DOWNWARD FLUX   NET FLUX    HEATING RATE
          mb          W/m2          W/m2          W/m2        W/m2          W/m2       degree/day
  51    .06700        3.3614        0.0000       30.4684       30.4684      27.106967       0.00000
  50    .07753        3.3614        0.0000       30.4683       30.4683      27.106922       0.03575
  49    .09103        3.3614        0.0000       30.4683       30.4683      27.106864       0.03594
  48    0.1069        3.3614        0.0000       30.4682       30.4682      27.106797       0.03611
  47    0.1255        3.3614        0.0000       30.4681       30.4681      27.106717       0.03626
  46    0.1487        3.3614        0.0000       30.4680       30.4680      27.106613       0.03777
  45    0.1794        3.3614        0.0000       30.4679       30.4679      27.106468       0.03991
  44    0.2165        3.3614        0.0000       30.4677       30.4677      27.106291       0.04023
  43    0.2613        3.3614        0.0000       30.4675       30.4675      27.106076       0.04042
  42    0.3336        3.3614        0.0000       30.4671       30.4671      27.105713       0.04232
  41    0.4307        3.3614        0.0000       30.4666       30.4666      27.105220       0.04292
  40    0.5894        3.3614        0.0001       30.4657       30.4658      27.104398       0.04367
  39     1.339        3.3613        0.0001       30.4616       30.4617      27.100425       0.04473
  38     1.782        3.3612        0.0002       30.4591       30.4593      27.098090       0.04445
  37     2.292        3.3612        0.0002       30.4564       30.4566      27.095405       0.04448
  36     2.964        3.3611        0.0003       30.4527       30.4530      27.091908       0.04390
  35     3.853        3.3610        0.0004       30.4480       30.4484      27.087337       0.04338
  34     5.035        3.3609        0.0005       30.4417       30.4423      27.081349       0.04277
  33     6.613        3.3608        0.0007       30.4335       30.4343      27.073497       0.04198
  32     8.786        3.3606        0.0010       30.4228       30.4237      27.063188       0.04003
  31     11.80        3.3603        0.0013       30.4079       30.4092      27.048967       0.03981
  30     15.07        3.3599        0.0017       30.3926       30.3943      27.034353       0.03773
  29     18.79        3.3596        0.0021       30.3761       30.3782      27.018599       0.03572
  28     23.16        3.3591        0.0025       30.3577       30.3602      27.001092       0.03385
  27     28.12        3.3586        0.0031       30.3378       30.3408      26.982204       0.03211
  26     33.73        3.3581        0.0037       30.3167       30.3204      26.962324       0.02989
  25     40.54        3.3574        0.0044       30.2931       30.2975      26.940065       0.02762
  24     48.69        3.3566        0.0053       30.2666       30.2719      26.915307       0.02562
  23     57.69        3.3557        0.0063       30.2399       30.2462      26.890507       0.02325
  22     68.43        3.3547        0.0075       30.2111       30.2186      26.863876       0.02094
  21     81.20        3.3534        0.0088       30.1793       30.1881      26.834725       0.01926
  20     96.49        3.3519        0.0105       30.1436       30.1541      26.802192       0.01796
  19     114.6        3.3501        0.0125       30.1024       30.1149      26.764775       0.01747
  18     136.5        3.3480        0.0148       30.0498       30.0646      26.716620       0.01852
  17     162.9        3.3455        0.0176       29.9649       29.9824      26.636918       0.02548
  16     196.4        3.3423        0.0211       29.7921       29.8132      26.470913       0.04179
  15     218.7        3.3402        0.0234       29.6109       29.6343      26.294064       0.06714
  14     243.0        3.3380        0.0258       29.2765       29.3023      25.964332       0.11436
  13     269.0        3.3357        0.0281       28.6043       28.6324      25.296692       0.21658
  12     297.5        3.3335        0.0304       27.6832       27.7136      24.380024       0.27187
  11     328.5        3.3315        0.0325       26.6083       26.6408      23.309280       0.29113
  10     361.9        3.3298        0.0345       25.3428       25.3773      22.047468       0.31925
   9     398.1        3.3286        0.0362       23.9248       23.9611      20.632423       0.32967
   8     437.6        3.3284        0.0377       22.4263       22.4640      19.135612       0.32003
   7     480.5        3.3298        0.0389       20.8548       20.8937      17.563922       0.30867
   6     533.0        3.3343        0.0401       19.1529       19.1930      15.858684       0.27432
   5     589.8        3.3435        0.0412       17.6194       17.6607      14.317202       0.22881
   4     651.6        3.3596        0.0423       16.2304       16.2728      12.913137       0.19201
   3     718.7        3.3846        0.0436       15.0319       15.0755      11.690981       0.15359
   2     792.3        3.4197        0.0451       14.0274       14.0725      10.652731       0.11908
   1     891.5        3.4858        0.0472       12.9411       12.9883       9.502459       0.09788
   0    1013.0        3.6193        0.0495       11.8259       11.8754       8.256069       0.08654



 Wavenumbers:  7700. -  8050. cm-1, ATM      1
 LEVEL PRESSURE   UPWARD FLUX   DIFDOWN FLUX  DIRDOWN FLUX  DOWNWARD FLUX   NET FLUX    HEATING RATE
          mb          W/m2          W/m2          W/m2        W/m2          W/m2       degree/day
  51    .06700        1.6806        0.0000        7.2006        7.2006       5.519999       0.00000
  50    .07753        1.6806        0.0000        7.2006        7.2006       5.519980       0.01508
  49    .09103        1.6806        0.0000        7.2005        7.2005       5.519956       0.01478
  48    0.1069        1.6806        0.0000        7.2005        7.2005       5.519929       0.01446
  47    0.1255        1.6806        0.0000        7.2005        7.2005       5.519898       0.01415
  46    0.1487        1.6806        0.0000        7.2004        7.2005       5.519858       0.01436
  45    0.1794        1.6806        0.0000        7.2004        7.2004       5.519805       0.01478
  44    0.2165        1.6806        0.0000        7.2003        7.2003       5.519741       0.01450
  43    0.2613        1.6806        0.0000        7.2003        7.2003       5.519665       0.01422
  42    0.3336        1.6806        0.0000        7.2001        7.2001       5.519541       0.01455
  41    0.4307        1.6806        0.0000        7.2000        7.2000       5.519375       0.01439
  40    0.5894        1.6806        0.0000        7.1997        7.1997       5.519105       0.01438
  39     1.339        1.6807        0.0001        7.1984        7.1985       5.517826       0.01440
  38     1.782        1.6807        0.0001        7.1977        7.1978       5.517075       0.01429
  37     2.292        1.6807        0.0001        7.1968        7.1969       5.516206       0.01439
  36     2.964        1.6808        0.0001        7.1957        7.1958       5.515066       0.01432
  35     3.853        1.6808        0.0002        7.1942        7.1944       5.513560       0.01429
  34     5.035        1.6809        0.0002        7.1922        7.1925       5.511562       0.01428
  33     6.613        1.6810        0.0003        7.1896        7.1899       5.508895       0.01426
  32     8.786        1.6811        0.0004        7.1860        7.1864       5.505306       0.01394
  31     11.80        1.6813        0.0005        7.1810        7.1815       5.500184       0.01434
  30     15.07        1.6815        0.0007        7.1755        7.1762       5.494700       0.01416
  29     18.79        1.6817        0.0008        7.1694        7.1703       5.488526       0.01400
  28     23.16        1.6820        0.0010        7.1623        7.1634       5.481341       0.01389
  27     28.12        1.6823        0.0013        7.1542        7.1555       5.473162       0.01390
  26     33.73        1.6827        0.0015        7.1452        7.1467       5.464057       0.01369
  25     40.54        1.6831        0.0018        7.1344        7.1362       5.453124       0.01356
  24     48.69        1.6836        0.0022        7.1215        7.1237       5.440040       0.01354
  23     57.69        1.6842        0.0026        7.1074        7.1100       5.425792       0.01336
  22     68.43        1.6849        0.0030        7.0909        7.0939       5.408988       0.01321
  21     81.20        1.6857        0.0036        7.0713        7.0749       5.389202       0.01307
  20     96.49        1.6867        0.0042        7.0484        7.0527       5.365947       0.01283
  19     114.6        1.6879        0.0050        7.0217        7.0267       5.338778       0.01269
  18     136.5        1.6894        0.0060        6.9906        6.9965       5.307169       0.01215
  17     162.9        1.6911        0.0071        6.9544        6.9614       5.270321       0.01178
  16     196.4        1.6934        0.0085        6.9087        6.9172       5.223753       0.01172
  15     218.7        1.6950        0.0094        6.8794        6.8888       5.193810       0.01137
  14     243.0        1.6967        0.0104        6.8481        6.8585       5.161789       0.01111
  13     269.0        1.6987        0.0115        6.8147        6.8263       5.127593       0.01109
  12     297.5        1.7008        0.0127        6.7792        6.7919       5.091124       0.01082
  11     328.5        1.7032        0.0140        6.7413        6.7553       5.052056       0.01062
  10     361.9        1.7059        0.0153        6.7008        6.7162       5.010217       0.01059
   9     398.1        1.7090        0.0168        6.6574        6.6742       4.965150       0.01050
   8     437.6        1.7126        0.0183        6.6107        6.6290       4.916456       0.01041
   7     480.5        1.7166        0.0200        6.5600        6.5799       4.863275       0.01044
   6     533.0        1.7222        0.0220        6.4962        6.5182       4.796034       0.01082
   5     589.8        1.7288        0.0242        6.4256        6.4497       4.720959       0.01114
   4     651.6        1.7368        0.0265        6.3467        6.3732       4.636407       0.01156
   3     718.7        1.7464        0.0289        6.2596        6.2885       4.542099       0.01185
   2     792.3        1.7576        0.0315        6.1645        6.1960       4.438411       0.01189
   1     891.5        1.7745        0.0349        6.0329        6.0677       4.293192       0.01236
   0    1013.0        1.7985        0.0388        5.8650        5.9038       4.105241       0.01305



 Wavenumbers:  8050. - 12850. cm-1, ATM      1
 LEVEL PRESSURE   UPWARD FLUX   DIFDOWN FLUX  DIRDOWN FLUX  DOWNWARD FLUX   NET FLUX    HEATING RATE
          mb          W/m2          W/m2          W/m2        W/m2          W/m2       degree/day
  51    .06700       22.3330        0.0000      100.8135      100.8135      78.480512       0.00000
  50    .07753       22.3330        0.0000      100.8135      100.8135      78.480512       0.00000
  49    .09103       22.3330        0.0001      100.8134      100.8135      78.480512       0.00000
  48    0.1069       22.3329        0.0001      100.8134      100.8134      78.480512       0.00000
  47    0.1255       22.3329        0.0001      100.8133      100.8134      78.480512      -0.00000
  46    0.1487       22.3329        0.0002      100.8132      100.8134      78.480512       0.00000
  45    0.1794       22.3328        0.0002      100.8131      100.8133      78.480512      -0.00000
  44    0.2165       22.3327        0.0003      100.8129      100.8132      78.480512       0.00000
  43    0.2613       22.3327        0.0004      100.8127      100.8132      78.480512      -0.00000
  42    0.3336       22.3325        0.0006      100.8125      100.8130      78.480512       0.00000
  41    0.4307       22.3324        0.0008      100.8121      100.8129      78.480512       0.00000
  40    0.5894       22.3321        0.0011      100.8115      100.8126      78.480512      -0.00000
  39     1.339       22.3308        0.0028      100.8085      100.8113      78.480512       0.00000
  38     1.782       22.3300        0.0037      100.8068      100.8105      78.480512       0.00000
  37     2.292       22.3291        0.0048      100.8047      100.8096      78.480512       0.00000
  36     2.964       22.3279        0.0063      100.8021      100.8084      78.480512       0.00000
  35     3.853       22.3263        0.0082      100.7986      100.8068      78.480512      -0.00000
  34     5.035       22.3243        0.0108      100.7940      100.8048      78.480512       0.00000
  33     6.613       22.3215        0.0142      100.7878      100.8020      78.480512       0.00000
  32     8.786       22.3177        0.0188      100.7794      100.7982      78.480512       0.00000
  31     11.80       22.3124        0.0254      100.7674      100.7929      78.480512       0.00000
  30     15.07       22.3066        0.0326      100.7546      100.7871      78.480512       0.00000
  29     18.79       22.3001        0.0406      100.7400      100.7806      78.480512       0.00000
  28     23.16       22.2925        0.0500      100.7230      100.7730      78.480512      -0.00000
  27     28.12       22.2837        0.0607      100.7035      100.7642      78.480512       0.00000
  26     33.73       22.2739        0.0728      100.6817      100.7545      78.480512       0.00000
  25     40.54       22.2621        0.0874      100.6552      100.7426      78.480512       0.00000
  24     48.69       22.2478        0.1050      100.6234      100.7283      78.480512      -0.00000
  23     57.69       22.2321        0.1243      100.5883      100.7126      78.480512       0.00000
  22     68.43       22.2133        0.1474      100.5464      100.6939      78.480512       0.00000
  21     81.20       22.1910        0.1749      100.4965      100.6715      78.480512      -0.00000
  20     96.49       22.1643        0.2078      100.4370      100.6448      78.480512       0.00000
  19     114.6       22.1325        0.2469      100.3600      100.6069      78.474357       0.00287
  18     136.5       22.0948        0.2933      100.2670      100.5603      78.465480       0.00341
  17     162.9       22.0499        0.3486      100.1487      100.4973      78.447403       0.00578
  16     196.4       21.9915        0.4205       99.9697      100.3902      78.398690       0.01226
  15     218.7       21.9531        0.4677       99.8216      100.2893      78.336183       0.02373
  14     243.0       21.9114        0.5189       99.6036      100.1226      78.211168       0.04336
  13     269.0       21.8666        0.5742       99.2411       99.8153      77.948710       0.08514
  12     297.5       21.8188        0.6335       98.7427       99.3762      77.557415       0.11605
  11     328.5       21.7684        0.6971       98.0897       98.7868      77.018411       0.14655
  10     361.9       21.7161        0.7648       97.2253       97.9901      76.274008       0.18834
   9     398.1       21.6626        0.8364       96.1128       96.9492      75.286613       0.23004
   8     437.6       21.6096        0.9114       94.7110       95.6224      74.012821       0.27234
   7     480.5       21.5607        0.9891       92.9206       93.9097      72.349083       0.32675
   6     533.0       21.5135        1.0810       90.5017       91.5827      70.069250       0.36675
   5     589.8       21.4817        1.1758       87.8084       88.9842      67.502514       0.38099
   4     651.6       21.4755        1.2731       84.8790       86.1521      64.676570       0.38646
   3     718.7       21.5010        1.3738       81.8711       83.2448      61.743868       0.36856
   2     792.3       21.5634        1.4784       78.9107       80.3891      58.825773       0.33467
   1     891.5       21.7213        1.6136       75.2307       76.8442      55.122956       0.31509
   0    1013.0       22.1029        1.7636       71.0188       72.7824      50.679564       0.30853



 Wavenumbers: 12850. - 16000. cm-1, ATM      1
 LEVEL PRESSURE   UPWARD FLUX   DIFDOWN FLUX  DIRDOWN FLUX  DOWNWARD FLUX   NET FLUX    HEATING RATE
          mb          W/m2          W/m2          W/m2        W/m2          W/m2       degree/day
  51    .06700       31.4822        0.0000       63.1686       63.1686      31.686347       0.00000
  50    .07753       31.4822        0.0001       63.1677       63.1678      31.685569       0.62420
  49    .09103       31.4822        0.0001       63.1666       63.1668      31.684598       0.60652
  48    0.1069       31.4821        0.0002       63.1654       63.1656      31.683494       0.58803
  47    0.1255       31.4821        0.0003       63.1640       63.1643      31.682238       0.56945
  46    0.1487       31.4820        0.0004       63.1623       63.1627      31.680671       0.57084
  45    0.1794       31.4820        0.0006       63.1600       63.1605      31.678572       0.57632
  44    0.2165       31.4819        0.0008       63.1573       63.1581      31.676145       0.55202
  43    0.2613       31.4818        0.0010       63.1542       63.1552      31.673348       0.52735
  42    0.3336       31.4818        0.0014       63.1493       63.1506      31.668893       0.51935
  41    0.4307       31.4817        0.0019       63.1431       63.1450      31.663327       0.48398
  40    0.5894       31.4816        0.0027       63.1338       63.1365      31.654906       0.44781
  39     1.339       31.4823        0.0064       63.0956       63.1020      31.619713       0.39621
  38     1.782       31.4836        0.0087       63.0740       63.0827      31.599110       0.39224
  37     2.292       31.4859        0.0113       63.0477       63.0589      31.573048       0.43166
  36     2.964       31.4901        0.0146       63.0095       63.0242      31.534087       0.48908
  35     3.853       31.4974        0.0191       62.9533       62.9724      31.475016       0.56059
  34     5.035       31.5087        0.0250       62.8725       62.8975      31.388852       0.61552
  33     6.613       31.5247        0.0329       62.7621       62.7950      31.270312       0.63371
  32     8.786       31.5454        0.0436       62.6182       62.6618      31.116461       0.59750
  31     11.80       31.5716        0.0588       62.4284       62.4871      30.915505       0.56261
  30     15.07       31.5959        0.0750       62.2426       62.3176      30.721703       0.50036
  29     18.79       31.6199        0.0933       62.0493       62.1426      30.522735       0.45112
  28     23.16       31.6439        0.1147       61.8425       61.9571      30.313237       0.40510
  27     28.12       31.6667        0.1390       61.6278       61.7669      30.100201       0.36215
  26     33.73       31.6854        0.1662       61.4177       61.5839      29.898487       0.30328
  25     40.54       31.7003        0.1990       61.1983       61.3973      29.696993       0.24998
  24     48.69       31.7108        0.2385       60.9680       61.2065      29.495691       0.20832
  23     57.69       31.7150        0.2818       60.7478       61.0296      29.314604       0.16974
  22     68.43       31.7121        0.3333       60.5202       60.8535      29.141390       0.13617
  21     81.20       31.6979        0.3946       60.2938       60.6885      28.990603       0.09964
  20     96.49       31.6709        0.4677       60.0643       60.5320      28.861046       0.07151
  19     114.6       31.6393        0.5548       59.8078       60.3627      28.723336       0.06430
  18     136.5       31.5974        0.6579       59.5158       60.1737      28.576368       0.05651
  17     162.9       31.5432        0.7804       59.1772       59.9576      28.414378       0.05178
  16     196.4       31.4643        0.9387       58.7608       59.6995      28.235182       0.04511
  15     218.7       31.4093        1.0424       58.4954       59.5378      28.128503       0.04050
  14     243.0       31.3482        1.1549       58.2101       59.3650      28.016795       0.03874
  13     269.0       31.2806        1.2764       57.9032       59.1796      27.898985       0.03822
  12     297.5       31.2067        1.4075       57.5721       58.9796      27.772890       0.03740
  11     328.5       31.1270        1.5487       57.2108       58.7595      27.632435       0.03819
  10     361.9       31.0419        1.7002       56.8147       58.5149      27.472960       0.04035
   9     398.1       30.9518        1.8627       56.3781       58.2408      27.288995       0.04286
   8     437.6       30.8577        2.0363       55.8914       57.9277      27.069945       0.04683
   7     480.5       30.7620        2.2213       55.3385       57.5598      26.797752       0.05346
   6     533.0       30.6529        2.4470       54.6161       57.0631      26.410246       0.06234
   5     589.8       30.5480        2.6877       53.7906       56.4783      25.930373       0.07123
   4     651.6       30.4504        2.9424       52.8707       55.8131      25.362751       0.07762
   3     718.7       30.3622        3.2114       51.8752       55.0866      24.724405       0.08022
   2     792.3       30.2865        3.4944       50.8234       54.3178      24.031263       0.07950
   1     891.5       30.2220        3.8678       49.4184       53.2862      23.064137       0.08230
   0    1013.0       30.2234        4.3015       47.7182       52.0197      21.796261       0.08804



 Wavenumbers: 16000. - 22650. cm-1, ATM      1
 LEVEL PRESSURE   UPWARD FLUX   DIFDOWN FLUX  DIRDOWN FLUX  DOWNWARD FLUX   NET FLUX    HEATING RATE
          mb          W/m2          W/m2          W/m2        W/m2          W/m2       degree/day
  51    .06700       73.5986        0.0000      100.7153      100.7153      27.116694       0.00000
  50    .07753       73.5985        0.0003      100.7147      100.7151      27.116578       0.09316
  49    .09103       73.5983        0.0007      100.7140      100.7147      27.116409       0.10566
  48    0.1069       73.5982        0.0012      100.7131      100.7143      27.116183       0.12049
  47    0.1255       73.5980        0.0017      100.7121      100.7138      27.115880       0.13734
  46    0.1487       73.5978        0.0024      100.7108      100.7132      27.115433       0.16275
  45    0.1794       73.5975        0.0033      100.7089      100.7122      27.114735       0.19162
  44    0.2165       73.5972        0.0044      100.7066      100.7110      27.113788       0.21536
  43    0.2613       73.5969        0.0057      100.7037      100.7094      27.112504       0.24211
  42    0.3336       73.5965        0.0079      100.6987      100.7066      27.110062       0.28471
  41    0.4307       73.5961        0.0107      100.6918      100.7025      27.106381       0.32004
  40    0.5894       73.5958        0.0154      100.6797      100.6951      27.099362       0.37330
  39     1.339       73.5994        0.0374      100.6095      100.6470      27.047510       0.58376
  38     1.782       73.6055        0.0504      100.5585      100.6089      27.003352       0.84069
  37     2.292       73.6162        0.0654      100.4903      100.5556      26.939454       1.05831
  36     2.964       73.6358        0.0850      100.3868      100.4718      26.835989       1.29880
  35     3.853       73.6696        0.1109      100.2306      100.3415      26.671937       1.55688
  34     5.035       73.7223        0.1453      100.0045      100.1498      26.427457       1.74646
  33     6.613       73.7968        0.1912       99.6939       99.8850      26.088239       1.81346
  32     8.786       73.8931        0.2528       99.2881       99.5408      25.647771       1.71062
  31     11.80       74.0156        0.3406       98.7496       99.0902      25.074667       1.60451
  30     15.07       74.1294        0.4346       98.2198       98.6544      24.525076       1.41894
  29     18.79       74.2420        0.5404       97.6651       98.2055      23.963560       1.27313
  28     23.16       74.3552        0.6635       97.0671       97.7307      23.375499       1.13712
  27     28.12       74.4631        0.8038       96.4406       97.2443      22.781175       1.01031
  26     33.73       74.5532        0.9602       95.8179       96.7780      22.224868       0.83642
  25     40.54       74.6263        1.1485       95.1548       96.3033      21.676957       0.67975
  24     48.69       74.6801        1.3746       94.4420       95.8166      21.136488       0.55930
  23     57.69       74.7058        1.6219       93.7416       95.3635      20.657697       0.44879
  22     68.43       74.7008        1.9153       92.9954       94.9106      20.209847       0.35207
  21     81.20       74.6458        2.2634       92.2231       94.4865      19.840695       0.24393
  20     96.49       74.5352        2.6762       91.4110       94.0872      19.552019       0.15933
  19     114.6       74.3816        3.1629       90.5070       93.6700      19.288366       0.12311
  18     136.5       74.1852        3.7350       89.4803       93.2152      19.030008       0.09935
  17     162.9       73.9391        4.4092       88.3022       92.7114      18.772334       0.08236
  16     196.4       73.5923        5.2734       86.8607       92.1340      18.541737       0.05804
  15     218.7       73.3552        5.8346       85.9493       91.7839      18.428660       0.04293
  14     243.0       73.0941        6.4390       84.9791       91.4181      18.324046       0.03628
  13     269.0       72.8078        7.0875       83.9497       91.0372      18.229468       0.03068
  12     297.5       72.4956        7.7809       82.8599       90.6408      18.145143       0.02501
  11     328.5       72.1587        8.5215       81.7000       90.2215      18.062781       0.02239
  10     361.9       71.7971        9.3091       80.4701       89.7792      17.982054       0.02042
   9     398.1       71.4098       10.1454       79.1664       89.3118      17.901992       0.01865
   8     437.6       70.9972       11.0307       77.7862       88.8169      17.819710       0.01759
   7     480.5       70.5593       11.9652       76.3269       88.2921      17.732827       0.01706
   6     533.0       70.0274       13.0954       74.5569       87.6523      17.624906       0.01736
   5     589.8       69.4639       14.2890       72.6784       86.9674      17.503521       0.01802
   4     651.6       68.8708       15.5441       70.6905       86.2346      17.363830       0.01910
   3     718.7       68.2483       16.8582       68.5976       85.4558      17.207560       0.01964
   2     792.3       67.5988       18.2264       66.4070       84.6335      17.034667       0.01983
   1     891.5       66.7530       20.0086       63.5297       83.5383      16.785297       0.02122
   0    1013.0       65.7849       22.0562       60.1830       82.2392      16.454299       0.02298



 Wavenumbers: 22650. - 29000. cm-1, ATM      1
 LEVEL PRESSURE   UPWARD FLUX   DIFDOWN FLUX  DIRDOWN FLUX  DOWNWARD FLUX   NET FLUX    HEATING RATE
          mb          W/m2          W/m2          W/m2        W/m2          W/m2       degree/day
  51    .06700       32.0556        0.0000       38.0063       38.0063       5.950641       0.00000
  50    .07753       32.0555        0.0004       38.0057       38.0061       5.950641       0.00000
  49    .09103       32.0553        0.0009       38.0050       38.0059       5.950641      -0.00000
  48    0.1069       32.0550        0.0014       38.0042       38.0056       5.950641       0.00000
  47    0.1255       32.0547        0.0020       38.0033       38.0054       5.950641      -0.00000
  46    0.1487       32.0544        0.0028       38.0022       38.0050       5.950641       0.00000
  45    0.1794       32.0539        0.0039       38.0006       38.0045       5.950641       0.00000
  44    0.2165       32.0533        0.0052       37.9987       38.0039       5.950641      -0.00000
  43    0.2613       32.0526        0.0067       37.9965       38.0032       5.950641      -0.00000
  42    0.3336       32.0514        0.0092       37.9928       38.0021       5.950641       0.00000
  41    0.4307       32.0499        0.0125       37.9880       38.0005       5.950641      -0.00000
  40    0.5894       32.0474        0.0180       37.9800       37.9980       5.950641       0.00000
  39     1.339       32.0356        0.0437       37.9425       37.9862       5.950641       0.00000
  38     1.782       32.0286        0.0588       37.9204       37.9793       5.950641       0.00000
  37     2.292       32.0206        0.0763       37.8949       37.9712       5.950641      -0.00000
  36     2.964       32.0101        0.0993       37.8614       37.9607       5.950641       0.00000
  35     3.853       31.9961        0.1296       37.8172       37.9468       5.950641       0.00000
  34     5.035       31.9777        0.1697       37.7586       37.9283       5.950641      -0.00000
  33     6.613       31.9530        0.2234       37.6803       37.9037       5.950641       0.00000
  32     8.786       31.9199        0.2955       37.5750       37.8705       5.950641       0.00000
  31     11.80       31.8725        0.3983       37.4249       37.8232       5.950641       0.00000
  30     15.07       31.8219        0.5083       37.2642       37.7725       5.950641       0.00000
  29     18.79       31.7648        0.6321       37.0833       37.7155       5.950641       0.00000
  28     23.16       31.6984        0.7761       36.8730       37.6491       5.950641       0.00000
  27     28.12       31.6228        0.9397       36.6338       37.5735       5.950641       0.00000
  26     33.73       31.5387        1.1217       36.3677       37.4894       5.950641      -0.00000
  25     40.54       31.4377        1.3398       36.0486       37.3884       5.950641       0.00000
  24     48.69       31.3169        1.6003       35.6672       37.2675       5.950641       0.00000
  23     57.69       31.1854        1.8833       35.2527       37.1360       5.950641      -0.00000
  22     68.43       31.0303        2.2160       34.7649       36.9810       5.950641       0.00000
  21     81.20       30.8480        2.6064       34.1922       36.7986       5.950641      -0.00000
  20     96.49       30.6339        3.0628       33.5217       36.5846       5.950641       0.00000
  19     114.6       30.3844        3.5927       32.7424       36.3351       5.950641      -0.00000
  18     136.5       30.0951        4.2041       31.8416       36.0457       5.950641       0.00000
  17     162.9       29.7593        4.9092       30.8008       35.7100       5.950641       0.00000
  16     196.4       29.3376        5.7876       29.5007       35.2882       5.950641      -0.00000
  15     218.7       29.0689        6.3428       28.6767       35.0195       5.950641       0.00000
  14     243.0       28.7839        6.9278       27.8068       34.7346       5.950641      -0.00000
  13     269.0       28.4832        7.5404       26.8934       34.4338       5.950641      -0.00000
  12     297.5       28.1673        8.1785       25.9394       34.1179       5.950641       0.00000
  11     328.5       27.8360        8.8414       24.9453       33.7867       5.950641      -0.00000
  10     361.9       27.4908        9.5250       23.9164       33.4414       5.950641      -0.00000
   9     398.1       27.1317       10.2277       22.8546       33.0823       5.950641       0.00000
   8     437.6       26.7599       10.9453       21.7652       32.7105       5.950641       0.00000
   7     480.5       26.3766       11.6740       20.6532       32.3272       5.950641       0.00000
   6     533.0       25.9249       12.5172       19.3583       31.8755       5.950641      -0.00000
   5     589.8       25.4612       13.3633       18.0485       31.4118       5.950641       0.00000
   4     651.6       24.9881       14.2043       16.7344       30.9387       5.950641       0.00000
   3     718.7       24.5079       15.0320       15.4265       30.4586       5.950641       0.00000
   2     792.3       24.0231       15.8391       14.1346       29.9737       5.950641      -0.00000
   1     891.5       23.4129       16.8081       12.5555       29.3635       5.950641       0.00000
   0    1013.0       22.7395       17.8084       10.8817       28.6901       5.950641       0.00000



 Wavenumbers: 29000. - 38000. cm-1, ATM      1
 LEVEL PRESSURE   UPWARD FLUX   DIFDOWN FLUX  DIRDOWN FLUX  DOWNWARD FLUX   NET FLUX    HEATING RATE
          mb          W/m2          W/m2          W/m2        W/m2          W/m2       degree/day
  51    .06700        4.7044        0.0000       13.4026       13.4026       8.698181       0.00000
  50    .07753        4.7042        0.0003       13.3983       13.3986       8.694383       3.04421
  49    .09103        4.7039        0.0007       13.3921       13.3928       8.688864       3.44947
  48    0.1069        4.7036        0.0011       13.3840       13.3851       8.681488       3.92653
  47    0.1255        4.7033        0.0016       13.3733       13.3749       8.671643       4.46291
  46    0.1487        4.7028        0.0022       13.3579       13.3600       8.657202       5.26406
  45    0.1794        4.7023        0.0030       13.3340       13.3371       8.634804       6.14888
  44    0.2165        4.7016        0.0040       13.3024       13.3064       8.604787       6.82832
  43    0.2613        4.7008        0.0051       13.2604       13.2655       8.564735       7.54960
  42    0.3336        4.6996        0.0070       13.1833       13.1903       8.490734       8.62781
  41    0.4307        4.6980        0.0095       13.0729       13.0824       8.384370       9.24810
  40    0.5894        4.6956        0.0133       12.8796       12.8929       8.197343       9.94587
  39     1.339        4.6869        0.0295       11.9165       11.9460       7.259126      10.56262
  38     1.782        4.6834        0.0378       11.4399       11.4777       6.794248       8.85053
  37     2.292        4.6807        0.0466       10.9796       11.0262       6.345461       7.43308
  36     2.964        4.6790        0.0574       10.4786       10.5361       5.857059       6.13092
  35     3.853        4.6792        0.0708        9.9429       10.0137       5.334556       4.95865
  34     5.035        4.6819        0.0875        9.4007        9.4882       4.806341       3.77335
  33     6.613        4.6872        0.1087        8.8752        8.9839       4.296658       2.72477
  32     8.786        4.6947        0.1360        8.3786        8.5145       3.819839       1.85179
  31     11.80        4.7037        0.1734        7.8897        8.0631       3.359376       1.28915
  30     15.07        4.7112        0.2120        7.5108        7.7228       3.011616       0.89785
  29     18.79        4.7179        0.2540        7.1776        7.4317       2.713732       0.67540
  28     23.16        4.7238        0.3014        6.8664        7.1678       2.444040       0.52150
  27     28.12        4.7280        0.3537        6.5780        6.9317       2.203731       0.40851
  26     33.73        4.7282        0.4107        6.3195        6.7301       2.001892       0.30347
  25     40.54        4.7232        0.4778        6.0663        6.5441       1.820882       0.22456
  24     48.69        4.7123        0.5565        5.8128        6.3693       1.657014       0.16958
  23     57.69        4.6957        0.6404        5.5777        6.2181       1.522374       0.12620
  22     68.43        4.6710        0.7375        5.3379        6.0753       1.404365       0.09277
  21     81.20        4.6339        0.8500        5.0965        5.9465       1.312580       0.06065
  20     96.49        4.5833        0.9799        4.8476        5.8276       1.244281       0.03770
  19     114.6        4.5220        1.1270        4.5799        5.7069       1.184878       0.02774
  18     136.5        4.4510        1.2912        4.2891        5.5802       1.129250       0.02139
  17     162.9        4.3698        1.4729        3.9732        5.4461       1.076276       0.01693
  16     196.4        4.2671        1.6902        3.6080        5.2982       1.031053       0.01138
  15     218.7        4.2024        1.8221        3.3898        5.2119       1.009551       0.00816
  14     243.0        4.1349        1.9564        3.1686        5.1250       0.990065       0.00676
  13     269.0        4.0651        2.0919        2.9461        5.0380       0.972898       0.00557
  12     297.5        3.9932        2.2273        2.7239        4.9512       0.958064       0.00440
  11     328.5        3.9200        2.3613        2.5029        4.8642       0.944148       0.00378
  10     361.9        3.8461        2.4927        2.2846        4.7773       0.931173       0.00328
   9     398.1        3.7717        2.6201        2.0708        4.6908       0.919130       0.00281
   8     437.6        3.6973        2.7425        1.8626        4.6051       0.907761       0.00243
   7     480.5        3.6233        2.8583        1.6621        4.5205       0.897189       0.00208
   6     533.0        3.5396        2.9814        1.4441        4.4255       0.885916       0.00181
   5     589.8        3.4574        3.0929        1.2397        4.3327       0.875251       0.00158
   4     651.6        3.3772        3.1915        1.0507        4.2422       0.865051       0.00139
   3     718.7        3.2993        3.2758        0.8788        4.1546       0.855280       0.00123
   2     792.3        3.2239        3.3452        0.7246        4.0698       0.845918       0.00107
   1     891.5        3.1330        3.4104        0.5572        3.9677       0.834632       0.00096
   0    1013.0        3.0369        3.4545        0.4049        3.8594       0.822509       0.00084



 Wavenumbers: 38000. - 50000. cm-1, ATM      1
 LEVEL PRESSURE   UPWARD FLUX   DIFDOWN FLUX  DIRDOWN FLUX  DOWNWARD FLUX   NET FLUX    HEATING RATE
          mb          W/m2          W/m2          W/m2        W/m2          W/m2       degree/day
  51    .06700        0.0051        0.0000        0.8267        0.8267       0.821528       0.00000
  50    .07753        0.0051        0.0001        0.8242        0.8243       0.819196       1.86936
  49    .09103        0.0050        0.0002        0.8207        0.8209       0.815872       2.07705
  48    0.1069        0.0049        0.0002        0.8162        0.8164       0.811514       2.31984
  47    0.1255        0.0048        0.0004        0.8103        0.8106       0.805801       2.59006
  46    0.1487        0.0047        0.0005        0.8018        0.8023       0.797567       3.00143
  45    0.1794        0.0045        0.0007        0.7889        0.7896       0.785013       3.44648
  44    0.2165        0.0044        0.0009        0.7720        0.7729       0.768507       3.75474
  43    0.2613        0.0042        0.0011        0.7500        0.7511       0.746955       4.06246
  42    0.3336        0.0039        0.0015        0.7106        0.7121       0.708267       4.51071
  41    0.4307        0.0035        0.0019        0.6566        0.6584       0.654972       4.63387
  40    0.5894        0.0029        0.0024        0.5680        0.5704       0.567464       4.65357
  39     1.339        0.0015        0.0030        0.2422        0.2452       0.243720       3.64476
  38     1.782        0.0010        0.0026        0.1493        0.1519       0.150889       1.76735
  37     2.292        0.0007        0.0022        0.0924        0.0946       0.093932       0.94336
  36     2.964        0.0005        0.0018        0.0539        0.0557       0.055224       0.48589
  35     3.853        0.0003        0.0013        0.0295        0.0308       0.030502       0.23462
  34     5.035        0.0002        0.0010        0.0154        0.0164       0.016181       0.10230
  33     6.613        0.0001        0.0007        0.0073        0.0080       0.007912       0.04420
  32     8.786        0.0000        0.0004        0.0030        0.0034       0.003390       0.01756
  31     11.80        0.0000        0.0003        0.0010        0.0012       0.001199       0.00613
  30     15.07        0.0000        0.0001        0.0003        0.0005       0.000463       0.00190
  29     18.79        0.0000        0.0001        0.0001        0.0002       0.000182       0.00064
  28     23.16        0.0000        0.0000        0.0000        0.0001       0.000071       0.00022
  27     28.12        0.0000        0.0000        0.0000        0.0000       0.000028       0.00007
  26     33.73        0.0000        0.0000        0.0000        0.0000       0.000011       0.00002
  25     40.54        0.0000        0.0000        0.0000        0.0000       0.000005       0.00001
  24     48.69        0.0000        0.0000        0.0000        0.0000       0.000002       0.00000
  23     57.69        0.0000        0.0000        0.0000        0.0000       0.000001       0.00000
  22     68.43        0.0000        0.0000        0.0000        0.0000       0.000000       0.00000
  21     81.20        0.0000        0.0000        0.0000        0.0000       0.000000       0.00000
  20     96.49        0.0000        0.0000        0.0000        0.0000       0.000000       0.00000
  19     114.6        0.0000        0.0000        0.0000        0.0000       0.000000       0.00000
  18     136.5        0.0000        0.0000        0.0000        0.0000       0.000000       0.00000
  17     162.9        0.0000        0.0000        0.0000        0.0000       0.000000       0.00000
  16     196.4        0.0000        0.0000        0.0000        0.0000       0.000000       0.00000
  15     218.7        0.0000        0.0000        0.0000        0.0000       0.000000       0.00000
  14     243.0        0.0000        0.0000        0.0000        0.0000       0.000000       0.00000
  13     269.0        0.0000        0.0000        0.0000        0.0000       0.000000       0.00000
  12     297.5        0.0000        0.0000        0.0000        0.0000       0.000000       0.00000
  11     328.5        0.0000        0.0000        0.0000        0.0000       0.000000       0.00000
  10     361.9        0.0000        0.0000        0.0000        0.0000       0.000000       0.00000
   9     398.1        0.0000        0.0000        0.0000        0.0000       0.000000       0.00000
   8     437.6        0.0000        0.0000        0.0000        0.0000       0.000000       0.00000
   7     480.5        0.0000        0.0000        0.0000        0.0000       0.000000       0.00000
   6     533.0        0.0000        0.0000        0.0000        0.0000       0.000000       0.00000
   5     589.8        0.0000        0.0000        0.0000        0.0000       0.000000       0.00000
   4     651.6        0.0000        0.0000        0.0000        0.0000       0.000000       0.00000
   3     718.7        0.0000        0.0000        0.0000        0.0000       0.000000       0.00000
   2     792.3        0.0000        0.0000        0.0000        0.0000       0.000000       0.00000
   1     891.5        0.0000        0.0000        0.0000        0.0000       0.000000       0.00000
   0    1013.0        0.0000        0.0000        0.0000        0.0000       0.000000       0.00000



 Wavenumbers:   820. -  2600. cm-1, ATM      1
 LEVEL PRESSURE   UPWARD FLUX   DIFDOWN FLUX  DIRDOWN FLUX  DOWNWARD FLUX   NET FLUX    HEATING RATE
          mb          W/m2          W/m2          W/m2        W/m2          W/m2       degree/day
  51    .06700        0.2435        0.0000        3.8670        3.8670       3.623511       0.00000
  50    .07753        0.2435        0.0000        3.8643        3.8643       3.620806       2.16741
  49    .09103        0.2435        0.0000        3.8635        3.8635       3.620013       0.49591
  48    0.1069        0.2435        0.0000        3.8627        3.8627       3.619142       0.46349
  47    0.1255        0.2435        0.0000        3.8617        3.8617       3.618205       0.42476
  46    0.1487        0.2435        0.0000        3.8606        3.8606       3.617127       0.39295
  45    0.1794        0.2435        0.0000        3.8593        3.8593       3.615837       0.35427
  44    0.2165        0.2435        0.0000        3.8580        3.8580       3.614514       0.30102
  43    0.2613        0.2435        0.0000        3.8566        3.8566       3.613120       0.26263
  42    0.3336        0.2435        0.0000        3.8545        3.8545       3.611003       0.24685
  41    0.4307        0.2435        0.0000        3.8518        3.8518       3.608276       0.23709
  40    0.5894        0.2435        0.0000        3.8473        3.8473       3.603809       0.23758
  39     1.339        0.2435        0.0000        3.8272        3.8272       3.583645       0.22700
  38     1.782        0.2435        0.0000        3.8160        3.8160       3.572502       0.21216
  37     2.292        0.2435        0.0000        3.8037        3.8037       3.560162       0.20438
  36     2.964        0.2435        0.0000        3.7884        3.7884       3.544868       0.19198
  35     3.853        0.2435        0.0000        3.7694        3.7694       3.525919       0.17983
  34     5.035        0.2435        0.0000        3.7458        3.7458       3.502247       0.16911
  33     6.613        0.2435        0.0000        3.7161        3.7161       3.472595       0.15852
  32     8.786        0.2435        0.0000        3.6803        3.6803       3.436822       0.13893
  31     11.80        0.2435        0.0000        3.6401        3.6401       3.396563       0.11271
  30     15.07        0.2435        0.0000        3.6100        3.6100       3.366494       0.07763
  29     18.79        0.2435        0.0000        3.5868        3.5868       3.343316       0.05255
  28     23.16        0.2435        0.0000        3.5667        3.5667       3.323225       0.03885
  27     28.12        0.2435        0.0000        3.5468        3.5469       3.303326       0.03383
  26     33.73        0.2435        0.0000        3.5256        3.5256       3.282092       0.03193
  25     40.54        0.2435        0.0000        3.5007        3.5007       3.257162       0.03093
  24     48.69        0.2435        0.0000        3.4715        3.4715       3.228004       0.03017
  23     57.69        0.2435        0.0000        3.4406        3.4407       3.197110       0.02896
  22     68.43        0.2436        0.0000        3.4059        3.4059       3.162325       0.02735
  21     81.20        0.2436        0.0000        3.3672        3.3672       3.123598       0.02559
  20     96.49        0.2436        0.0000        3.3243        3.3243       3.080693       0.02368
  19     114.6        0.2436        0.0000        3.2765        3.2765       3.032955       0.02229
  18     136.5        0.2436        0.0000        3.2215        3.2215       2.977933       0.02116
  17     162.9        0.2436        0.0000        3.1500        3.1500       2.906329       0.02289
  16     196.4        0.2437        0.0000        3.0466        3.0467       2.802962       0.02602
  15     218.7        0.2438        0.0000        2.9822        2.9822       2.738419       0.02450
  14     243.0        0.2438        0.0000        2.9041        2.9041       2.660282       0.02710
  13     269.0        0.2440        0.0000        2.7958        2.7958       2.551830       0.03518
  12     297.5        0.2442        0.0000        2.6463        2.6463       2.402189       0.04438
  11     328.5        0.2445        0.0000        2.4495        2.4495       2.205023       0.05361
  10     361.9        0.2450        0.0000        2.2394        2.2394       1.994470       0.05327
   9     398.1        0.2457        0.0000        2.0688        2.0689       1.823199       0.03990
   8     437.6        0.2466        0.0000        1.9470        1.9470       1.700374       0.02626
   7     480.5        0.2480        0.0000        1.8435        1.8436       1.595589       0.02058
   6     533.0        0.2502        0.0000        1.7203        1.7203       1.470112       0.02019
   5     589.8        0.2534        0.0000        1.5929        1.5929       1.339563       0.01938
   4     651.6        0.2580        0.0000        1.4698        1.4699       1.211852       0.01746
   3     718.7        0.2642        0.0000        1.3622        1.3622       1.098040       0.01430
   2     792.3        0.2717        0.0000        1.2684        1.2684       0.996769       0.01161
   1     891.5        0.2842        0.0000        1.1536        1.1536       0.869430       0.01084
   0    1013.0        0.3065        0.0000        1.0049        1.0049       0.698417       0.01187

  Modules and versions used in this calculation:

       rrtmg_sw.1col.f90:  $Revision$                    rrtmg_sw_init.f90:  $Revision$        
     rrtmgsw_cldprop.f90:  $Revision$                  rrtmgsw_cldprmc.f90:  NOT USED          
     rrtmg_sw_reftra.f90:  $Revision$                  rrtmg_sw_spcvrt.f90:  NOT USED          
     rrtmg_sw_spcvmc.f90:  NOT USED                    rrtmgsw_setcoef.f90:  NOT USED          
     rrtmg_sw_taumol.f90:  $Revision$                  rrtmg_sw_vrtqdr.f90:  NOT USED          
                rrtatm.f:  NOT USED                             util_xxx.f:  NOT USED          
                 extra.f:  NOT USED                       rrtmg_sw_k_g.f90:  $Revision$        

