

 Wavenumbers:   820. - 50000. cm-1, ATM      1
 LEVEL PRESSURE   UPWARD FLUX   DIFDOWN FLUX  DIRDOWN FLUX  DOWNWARD FLUX   NET FLUX    HEATING RATE
          mb          W/m2          W/m2          W/m2        W/m2          W/m2       degree/day
  51    .06700      179.5893        0.0000      397.8738      397.8738     218.284511       0.00000
  50    .07753      179.5887        0.0012      397.8579      397.8591     218.270430      11.28578
  49    .09103      179.5879        0.0026      397.8423      397.8449     218.256995       8.39730
  48    0.1069      179.5870        0.0043      397.8237      397.8279     218.240925       8.55421
  47    0.1255      179.5861        0.0062      397.8007      397.8068     218.220792       9.12715
  46    0.1487      179.5849        0.0086      397.7690      397.7776     218.192721      10.23218
  45    0.1794      179.5833        0.0119      397.7224      397.7342     218.150957      11.46526
  44    0.2165      179.5815        0.0158      397.6627      397.6784     218.096948      12.28618
  43    0.2613      179.5795        0.0203      397.5860      397.6064     218.026934      13.19721
  42    0.3336      179.5763        0.0279      397.4492      397.4771     217.900839      14.70152
  41    0.4307      179.5723        0.0377      397.2584      397.2961     217.723806      15.39261
  40    0.5894      179.5664        0.0536      396.9339      396.9875     217.421082      16.09849
  39     1.339      179.5492        0.1245      395.4449      395.5694     216.020153      15.77191
  38     1.782      179.5462        0.1642      394.7541      394.9183     215.372108      12.33772
  37     2.292      179.5489        0.2093      394.0890      394.2983     214.749421      10.31332
  36     2.964      179.5617        0.2680      393.3407      393.6086     214.046956       8.81807
  35     3.853      179.5913        0.3446      392.4819      392.8265     213.235267       7.70307
  34     5.035      179.6432        0.4455      391.5065      391.9519     212.308716       6.61889
  33     6.613      179.7197        0.5790      390.4035      390.9825     211.262876       5.59106
  32     8.786      179.8177        0.7576      389.1554      389.9130     210.095271       4.53456
  31     11.80      179.9369        1.0111      387.6624      388.6735     208.736634       3.80376
  30     15.07      180.0401        1.2810      386.2866      387.5675     207.527464       3.12184
  29     18.79      180.1346        1.5834      384.9008      386.4842     206.349667       2.67043
  28     23.16      180.2196        1.9337      383.4409      385.3747     205.155116       2.30988
  27     28.12      180.2871        2.3311      381.9279      384.2590     203.971886       2.01141
  26     33.73      180.3190        2.7724      380.4159      383.1883     202.869333       1.65772
  25     40.54      180.3071        3.3016      378.7807      382.0823     201.775252       1.35733
  24     48.69      180.2444        3.9339      376.9903      380.9242     200.679832       1.13359
  23     57.69      180.1294        4.6218      375.1902      379.8120     199.682635       0.93472
  22     68.43      179.9429        5.4326      373.2192      378.6518     198.708966       0.76543
  21     81.20      179.6522        6.3881      371.0935      377.4816     197.829318       0.58126
  20     96.49      179.2445        7.5119      368.7744      376.2863     197.041853       0.43462
  19     114.6      178.7392        8.8241      366.1596      374.9837     196.244481       0.37232
  18     136.5      178.1286       10.3476      363.1885      373.5361     195.407435       0.32186
  17     162.9      177.3967       12.1179      359.7594      371.8773     194.480604       0.29625
  16     196.4      176.4258       14.3490      355.4448      369.7938     193.368023       0.28005
  15     218.7      175.7862       15.7754      352.6151      368.3905     192.604298       0.28996
  14     243.0      175.0962       17.2923      349.4324      366.7246     191.628404       0.33847
  13     269.0      174.3555       18.8978      345.6371      364.5350     190.179416       0.47005
  12     297.5      173.5647       20.5897      341.1891      361.7788     188.214066       0.58290
  11     328.5      172.7267       22.3695      336.1307      358.5002     185.773458       0.66359
  10     361.9      171.8443       24.2316      330.5693      354.8009     182.956529       0.71271
   9     398.1      170.9182       26.1763      324.5070      350.6833     179.765091       0.74353
   8     437.6      169.9533       28.1979      317.8662      346.0641     176.110829       0.78130
   7     480.5      168.9557       30.2923      310.5794      340.8718     171.916126       0.82382
   6     533.0      167.7820       32.7725      301.8100      334.5825     166.800544       0.82293
   5     589.8      166.5872       35.3321      292.7484      328.0805     161.493259       0.78778
   4     651.6      165.3909       37.9609      283.4316      321.3926     156.001675       0.75099
   3     718.7      164.2047       40.6499      274.1830      314.8328     150.628187       0.67530
   2     792.3      163.0409       43.3861      265.1811      308.5672     145.526289       0.58513
   1     891.5      161.6635       46.8611      253.9999      300.8610     139.197509       0.53855
   0    1013.0      160.4089       50.7274      241.2635      291.9909     131.581920       0.52879



 Wavenumbers:  2600. -  3250. cm-1, ATM      1
 LEVEL PRESSURE   UPWARD FLUX   DIFDOWN FLUX  DIRDOWN FLUX  DOWNWARD FLUX   NET FLUX    HEATING RATE
          mb          W/m2          W/m2          W/m2        W/m2          W/m2       degree/day
  51    .06700        0.3580        0.0000        3.5066        3.5066       3.148577       0.00000
  50    .07753        0.3580        0.0000        3.5066        3.5066       3.148569       0.00640
  49    .09103        0.3580        0.0000        3.5066        3.5066       3.148559       0.00627
  48    0.1069        0.3580        0.0000        3.5066        3.5066       3.148547       0.00613
  47    0.1255        0.3580        0.0000        3.5066        3.5066       3.148534       0.00599
  46    0.1487        0.3580        0.0000        3.5066        3.5066       3.148518       0.00607
  45    0.1794        0.3580        0.0000        3.5065        3.5065       3.148495       0.00624
  44    0.2165        0.3580        0.0000        3.5065        3.5065       3.148468       0.00611
  43    0.2613        0.3580        0.0000        3.5065        3.5065       3.148436       0.00598
  42    0.3336        0.3580        0.0000        3.5064        3.5064       3.148383       0.00615
  41    0.4307        0.3580        0.0000        3.5064        3.5064       3.148312       0.00618
  40    0.5894        0.3580        0.0000        3.5062        3.5062       3.148193       0.00633
  39     1.339        0.3580        0.0000        3.5055        3.5055       3.147495       0.00787
  38     1.782        0.3580        0.0000        3.5050        3.5050       3.146964       0.01011
  37     2.292        0.3580        0.0000        3.5043        3.5043       3.146271       0.01147
  36     2.964        0.3580        0.0000        3.5033        3.5033       3.145280       0.01245
  35     3.853        0.3580        0.0000        3.5019        3.5019       3.143903       0.01307
  34     5.035        0.3580        0.0000        3.5001        3.5001       3.142042       0.01329
  33     6.613        0.3580        0.0000        3.4977        3.4977       3.139632       0.01288
  32     8.786        0.3580        0.0000        3.4947        3.4947       3.136661       0.01154
  31     11.80        0.3580        0.0000        3.4911        3.4911       3.133026       0.01018
  30     15.07        0.3580        0.0000        3.4878        3.4878       3.129804       0.00832
  29     18.79        0.3580        0.0000        3.4848        3.4848       3.126740       0.00695
  28     23.16        0.3580        0.0000        3.4816        3.4816       3.123520       0.00623
  27     28.12        0.3580        0.0000        3.4779        3.4779       3.119901       0.00615
  26     33.73        0.3580        0.0000        3.4735        3.4735       3.115434       0.00672
  25     40.54        0.3580        0.0000        3.4671        3.4671       3.109106       0.00785
  24     48.69        0.3580        0.0000        3.4582        3.4583       3.100208       0.00921
  23     57.69        0.3581        0.0000        3.4472        3.4472       3.089156       0.01036
  22     68.43        0.3581        0.0000        3.4329        3.4329       3.074890       0.01121
  21     81.20        0.3581        0.0000        3.4152        3.4152       3.057153       0.01172
  20     96.49        0.3581        0.0000        3.3940        3.3941       3.035996       0.01168
  19     114.6        0.3581        0.0000        3.3697        3.3698       3.011653       0.01137
  18     136.5        0.3581        0.0001        3.3431        3.3432       2.985050       0.01023
  17     162.9        0.3582        0.0001        3.3152        3.3152       2.957035       0.00895
  16     196.4        0.3583        0.0001        3.2843        3.2844       2.926130       0.00778
  15     218.7        0.3584        0.0001        3.2663        3.2664       2.908027       0.00687
  14     243.0        0.3585        0.0001        3.2470        3.2470       2.888578       0.00675
  13     269.0        0.3587        0.0001        3.2226        3.2227       2.864002       0.00797
  12     297.5        0.3589        0.0001        3.1925        3.1926       2.833695       0.00899
  11     328.5        0.3593        0.0001        3.1538        3.1539       2.794610       0.01063
  10     361.9        0.3599        0.0001        3.1033        3.1034       2.743539       0.01292
   9     398.1        0.3606        0.0001        3.0379        3.0380       2.677388       0.01541
   8     437.6        0.3616        0.0001        2.9536        2.9538       2.592121       0.01823
   7     480.5        0.3631        0.0002        2.8457        2.8458       2.482718       0.02149
   6     533.0        0.3655        0.0002        2.7002        2.7004       2.334857       0.02379
   5     589.8        0.3689        0.0002        2.5421        2.5423       2.173412       0.02396
   4     651.6        0.3737        0.0002        2.3800        2.3802       2.006554       0.02282
   3     718.7        0.3801        0.0002        2.2227        2.2229       1.842761       0.02058
   2     792.3        0.3884        0.0002        2.0723        2.0725       1.684123       0.01819
   1     891.5        0.4025        0.0002        1.8864        1.8866       1.484073       0.01702
   0    1013.0        0.4271        0.0002        1.6743        1.6745       1.247400       0.01643



 Wavenumbers:  3250. -  4000. cm-1, ATM      1
 LEVEL PRESSURE   UPWARD FLUX   DIFDOWN FLUX  DIRDOWN FLUX  DOWNWARD FLUX   NET FLUX    HEATING RATE
          mb          W/m2          W/m2          W/m2        W/m2          W/m2       degree/day
  51    .06700        0.0411        0.0000        5.9117        5.9117       5.870504       0.00000
  50    .07753        0.0411        0.0000        5.9076        5.9076       5.866421       3.27314
  49    .09103        0.0411        0.0000        5.9052        5.9052       5.864094       1.45421
  48    0.1069        0.0411        0.0000        5.9035        5.9035       5.862341       0.93342
  47    0.1255        0.0411        0.0000        5.9018        5.9018       5.860694       0.74638
  46    0.1487        0.0411        0.0000        5.9001        5.9001       5.858930       0.64313
  45    0.1794        0.0411        0.0000        5.8981        5.8981       5.856934       0.54779
  44    0.2165        0.0411        0.0000        5.8961        5.8961       5.854992       0.44194
  43    0.2613        0.0411        0.0000        5.8942        5.8942       5.853042       0.36752
  42    0.3336        0.0411        0.0000        5.8914        5.8914       5.850235       0.32725
  41    0.4307        0.0411        0.0000        5.8880        5.8880       5.846859       0.29352
  40    0.5894        0.0411        0.0000        5.8829        5.8829       5.841713       0.27365
  39     1.339        0.0411        0.0000        5.8640        5.8640       5.822818       0.21273
  38     1.782        0.0411        0.0000        5.8561        5.8561       5.814949       0.14980
  37     2.292        0.0411        0.0000        5.8485        5.8485       5.807375       0.12544
  36     2.964        0.0411        0.0000        5.8397        5.8397       5.798561       0.11065
  35     3.853        0.0411        0.0000        5.8287        5.8287       5.787545       0.10454
  34     5.035        0.0411        0.0000        5.8141        5.8141       5.772999       0.10391
  33     6.613        0.0411        0.0000        5.7943        5.7943       5.753176       0.10597
  32     8.786        0.0411        0.0000        5.7665        5.7665       5.725411       0.10783
  31     11.80        0.0411        0.0000        5.7256        5.7256       5.684475       0.11461
  30     15.07        0.0411        0.0000        5.6809        5.6810       5.639828       0.11527
  29     18.79        0.0411        0.0000        5.6311        5.6311       5.589999       0.11298
  28     23.16        0.0411        0.0000        5.5758        5.5758       5.534693       0.10694
  27     28.12        0.0411        0.0000        5.5179        5.5180       5.476851       0.09833
  26     33.73        0.0411        0.0000        5.4602        5.4603       5.419181       0.08671
  25     40.54        0.0411        0.0001        5.3980        5.3981       5.357008       0.07713
  24     48.69        0.0411        0.0001        5.3294        5.3294       5.288347       0.07105
  23     57.69        0.0411        0.0001        5.2572        5.2573       5.216223       0.06761
  22     68.43        0.0411        0.0001        5.1731        5.1732       5.132104       0.06613
  21     81.20        0.0410        0.0001        5.0755        5.0756       5.034540       0.06447
  20     96.49        0.0410        0.0001        4.9655        4.9656       4.924616       0.06067
  19     114.6        0.0410        0.0001        4.8434        4.8436       4.802563       0.05699
  18     136.5        0.0410        0.0002        4.7116        4.7117       4.670761       0.05068
  17     162.9        0.0410        0.0002        4.5620        4.5622       4.521234       0.04779
  16     196.4        0.0409        0.0002        4.3634        4.3636       4.322714       0.04997
  15     218.7        0.0409        0.0002        4.2155        4.2157       4.174850       0.05614
  14     243.0        0.0409        0.0003        4.0279        4.0281       3.987234       0.06507
  13     269.0        0.0409        0.0003        3.7823        3.7826       3.741718       0.07964
  12     297.5        0.0409        0.0003        3.4809        3.4812       3.440268       0.08941
  11     328.5        0.0409        0.0003        3.1196        3.1199       3.078982       0.09823
  10     361.9        0.0411        0.0003        2.7315        2.7317       2.690676       0.09825
   9     398.1        0.0413        0.0003        2.3625        2.3628       2.321497       0.08601
   8     437.6        0.0416        0.0003        2.0242        2.0244       1.982780       0.07242
   7     480.5        0.0423        0.0002        1.7043        1.7045       1.662209       0.06296
   6     533.0        0.0436        0.0002        1.3771        1.3773       1.333730       0.05284
   5     589.8        0.0457        0.0002        1.0905        1.0907       1.044968       0.04286
   4     651.6        0.0494        0.0002        0.8311        0.8313       0.781886       0.03598
   3     718.7        0.0551        0.0002        0.6101        0.6102       0.555192       0.02849
   2     792.3        0.0636        0.0001        0.4375        0.4376       0.374008       0.02078
   1     891.5        0.0814        0.0001        0.2721        0.2722       0.190860       0.01558
   0    1013.0        0.1239        0.0001        0.1307        0.1307       0.006792       0.01278



 Wavenumbers:  4000. -  4650. cm-1, ATM      1
 LEVEL PRESSURE   UPWARD FLUX   DIFDOWN FLUX  DIRDOWN FLUX  DOWNWARD FLUX   NET FLUX    HEATING RATE
          mb          W/m2          W/m2          W/m2        W/m2          W/m2       degree/day
  51    .06700        0.7510        0.0000        6.9421        6.9421       6.191039       0.00000
  50    .07753        0.7510        0.0000        6.9421        6.9421       6.191038       0.00080
  49    .09103        0.7510        0.0000        6.9421        6.9421       6.191036       0.00079
  48    0.1069        0.7510        0.0000        6.9421        6.9421       6.191035       0.00077
  47    0.1255        0.7510        0.0000        6.9421        6.9421       6.191033       0.00075
  46    0.1487        0.7510        0.0000        6.9421        6.9421       6.191031       0.00076
  45    0.1794        0.7510        0.0000        6.9421        6.9421       6.191028       0.00078
  44    0.2165        0.7510        0.0000        6.9421        6.9421       6.191025       0.00077
  43    0.2613        0.7510        0.0000        6.9421        6.9421       6.191021       0.00075
  42    0.3336        0.7510        0.0000        6.9420        6.9420       6.191014       0.00078
  41    0.4307        0.7510        0.0000        6.9420        6.9420       6.191005       0.00078
  40    0.5894        0.7510        0.0000        6.9420        6.9420       6.190990       0.00080
  39     1.339        0.7510        0.0000        6.9419        6.9419       6.190900       0.00101
  38     1.782        0.7510        0.0000        6.9418        6.9419       6.190830       0.00134
  37     2.292        0.7510        0.0000        6.9418        6.9418       6.190735       0.00157
  36     2.964        0.7510        0.0000        6.9416        6.9416       6.190594       0.00177
  35     3.853        0.7510        0.0000        6.9414        6.9414       6.190384       0.00199
  34     5.035        0.7510        0.0000        6.9411        6.9411       6.190076       0.00220
  33     6.613        0.7510        0.0000        6.9406        6.9406       6.189622       0.00243
  32     8.786        0.7510        0.0000        6.9399        6.9400       6.188954       0.00260
  31     11.80        0.7510        0.0000        6.9389        6.9389       6.187905       0.00293
  30     15.07        0.7510        0.0001        6.9376        6.9377       6.186679       0.00317
  29     18.79        0.7510        0.0001        6.9361        6.9362       6.185201       0.00335
  28     23.16        0.7510        0.0001        6.9342        6.9343       6.183373       0.00353
  27     28.12        0.7509        0.0001        6.9320        6.9321       6.181170       0.00375
  26     33.73        0.7509        0.0001        6.9293        6.9294       6.178465       0.00407
  25     40.54        0.7509        0.0001        6.9256        6.9257       6.174817       0.00453
  24     48.69        0.7509        0.0002        6.9207        6.9209       6.169987       0.00500
  23     57.69        0.7509        0.0002        6.9150        6.9152       6.164303       0.00533
  22     68.43        0.7509        0.0003        6.9078        6.9081       6.157234       0.00556
  21     81.20        0.7509        0.0003        6.8991        6.8994       6.148588       0.00571
  20     96.49        0.7508        0.0004        6.8886        6.8890       6.138142       0.00577
  19     114.6        0.7508        0.0004        6.8759        6.8763       6.125488       0.00591
  18     136.5        0.7508        0.0005        6.8606        6.8611       6.110308       0.00584
  17     162.9        0.7509        0.0006        6.8421        6.8427       6.091868       0.00589
  16     196.4        0.7509        0.0007        6.8172        6.8180       6.067016       0.00626
  15     218.7        0.7510        0.0008        6.7999        6.8007       6.049671       0.00659
  14     243.0        0.7511        0.0009        6.7794        6.7802       6.029098       0.00714
  13     269.0        0.7513        0.0010        6.7534        6.7544       6.003034       0.00846
  12     297.5        0.7516        0.0011        6.7208        6.7219       5.970269       0.00972
  11     328.5        0.7521        0.0012        6.6798        6.6809       5.928853       0.01126
  10     361.9        0.7527        0.0013        6.6276        6.6289       5.876144       0.01334
   9     398.1        0.7536        0.0014        6.5612        6.5626       5.808998       0.01564
   8     437.6        0.7547        0.0015        6.4775        6.4790       5.724250       0.01812
   7     480.5        0.7562        0.0017        6.3741        6.3758       5.619566       0.02056
   6     533.0        0.7585        0.0018        6.2404        6.2423       5.483760       0.02185
   5     589.8        0.7616        0.0020        6.0964        6.0983       5.336788       0.02182
   4     651.6        0.7657        0.0021        5.9360        5.9381       5.172363       0.02249
   3     718.7        0.7712        0.0023        5.7578        5.7601       4.988866       0.02306
   2     792.3        0.7783        0.0025        5.5683        5.5708       4.792472       0.02252
   1     891.5        0.7902        0.0027        5.3208        5.3235       4.533247       0.02206
   0    1013.0        0.8110        0.0029        5.0331        5.0360       4.225004       0.02140



 Wavenumbers:  4650. -  5150. cm-1, ATM      1
 LEVEL PRESSURE   UPWARD FLUX   DIFDOWN FLUX  DIRDOWN FLUX  DOWNWARD FLUX   NET FLUX    HEATING RATE
          mb          W/m2          W/m2          W/m2        W/m2          W/m2       degree/day
  51    .06700        0.5222        0.0000        6.5710        6.5710       6.048792       0.00000
  50    .07753        0.5222        0.0000        6.5708        6.5708       6.048560       0.18627
  49    .09103        0.5222        0.0000        6.5705        6.5705       6.048270       0.18110
  48    0.1069        0.5222        0.0000        6.5701        6.5701       6.047940       0.17562
  47    0.1255        0.5222        0.0000        6.5698        6.5698       6.047565       0.17003
  46    0.1487        0.5222        0.0000        6.5693        6.5693       6.047098       0.17034
  45    0.1794        0.5222        0.0000        6.5687        6.5687       6.046470       0.17237
  44    0.2165        0.5222        0.0000        6.5679        6.5679       6.045742       0.16562
  43    0.2613        0.5222        0.0000        6.5671        6.5671       6.044900       0.15863
  42    0.3336        0.5222        0.0000        6.5657        6.5658       6.043555       0.15683
  41    0.4307        0.5222        0.0000        6.5640        6.5641       6.041856       0.14774
  40    0.5894        0.5222        0.0000        6.5615        6.5615       6.039274       0.13732
  39     1.339        0.5222        0.0000        6.5518        6.5518       6.029619       0.10870
  38     1.782        0.5222        0.0000        6.5476        6.5476       6.025453       0.07931
  37     2.292        0.5222        0.0000        6.5438        6.5438       6.021610       0.06365
  36     2.964        0.5222        0.0000        6.5399        6.5399       6.017697       0.04912
  35     3.853        0.5222        0.0000        6.5359        6.5360       6.013791       0.03707
  34     5.035        0.5222        0.0000        6.5320        6.5320       6.009820       0.02837
  33     6.613        0.5222        0.0000        6.5276        6.5276       6.005453       0.02335
  32     8.786        0.5222        0.0000        6.5221        6.5221       5.999985       0.02124
  31     11.80        0.5221        0.0001        6.5140        6.5141       5.991942       0.02252
  30     15.07        0.5221        0.0001        6.5047        6.5047       5.982613       0.02408
  29     18.79        0.5221        0.0001        6.4932        6.4933       5.971147       0.02600
  28     23.16        0.5221        0.0001        6.4786        6.4787       5.956617       0.02810
  27     28.12        0.5221        0.0002        6.4606        6.4608       5.938719       0.03043
  26     33.73        0.5221        0.0002        6.4393        6.4394       5.917379       0.03209
  25     40.54        0.5220        0.0002        6.4122        6.4124       5.890369       0.03351
  24     48.69        0.5220        0.0003        6.3786        6.3789       5.856874       0.03466
  23     57.69        0.5220        0.0003        6.3416        6.3420       5.819939       0.03462
  22     68.43        0.5220        0.0004        6.2986        6.2989       5.776930       0.03381
  21     81.20        0.5220        0.0004        6.2499        6.2503       5.728319       0.03212
  20     96.49        0.5220        0.0005        6.1967        6.1972       5.675168       0.02934
  19     114.6        0.5220        0.0006        6.1403        6.1409       5.618869       0.02629
  18     136.5        0.5221        0.0007        6.0815        6.0822       5.560121       0.02259
  17     162.9        0.5222        0.0009        6.0190        6.0199       5.497682       0.01996
  16     196.4        0.5223        0.0010        5.9438        5.9448       5.422505       0.01892
  15     218.7        0.5225        0.0011        5.8949        5.8960       5.373515       0.01860
  14     243.0        0.5227        0.0012        5.8402        5.8415       5.318806       0.01898
  13     269.0        0.5230        0.0014        5.7779        5.7793       5.256335       0.02027
  12     297.5        0.5233        0.0015        5.7056        5.7071       5.183762       0.02152
  11     328.5        0.5239        0.0016        5.6209        5.6226       5.098699       0.02313
  10     361.9        0.5246        0.0018        5.5210        5.5228       4.998217       0.02542
   9     398.1        0.5256        0.0019        5.4064        5.4084       4.882742       0.02690
   8     437.6        0.5269        0.0021        5.2755        5.2776       4.750624       0.02825
   7     480.5        0.5287        0.0022        5.1260        5.1282       4.599520       0.02968
   6     533.0        0.5314        0.0024        4.9357        4.9381       4.406668       0.03102
   5     589.8        0.5351        0.0026        4.7299        4.7325       4.197443       0.03106
   4     651.6        0.5400        0.0027        4.5132        4.5159       3.975988       0.03028
   3     718.7        0.5464        0.0029        4.2957        4.2986       3.752213       0.02812
   2     792.3        0.5546        0.0031        4.0842        4.0872       3.532660       0.02518
   1     891.5        0.5682        0.0032        3.8261        3.8293       3.261152       0.02310
   0    1013.0        0.5904        0.0035        3.5405        3.5440       2.953560       0.02136



 Wavenumbers:  5150. -  6150. cm-1, ATM      1
 LEVEL PRESSURE   UPWARD FLUX   DIFDOWN FLUX  DIRDOWN FLUX  DOWNWARD FLUX   NET FLUX    HEATING RATE
          mb          W/m2          W/m2          W/m2        W/m2          W/m2       degree/day
  51    .06700        1.4229        0.0000       16.4735       16.4735      15.050601       0.00000
  50    .07753        1.4229        0.0000       16.4735       16.4735      15.050590       0.00841
  49    .09103        1.4229        0.0000       16.4735       16.4735      15.050577       0.00856
  48    0.1069        1.4229        0.0000       16.4735       16.4735      15.050560       0.00871
  47    0.1255        1.4229        0.0000       16.4734       16.4734      15.050541       0.00884
  46    0.1487        1.4229        0.0000       16.4734       16.4734      15.050515       0.00931
  45    0.1794        1.4229        0.0000       16.4734       16.4734      15.050479       0.00995
  44    0.2165        1.4229        0.0000       16.4733       16.4733      15.050435       0.01014
  43    0.2613        1.4229        0.0000       16.4733       16.4733      15.050380       0.01028
  42    0.3336        1.4229        0.0000       16.4732       16.4732      15.050287       0.01086
  41    0.4307        1.4229        0.0000       16.4730       16.4731      15.050159       0.01112
  40    0.5894        1.4229        0.0000       16.4728       16.4728      15.049945       0.01140
  39     1.339        1.4229        0.0000       16.4717       16.4718      15.048891       0.01186
  38     1.782        1.4229        0.0000       16.4711       16.4711      15.048264       0.01195
  37     2.292        1.4229        0.0001       16.4703       16.4704      15.047536       0.01205
  36     2.964        1.4228        0.0001       16.4693       16.4694      15.046580       0.01200
  35     3.853        1.4228        0.0001       16.4680       16.4681      15.045318       0.01198
  34     5.035        1.4228        0.0001       16.4663       16.4664      15.043645       0.01195
  33     6.613        1.4228        0.0002       16.4640       16.4642      15.041420       0.01189
  32     8.786        1.4227        0.0002       16.4609       16.4612      15.038451       0.01153
  31     11.80        1.4227        0.0003       16.4566       16.4569      15.034269       0.01171
  30     15.07        1.4226        0.0004       16.4521       16.4525      15.029870       0.01136
  29     18.79        1.4225        0.0005       16.4471       16.4475      15.025016       0.01101
  28     23.16        1.4224        0.0006       16.4413       16.4419      15.019498       0.01067
  27     28.12        1.4224        0.0007       16.4350       16.4357      15.013375       0.01041
  26     33.73        1.4223        0.0009       16.4281       16.4290      15.006731       0.00999
  25     40.54        1.4221        0.0010       16.4201       16.4212      14.999011       0.00958
  24     48.69        1.4220        0.0012       16.4109       16.4121      14.990100       0.00922
  23     57.69        1.4219        0.0015       16.4012       16.4027      14.980853       0.00867
  22     68.43        1.4217        0.0018       16.3906       16.3923      14.970632       0.00803
  21     81.20        1.4215        0.0021       16.3785       16.3806      14.959098       0.00762
  20     96.49        1.4213        0.0025       16.3647       16.3672      14.945858       0.00731
  19     114.6        1.4210        0.0029       16.3484       16.3514      14.930323       0.00725
  18     136.5        1.4207        0.0035       16.3270       16.3305      14.909775       0.00790
  17     162.9        1.4204        0.0041       16.2910       16.2951      14.874727       0.01120
  16     196.4        1.4200        0.0050       16.2180       16.2230      14.803012       0.01805
  15     218.7        1.4197        0.0055       16.1453       16.1508      14.731101       0.02730
  14     243.0        1.4194        0.0061       16.0170       16.0231      14.603736       0.04417
  13     269.0        1.4191        0.0067       15.7490       15.7557      14.336554       0.08667
  12     297.5        1.4189        0.0073       15.3565       15.3638      13.944881       0.11617
  11     328.5        1.4187        0.0078       14.9031       14.9109      13.492147       0.12310
  10     361.9        1.4186        0.0084       14.3922       14.4005      12.981896       0.12910
   9     398.1        1.4187        0.0089       13.7910       13.7999      12.381149       0.13996
   8     437.6        1.4190        0.0094       13.1143       13.1237      11.704732       0.14462
   7     480.5        1.4197        0.0098       12.3795       12.3893      10.969613       0.14437
   6     533.0        1.4212        0.0103       11.5591       11.5694      10.148242       0.13213
   5     589.8        1.4237        0.0107       10.8301       10.8408       9.417129       0.10852
   4     651.6        1.4279        0.0111       10.2147       10.2259       8.797978       0.08467
   3     718.7        1.4341        0.0117        9.7386        9.7503       8.316157       0.06055
   2     792.3        1.4428        0.0124        9.3773        9.3896       7.946813       0.04236
   1     891.5        1.4587        0.0133        9.0059        9.0193       7.560589       0.03287
   0    1013.0        1.4889        0.0145        8.6015        8.6161       7.127128       0.03010



 Wavenumbers:  6150. -  7700. cm-1, ATM      1
 LEVEL PRESSURE   UPWARD FLUX   DIFDOWN FLUX  DIRDOWN FLUX  DOWNWARD FLUX   NET FLUX    HEATING RATE
          mb          W/m2          W/m2          W/m2        W/m2          W/m2       degree/day
  51    .06700        2.3903        0.0000       30.4684       30.4684      28.078082       0.00000
  50    .07753        2.3903        0.0000       30.4684       30.4684      28.078055       0.02155
  49    .09103        2.3903        0.0000       30.4683       30.4683      28.078021       0.02146
  48    0.1069        2.3903        0.0000       30.4683       30.4683      28.077981       0.02135
  47    0.1255        2.3903        0.0000       30.4682       30.4682      28.077934       0.02124
  46    0.1487        2.3903        0.0000       30.4682       30.4682      28.077874       0.02192
  45    0.1794        2.3903        0.0000       30.4681       30.4681      28.077790       0.02295
  44    0.2165        2.3903        0.0000       30.4680       30.4680      28.077690       0.02291
  43    0.2613        2.3903        0.0000       30.4678       30.4678      28.077569       0.02284
  42    0.3336        2.3903        0.0000       30.4676       30.4676      28.077365       0.02373
  41    0.4307        2.3903        0.0000       30.4673       30.4674      28.077090       0.02387
  40    0.5894        2.3902        0.0001       30.4668       30.4669      28.076636       0.02415
  39     1.339        2.3902        0.0001       30.4645       30.4646      28.074453       0.02458
  38     1.782        2.3901        0.0002       30.4631       30.4633      28.073169       0.02446
  37     2.292        2.3901        0.0002       30.4615       30.4618      28.071687       0.02454
  36     2.964        2.3900        0.0003       30.4594       30.4598      28.069749       0.02432
  35     3.853        2.3899        0.0004       30.4567       30.4571      28.067204       0.02415
  34     5.035        2.3898        0.0005       30.4531       30.4536      28.063848       0.02397
  33     6.613        2.3896        0.0007       30.4483       30.4490      28.059409       0.02373
  32     8.786        2.3894        0.0009       30.4420       30.4429      28.053511       0.02291
  31     11.80        2.3891        0.0013       30.4331       30.4344      28.045240       0.02316
  30     15.07        2.3888        0.0016       30.4237       30.4254      28.036573       0.02238
  29     18.79        2.3884        0.0020       30.4134       30.4154      28.027035       0.02162
  28     23.16        2.3880        0.0025       30.4017       30.4042      28.016217       0.02092
  27     28.12        2.3875        0.0030       30.3887       30.3917      28.004236       0.02037
  26     33.73        2.3869        0.0036       30.3746       30.3782      27.991304       0.01944
  25     40.54        2.3862        0.0044       30.3582       30.3626      27.976355       0.01855
  24     48.69        2.3854        0.0053       30.3394       30.3446      27.959207       0.01775
  23     57.69        2.3845        0.0062       30.3197       30.3259      27.941434       0.01666
  22     68.43        2.3834        0.0074       30.2977       30.3051      27.921678       0.01553
  21     81.20        2.3822        0.0088       30.2728       30.2816      27.899435       0.01470
  20     96.49        2.3806        0.0104       30.2444       30.2548      27.874188       0.01393
  19     114.6        2.3788        0.0123       30.2116       30.2240      27.845156       0.01356
  18     136.5        2.3767        0.0147       30.1710       30.1857      27.809042       0.01389
  17     162.9        2.3741        0.0174       30.1103       30.1277      27.753591       0.01772
  16     196.4        2.3708        0.0210       29.9938       30.0147      27.643936       0.02760
  15     218.7        2.3686        0.0233       29.8777       29.9010      27.532331       0.04237
  14     243.0        2.3663        0.0257       29.6897       29.7154      27.349093       0.06355
  13     269.0        2.3639        0.0283       29.3303       29.3586      26.994631       0.11499
  12     297.5        2.3615        0.0308       28.7539       28.7848      26.423289       0.16945
  11     328.5        2.3591        0.0333       27.9778       28.0111      25.652052       0.20970
  10     361.9        2.3568        0.0358       27.0879       27.1237      24.766924       0.22395
   9     398.1        2.3548        0.0382       26.0941       26.1323      23.777439       0.23053
   8     437.6        2.3534        0.0405       24.9322       24.9726      22.619235       0.24763
   7     480.5        2.3530        0.0424       23.5908       23.6332      21.280197       0.26298
   6     533.0        2.3546        0.0444       22.0191       22.0635      19.708939       0.25277
   5     589.8        2.3591        0.0462       20.4999       20.5461      18.186935       0.22592
   4     651.6        2.3683        0.0478       19.0685       19.1163      16.748009       0.19678
   3     718.7        2.3832        0.0496       17.8089       17.8584      15.475203       0.15996
   2     792.3        2.4048        0.0515       16.7361       16.7876      14.382836       0.12528
   1     891.5        2.4459        0.0542       15.5583       15.6125      13.166539       0.10350
   0    1013.0        2.5294        0.0571       14.3345       14.3915      11.862158       0.09057



 Wavenumbers:  7700. -  8050. cm-1, ATM      1
 LEVEL PRESSURE   UPWARD FLUX   DIFDOWN FLUX  DIRDOWN FLUX  DOWNWARD FLUX   NET FLUX    HEATING RATE
          mb          W/m2          W/m2          W/m2        W/m2          W/m2       degree/day
  51    .06700        1.0554        0.0000        7.2006        7.2006       6.145209       0.00000
  50    .07753        1.0554        0.0000        7.2006        7.2006       6.145190       0.01478
  49    .09103        1.0554        0.0000        7.2005        7.2005       6.145167       0.01449
  48    0.1069        1.0554        0.0000        7.2005        7.2005       6.145140       0.01418
  47    0.1255        1.0554        0.0000        7.2005        7.2005       6.145110       0.01388
  46    0.1487        1.0554        0.0000        7.2004        7.2005       6.145071       0.01408
  45    0.1794        1.0554        0.0000        7.2004        7.2004       6.145018       0.01449
  44    0.2165        1.0554        0.0000        7.2003        7.2003       6.144956       0.01421
  43    0.2613        1.0554        0.0000        7.2003        7.2003       6.144882       0.01395
  42    0.3336        1.0554        0.0000        7.2001        7.2001       6.144759       0.01427
  41    0.4307        1.0554        0.0000        7.2000        7.2000       6.144597       0.01411
  40    0.5894        1.0554        0.0000        7.1997        7.1997       6.144332       0.01410
  39     1.339        1.0554        0.0001        7.1984        7.1985       6.143078       0.01411
  38     1.782        1.0554        0.0001        7.1977        7.1978       6.142342       0.01402
  37     2.292        1.0554        0.0001        7.1968        7.1969       6.141490       0.01411
  36     2.964        1.0555        0.0001        7.1957        7.1958       6.140372       0.01403
  35     3.853        1.0555        0.0002        7.1942        7.1944       6.138896       0.01401
  34     5.035        1.0555        0.0002        7.1922        7.1924       6.136937       0.01400
  33     6.613        1.0555        0.0003        7.1896        7.1899       6.134322       0.01398
  32     8.786        1.0556        0.0004        7.1860        7.1864       6.130804       0.01366
  31     11.80        1.0557        0.0005        7.1810        7.1815       6.125784       0.01406
  30     15.07        1.0558        0.0006        7.1755        7.1762       6.120410       0.01387
  29     18.79        1.0559        0.0008        7.1694        7.1702       6.114360       0.01372
  28     23.16        1.0560        0.0010        7.1623        7.1633       6.107321       0.01361
  27     28.12        1.0561        0.0012        7.1542        7.1554       6.099309       0.01362
  26     33.73        1.0562        0.0014        7.1452        7.1466       6.090391       0.01341
  25     40.54        1.0564        0.0017        7.1344        7.1361       6.079685       0.01328
  24     48.69        1.0566        0.0021        7.1214        7.1235       6.066878       0.01325
  23     57.69        1.0569        0.0025        7.1073        7.1098       6.052935       0.01307
  22     68.43        1.0571        0.0029        7.0907        7.0936       6.036498       0.01292
  21     81.20        1.0575        0.0035        7.0712        7.0746       6.017151       0.01278
  20     96.49        1.0579        0.0041        7.0482        7.0523       5.994426       0.01254
  19     114.6        1.0584        0.0049        7.0215        7.0263       5.967893       0.01239
  18     136.5        1.0590        0.0057        6.9903        6.9961       5.937049       0.01186
  17     162.9        1.0598        0.0068        6.9541        6.9609       5.901127       0.01148
  16     196.4        1.0608        0.0082        6.9084        6.9166       5.855783       0.01141
  15     218.7        1.0615        0.0091        6.8791        6.8882       5.826672       0.01105
  14     243.0        1.0623        0.0101        6.8478        6.8579       5.795591       0.01078
  13     269.0        1.0631        0.0111        6.8145        6.8256       5.762500       0.01073
  12     297.5        1.0641        0.0122        6.7792        6.7914       5.727312       0.01044
  11     328.5        1.0652        0.0134        6.7417        6.7551       5.689913       0.01017
  10     361.9        1.0664        0.0147        6.7019        6.7167       5.650255       0.01003
   9     398.1        1.0678        0.0161        6.6597        6.6758       5.608063       0.00983
   8     437.6        1.0693        0.0176        6.6148        6.6325       5.563143       0.00960
   7     480.5        1.0712        0.0192        6.5670        6.5862       5.515073       0.00944
   6     533.0        1.0736        0.0212        6.5080        6.5292       5.455645       0.00956
   5     589.8        1.0764        0.0233        6.4443        6.4676       5.391149       0.00957
   4     651.6        1.0798        0.0255        6.3752        6.4007       5.320840       0.00961
   3     718.7        1.0838        0.0279        6.3003        6.3282       5.244341       0.00961
   2     792.3        1.0885        0.0304        6.2198        6.2502       5.161686       0.00948
   1     891.5        1.0954        0.0337        6.1100        6.1438       5.048335       0.00965
   0    1013.0        1.1050        0.0377        5.9745        6.0122       4.907180       0.00980



 Wavenumbers:  8050. - 12850. cm-1, ATM      1
 LEVEL PRESSURE   UPWARD FLUX   DIFDOWN FLUX  DIRDOWN FLUX  DOWNWARD FLUX   NET FLUX    HEATING RATE
          mb          W/m2          W/m2          W/m2        W/m2          W/m2       degree/day
  51    .06700       24.4800        0.0000      100.8135      100.8135      76.333566       0.00000
  50    .07753       24.4799        0.0000      100.8135      100.8135      76.333566       0.00000
  49    .09103       24.4799        0.0001      100.8134      100.8135      76.333566       0.00000
  48    0.1069       24.4799        0.0001      100.8134      100.8134      76.333566       0.00000
  47    0.1255       24.4798        0.0001      100.8133      100.8134      76.333566       0.00000
  46    0.1487       24.4798        0.0002      100.8132      100.8134      76.333566      -0.00000
  45    0.1794       24.4798        0.0002      100.8131      100.8133      76.333566       0.00000
  44    0.2165       24.4797        0.0003      100.8129      100.8133      76.333566      -0.00000
  43    0.2613       24.4796        0.0004      100.8127      100.8132      76.333566      -0.00000
  42    0.3336       24.4795        0.0006      100.8125      100.8130      76.333566       0.00000
  41    0.4307       24.4793        0.0008      100.8121      100.8129      76.333566       0.00000
  40    0.5894       24.4790        0.0011      100.8115      100.8126      76.333566       0.00000
  39     1.339       24.4777        0.0028      100.8085      100.8113      76.333566       0.00000
  38     1.782       24.4770        0.0038      100.8068      100.8105      76.333566       0.00000
  37     2.292       24.4761        0.0049      100.8047      100.8096      76.333566      -0.00000
  36     2.964       24.4749        0.0063      100.8021      100.8085      76.333566       0.00000
  35     3.853       24.4733        0.0083      100.7986      100.8069      76.333566      -0.00000
  34     5.035       24.4713        0.0109      100.7940      100.8048      76.333566       0.00000
  33     6.613       24.4685        0.0143      100.7878      100.8021      76.333566      -0.00000
  32     8.786       24.4648        0.0190      100.7794      100.7984      76.333566       0.00000
  31     11.80       24.4595        0.0256      100.7674      100.7931      76.333566      -0.00000
  30     15.07       24.4538        0.0328      100.7546      100.7873      76.333566       0.00000
  29     18.79       24.4473        0.0409      100.7400      100.7809      76.333566       0.00000
  28     23.16       24.4398        0.0503      100.7230      100.7733      76.333566       0.00000
  27     28.12       24.4311        0.0612      100.7035      100.7647      76.333566       0.00000
  26     33.73       24.4214        0.0733      100.6817      100.7550      76.333566       0.00000
  25     40.54       24.4097        0.0880      100.6552      100.7432      76.333566      -0.00000
  24     48.69       24.3955        0.1057      100.6234      100.7291      76.333566       0.00000
  23     57.69       24.3799        0.1252      100.5883      100.7135      76.333566      -0.00000
  22     68.43       24.3614        0.1485      100.5464      100.6949      76.333566       0.00000
  21     81.20       24.3392        0.1762      100.4965      100.6727      76.333566       0.00000
  20     96.49       24.3127        0.2093      100.4370      100.6463      76.333566       0.00000
  19     114.6       24.2812        0.2487      100.3638      100.6125      76.331247       0.00108
  18     136.5       24.2438        0.2954      100.2763      100.5717      76.327886       0.00129
  17     162.9       24.1992        0.3511      100.1691      100.5202      76.320982       0.00221
  16     196.4       24.1412        0.4236      100.0197      100.4433      76.302017       0.00477
  15     218.7       24.1031        0.4712       99.9087      100.3799      76.276795       0.00958
  14     243.0       24.0617        0.5230       99.7620      100.2851      76.223397       0.01852
  13     269.0       24.0170        0.5791       99.5364      100.1155      76.098465       0.04053
  12     297.5       23.9693        0.6395       99.2144       99.8539      75.884594       0.06343
  11     328.5       23.9187        0.7046       98.7879       99.4925      75.573774       0.08451
  10     361.9       23.8658        0.7743       98.2583       99.0326      75.166854       0.10295
   9     398.1       23.8111        0.8488       97.6043       98.4531      74.642013       0.12228
   8     437.6       23.7561        0.9280       96.7686       97.6966      73.940465       0.15000
   7     480.5       23.7038        1.0115       95.6730       96.6845      72.980648       0.18850
   6     533.0       23.6504        1.1121       94.1324       95.2445      71.594112       0.22305
   5     589.8       23.6090        1.2177       92.3039       93.5216      69.912608       0.24959
   4     651.6       23.5881        1.3279       90.1958       91.5237      67.935600       0.27036
   3     718.7       23.5923        1.4431       87.9660       89.4091      65.816863       0.26627
   2     792.3       23.6251        1.5641       85.7380       87.3021      63.677055       0.24541
   1     891.5       23.7276        1.7232       82.8773       84.6005      60.872906       0.23862
   0    1013.0       23.9979        1.9052       79.4054       81.3106      57.312683       0.24720



 Wavenumbers: 12850. - 16000. cm-1, ATM      1
 LEVEL PRESSURE   UPWARD FLUX   DIFDOWN FLUX  DIRDOWN FLUX  DOWNWARD FLUX   NET FLUX    HEATING RATE
          mb          W/m2          W/m2          W/m2        W/m2          W/m2       degree/day
  51    .06700       33.3682        0.0000       63.1686       63.1686      29.800389       0.00000
  50    .07753       33.3682        0.0001       63.1677       63.1678      29.799610       0.62484
  49    .09103       33.3681        0.0001       63.1666       63.1668      29.798638       0.60725
  48    0.1069       33.3681        0.0002       63.1654       63.1656      29.797532       0.58886
  47    0.1255       33.3681        0.0003       63.1640       63.1643      29.796274       0.57040
  46    0.1487       33.3680        0.0004       63.1623       63.1627      29.794705       0.57197
  45    0.1794       33.3680        0.0006       63.1600       63.1606      29.792600       0.57764
  44    0.2165       33.3679        0.0008       63.1573       63.1581      29.790167       0.55352
  43    0.2613       33.3678        0.0010       63.1542       63.1552      29.787361       0.52903
  42    0.3336       33.3678        0.0014       63.1493       63.1507      29.782889       0.52133
  41    0.4307       33.3677        0.0019       63.1431       63.1450      29.777297       0.48620
  40    0.5894       33.3677        0.0027       63.1338       63.1365      29.768828       0.45040
  39     1.339       33.3688        0.0065       63.0956       63.1021      29.733275       0.40026
  38     1.782       33.3705        0.0088       63.0740       63.0828      29.712366       0.39808
  37     2.292       33.3732        0.0114       63.0477       63.0591      29.685859       0.43901
  36     2.964       33.3782        0.0148       63.0095       63.0244      29.646179       0.49810
  35     3.853       33.3866        0.0194       62.9533       62.9726      29.585967       0.57143
  34     5.035       33.3998        0.0254       62.8725       62.8979      29.498096       0.62771
  33     6.613       33.4183        0.0334       62.7621       62.7954      29.377180       0.64642
  32     8.786       33.4422        0.0441       62.6183       62.6624      29.220227       0.60955
  31     11.80       33.4727        0.0595       62.4284       62.4879      29.015207       0.57399
  30     15.07       33.5011        0.0760       62.2426       62.3186      28.817478       0.51050
  29     18.79       33.5294        0.0945       62.0493       62.1438      28.614466       0.46029
  28     23.16       33.5579        0.1162       61.8425       61.9586      28.400697       0.41336
  27     28.12       33.5854        0.1408       61.6278       61.7687      28.183304       0.36955
  26     33.73       33.6086        0.1684       61.4177       61.5861      27.977473       0.30947
  25     40.54       33.6281        0.2016       61.1983       61.4000      27.771880       0.25506
  24     48.69       33.6432        0.2416       60.9680       61.2096      27.566483       0.21255
  23     57.69       33.6516        0.2855       60.7478       61.0333      27.381709       0.17320
  22     68.43       33.6530        0.3377       60.5202       60.8579      27.204978       0.13893
  21     81.20       33.6425        0.3999       60.2939       60.6937      27.051214       0.10161
  20     96.49       33.6190        0.4739       60.0643       60.5382      26.919222       0.07285
  19     114.6       33.5900        0.5622       59.8079       60.3701      26.780128       0.06495
  18     136.5       33.5509        0.6667       59.5159       60.1826      26.631702       0.05707
  17     162.9       33.5001        0.7907       59.1775       59.9682      26.468162       0.05227
  16     196.4       33.4251        0.9512       58.7615       59.7127      26.287577       0.04546
  15     218.7       33.3726        1.0563       58.4968       59.5530      26.180439       0.04068
  14     243.0       33.3141        1.1702       58.2128       59.3831      26.068918       0.03868
  13     269.0       33.2494        1.2934       57.9094       59.2029      25.953475       0.03745
  12     297.5       33.1783        1.4263       57.5854       59.0116      25.833325       0.03564
  11     328.5       33.1013        1.5694       57.2365       58.8059      25.704607       0.03500
  10     361.9       33.0185        1.7230       56.8607       58.5838      25.565296       0.03525
   9     398.1       32.9299        1.8879       56.4552       58.3431      25.413166       0.03544
   8     437.6       32.8362        2.0643       56.0149       58.0791      25.242907       0.03640
   7     480.5       32.7383        2.2525       55.5327       57.7852      25.046894       0.03850
   6     533.0       32.6223        2.4829       54.9239       57.4069      24.784608       0.04219
   5     589.8       32.5040        2.7297       54.2494       56.9791      24.475124       0.04594
   4     651.6       32.3865        2.9926       53.5035       56.4961      24.109591       0.04999
   3     718.7       32.2712        3.2722       52.6934       55.9656      23.694438       0.05217
   2     792.3       32.1594        3.5683       51.8310       55.3992      23.239821       0.05214
   1     891.5       32.0321        3.9623       50.6759       54.6382      22.606081       0.05393
   0    1013.0       31.9295        4.4263       49.2837       53.7100      21.780502       0.05732



 Wavenumbers: 16000. - 22650. cm-1, ATM      1
 LEVEL PRESSURE   UPWARD FLUX   DIFDOWN FLUX  DIRDOWN FLUX  DOWNWARD FLUX   NET FLUX    HEATING RATE
          mb          W/m2          W/m2          W/m2        W/m2          W/m2       degree/day
  51    .06700       75.7106        0.0000      100.7153      100.7153      25.004721       0.00000
  50    .07753       75.7105        0.0003      100.7147      100.7151      25.004604       0.09412
  49    .09103       75.7103        0.0007      100.7140      100.7147      25.004433       0.10676
  48    0.1069       75.7101        0.0012      100.7131      100.7143      25.004204       0.12174
  47    0.1255       75.7100        0.0017      100.7121      100.7139      25.003898       0.13876
  46    0.1487       75.7098        0.0024      100.7108      100.7132      25.003447       0.16443
  45    0.1794       75.7095        0.0034      100.7089      100.7122      25.002742       0.19360
  44    0.2165       75.7092        0.0045      100.7066      100.7110      25.001786       0.21759
  43    0.2613       75.7090        0.0058      100.7037      100.7095      25.000488       0.24462
  42    0.3336       75.7086        0.0079      100.6987      100.7066      24.998020       0.28766
  41    0.4307       75.7083        0.0108      100.6918      100.7026      24.994302       0.32335
  40    0.5894       75.7080        0.0155      100.6797      100.6952      24.987209       0.37716
  39     1.339       75.7124        0.0377      100.6095      100.6472      24.934820       0.58980
  38     1.782       75.7190        0.0507      100.5585      100.6092      24.890205       0.84940
  37     2.292       75.7304        0.0658      100.4903      100.5560      24.825644       1.06929
  36     2.964       75.7512        0.0856      100.3868      100.4723      24.721104       1.31230
  35     3.853       75.7869        0.1117      100.2306      100.3423      24.555344       1.57309
  34     5.035       75.8424        0.1463      100.0045      100.1507      24.308312       1.76470
  33     6.613       75.9207        0.1924       99.6939       99.8863      23.965537       1.83248
  32     8.786       76.0221        0.2544       99.2881       99.5425      23.520424       1.72866
  31     11.80       76.1512        0.3429       98.7496       99.0925      22.941232       1.62156
  30     15.07       76.2716        0.4375       98.2198       98.6573      22.385752       1.43414
  29     18.79       76.3910        0.5440       97.6651       98.2091      21.818170       1.28688
  28     23.16       76.5114        0.6679       97.0671       97.7351      21.223700       1.14951
  27     28.12       76.6269        0.8091       96.4406       97.2497      20.622837       1.02143
  26     33.73       76.7241        0.9666       95.8179       96.7845      20.060354       0.84571
  25     40.54       76.8047        1.1562       95.1548       96.3111      19.506303       0.68736
  24     48.69       76.8662        1.3839       94.4420       95.8259      18.959719       0.56563
  23     57.69       76.8991        1.6330       93.7416       95.3746      18.475459       0.45392
  22     68.43       76.9013        1.9284       92.9954       94.9238      18.022446       0.35613
  21     81.20       76.8531        2.2790       92.2231       94.5021      17.648999       0.24677
  20     96.49       76.7489        2.6948       91.4110       94.1058      17.356934       0.16120
  19     114.6       76.6018        3.1851       90.5070       93.6922      17.090373       0.12447
  18     136.5       76.4125        3.7614       89.4803       93.2417      16.829144       0.10045
  17     162.9       76.1744        4.4407       88.3023       92.7430      16.568595       0.08328
  16     196.4       75.8368        5.3114       86.8608       92.1722      16.335461       0.05868
  15     218.7       75.6053        5.8770       85.9495       91.8265      16.221209       0.04338
  14     243.0       75.3501        6.4862       84.9796       91.4658      16.115656       0.03661
  13     269.0       75.0700        7.1398       83.9508       91.0906      16.020663       0.03082
  12     297.5       74.7642        7.8387       82.8622       90.7009      15.936709       0.02490
  11     328.5       74.4339        8.5853       81.7044       90.2898      15.855826       0.02199
  10     361.9       74.0791        9.3793       80.4780       89.8573      15.778185       0.01964
   9     398.1       73.6987       10.2224       79.1797       89.4021      15.703405       0.01742
   8     437.6       73.2929       11.1151       77.8074       88.9225      15.629584       0.01578
   7     480.5       72.8615       12.0575       76.3603       88.4177      15.556251       0.01440
   6     533.0       72.3360       13.1973       74.6101       87.8073      15.471320       0.01366
   5     589.8       71.7777       14.4014       72.7587       87.1602      15.382506       0.01318
   4     651.6       71.1875       15.6681       70.8067       86.4748      15.287298       0.01302
   3     718.7       70.5655       16.9953       68.7564       85.7517      15.186159       0.01271
   2     792.3       69.9134       18.3786       66.6140       84.9926      15.079214       0.01227
   1     891.5       69.0567       20.1847       63.8045       83.9892      14.932505       0.01248
   0    1013.0       68.0653       22.2626       60.5495       82.8121      14.746819       0.01289



 Wavenumbers: 22650. - 29000. cm-1, ATM      1
 LEVEL PRESSURE   UPWARD FLUX   DIFDOWN FLUX  DIRDOWN FLUX  DOWNWARD FLUX   NET FLUX    HEATING RATE
          mb          W/m2          W/m2          W/m2        W/m2          W/m2       degree/day
  51    .06700       34.3499        0.0000       38.0063       38.0063       3.656389       0.00000
  50    .07753       34.3497        0.0004       38.0057       38.0061       3.656389       0.00000
  49    .09103       34.3495        0.0009       38.0050       38.0059       3.656389       0.00000
  48    0.1069       34.3493        0.0014       38.0042       38.0057       3.656389      -0.00000
  47    0.1255       34.3490        0.0021       38.0033       38.0054       3.656389       0.00000
  46    0.1487       34.3487        0.0029       38.0022       38.0050       3.656389      -0.00000
  45    0.1794       34.3482        0.0040       38.0006       38.0046       3.656389       0.00000
  44    0.2165       34.3476        0.0053       37.9987       38.0040       3.656389      -0.00000
  43    0.2613       34.3469        0.0068       37.9965       38.0033       3.656389       0.00000
  42    0.3336       34.3458        0.0094       37.9928       38.0022       3.656389       0.00000
  41    0.4307       34.3444        0.0128       37.9880       38.0008       3.656389       0.00000
  40    0.5894       34.3420        0.0183       37.9800       37.9984       3.656389      -0.00000
  39     1.339       34.3307        0.0446       37.9425       37.9870       3.656389       0.00000
  38     1.782       34.3240        0.0600       37.9204       37.9804       3.656389       0.00000
  37     2.292       34.3163        0.0778       37.8949       37.9727       3.656389       0.00000
  36     2.964       34.3062        0.1012       37.8614       37.9626       3.656389       0.00000
  35     3.853       34.2929        0.1320       37.8172       37.9493       3.656389       0.00000
  34     5.035       34.2752        0.1730       37.7586       37.9316       3.656389       0.00000
  33     6.613       34.2515        0.2276       37.6803       37.9079       3.656389       0.00000
  32     8.786       34.2198        0.3011       37.5750       37.8762       3.656389       0.00000
  31     11.80       34.1744        0.4059       37.4249       37.8308       3.656389       0.00000
  30     15.07       34.1259        0.5181       37.2642       37.7823       3.656389       0.00000
  29     18.79       34.0712        0.6443       37.0833       37.7276       3.656389      -0.00000
  28     23.16       34.0077        0.7911       36.8730       37.6641       3.656389       0.00000
  27     28.12       33.9353        0.9579       36.6338       37.5917       3.656389       0.00000
  26     33.73       33.8548        1.1435       36.3677       37.5112       3.656389       0.00000
  25     40.54       33.7582        1.3660       36.0486       37.4146       3.656389      -0.00000
  24     48.69       33.6427        1.6318       35.6672       37.2991       3.656389       0.00000
  23     57.69       33.5170        1.9206       35.2527       37.1733       3.656389      -0.00000
  22     68.43       33.3689        2.2603       34.7649       37.0253       3.656389       0.00000
  21     81.20       33.1948        2.6589       34.1922       36.8512       3.656389       0.00000
  20     96.49       32.9907        3.1253       33.5218       36.6471       3.656389      -0.00000
  19     114.6       32.7530        3.6670       32.7424       36.4094       3.656389       0.00000
  18     136.5       32.4776        4.2924       31.8416       36.1340       3.656389      -0.00000
  17     162.9       32.1586        5.0142       30.8008       35.8150       3.656389       0.00000
  16     196.4       31.7587        5.9143       29.5007       35.4151       3.656389      -0.00000
  15     218.7       31.5043        6.4840       28.6768       35.1607       3.656389       0.00000
  14     243.0       31.2350        7.0845       27.8069       34.8914       3.656389       0.00000
  13     269.0       30.9513        7.7142       26.8935       34.6077       3.656389      -0.00000
  12     297.5       30.6539        8.3706       25.9397       34.3103       3.656389      -0.00000
  11     328.5       30.3428        9.0533       24.9458       33.9992       3.656389       0.00000
  10     361.9       30.0193        9.7584       23.9172       33.6757       3.656389      -0.00000
   9     398.1       29.6837       10.4842       22.8559       33.3401       3.656389       0.00000
   8     437.6       29.3377       11.2263       21.7677       32.9941       3.656389       0.00000
   7     480.5       28.9820       11.9818       20.6565       32.6384       3.656389       0.00000
   6     533.0       28.5649       12.8571       19.3641       32.2213       3.656389      -0.00000
   5     589.8       28.1393       13.7374       18.0583       31.7957       3.656389      -0.00000
   4     651.6       27.7074       14.6159       16.7479       31.3638       3.656389      -0.00000
   3     718.7       27.2716       15.4855       15.4425       30.9280       3.656389       0.00000
   2     792.3       26.8347       16.3379       14.1532       30.4911       3.656389       0.00000
   1     891.5       26.2899       17.3689       12.5775       29.9463       3.656389       0.00000
   0    1013.0       25.6969       18.4440       10.9093       29.3533       3.656389      -0.00000



 Wavenumbers: 29000. - 38000. cm-1, ATM      1
 LEVEL PRESSURE   UPWARD FLUX   DIFDOWN FLUX  DIRDOWN FLUX  DOWNWARD FLUX   NET FLUX    HEATING RATE
          mb          W/m2          W/m2          W/m2        W/m2          W/m2       degree/day
  51    .06700        4.8871        0.0000       13.4026       13.4026       8.515506       0.00000
  50    .07753        4.8869        0.0003       13.3983       13.3986       8.511708       3.04438
  49    .09103        4.8866        0.0007       13.3921       13.3928       8.506188       3.44966
  48    0.1069        4.8863        0.0011       13.3840       13.3851       8.498812       3.92676
  47    0.1255        4.8860        0.0016       13.3733       13.3749       8.488967       4.46317
  46    0.1487        4.8855        0.0022       13.3579       13.3600       8.474524       5.26437
  45    0.1794        4.8849        0.0030       13.3340       13.3371       8.452125       6.14925
  44    0.2165        4.8843        0.0040       13.3024       13.3064       8.422106       6.82875
  43    0.2613        4.8835        0.0052       13.2604       13.2656       8.382051       7.55009
  42    0.3336        4.8823        0.0070       13.1833       13.1903       8.308045       8.62840
  41    0.4307        4.8807        0.0095       13.0729       13.0824       8.201674       9.24878
  40    0.5894        4.8784        0.0134       12.8796       12.8930       8.014631       9.94668
  39     1.339        4.8699        0.0296       11.9165       11.9462       7.076298      10.56392
  38     1.782        4.8666        0.0379       11.4399       11.4779       6.611322       8.85239
  37     2.292        4.8640        0.0468       10.9796       11.0264       6.162396       7.43539
  36     2.964        4.8626        0.0577       10.4786       10.5364       5.673773       6.13369
  35     3.853        4.8632        0.0712        9.9429       10.0141       5.150925       4.96193
  34     5.035        4.8665        0.0880        9.4007        9.4887       4.622202       3.77698
  33     6.613        4.8728        0.1094        8.8752        8.9846       4.111818       2.72851
  32     8.786        4.8814        0.1369        8.3786        8.5155       3.634091       1.85532
  31     11.80        4.8919        0.1746        7.8897        8.0643       3.172438       1.29248
  30     15.07        4.9009        0.2136        7.5108        7.7244       2.823521       0.90084
  29     18.79        4.9092        0.2560        7.1776        7.4336       2.524435       0.67812
  28     23.16        4.9168        0.3038        6.8664        7.1703       2.253457       0.52398
  27     28.12        4.9229        0.3567        6.5780        6.9347       2.011816       0.41077
  26     33.73        4.9250        0.4142        6.3195        6.7337       1.808693       0.30540
  25     40.54        4.9220        0.4822        6.0663        6.5484       1.626383       0.22618
  24     48.69        4.9134        0.5617        5.8128        6.3746       1.461191       0.17095
  23     57.69        4.8990        0.6466        5.5777        6.2243       1.325341       0.12734
  22     68.43        4.8766        0.7449        5.3379        6.0828       1.206163       0.09369
  21     81.20        4.8420        0.8589        5.0965        5.9554       1.113382       0.06131
  20     96.49        4.7939        0.9906        4.8476        5.8382       1.044279       0.03814
  19     114.6        4.7355        1.1397        4.5799        5.7196       0.984117       0.02809
  18     136.5        4.6677        1.3064        4.2891        5.5954       0.927716       0.02169
  17     162.9        4.5903        1.4911        3.9732        5.4643       0.873937       0.01719
  16     196.4        4.4923        1.7123        3.6080        5.3203       0.827955       0.01157
  15     218.7        4.4306        1.8469        3.3898        5.2366       0.806059       0.00831
  14     243.0        4.3663        1.9840        3.1686        5.1525       0.786193       0.00689
  13     269.0        4.2999        2.1225        2.9461        5.0686       0.768668       0.00569
  12     297.5        4.2318        2.2613        2.7239        4.9853       0.753502       0.00450
  11     328.5        4.1626        2.3990        2.5029        4.9019       0.739254       0.00387
  10     361.9        4.0931        2.5342        2.2848        4.8190       0.725953       0.00337
   9     398.1        4.0233        2.6659        2.0710        4.7369       0.713578       0.00288
   8     437.6        3.9540        2.7926        1.8633        4.6559       0.701871       0.00250
   7     480.5        3.8855        2.9133        1.6632        4.5765       0.690961       0.00214
   6     533.0        3.8085        3.0426        1.4452        4.4878       0.679297       0.00188
   5     589.8        3.7337        3.1608        1.2411        4.4019       0.668229       0.00164
   4     651.6        3.6615        3.2667        1.0524        4.3191       0.657605       0.00145
   3     718.7        3.5922        3.3591        0.8805        4.2396       0.647392       0.00128
   2     792.3        3.5262        3.4371        0.7266        4.1637       0.637568       0.00113
   1     891.5        3.4480        3.5144        0.5593        4.0737       0.625666       0.00101
   0    1013.0        3.3675        3.5733        0.4070        3.9803       0.612798       0.00089



 Wavenumbers: 38000. - 50000. cm-1, ATM      1
 LEVEL PRESSURE   UPWARD FLUX   DIFDOWN FLUX  DIRDOWN FLUX  DOWNWARD FLUX   NET FLUX    HEATING RATE
          mb          W/m2          W/m2          W/m2        W/m2          W/m2       degree/day
  51    .06700        0.0051        0.0000        0.8267        0.8267       0.821528       0.00000
  50    .07753        0.0051        0.0001        0.8242        0.8243       0.819196       1.86936
  49    .09103        0.0050        0.0002        0.8207        0.8209       0.815873       2.07705
  48    0.1069        0.0049        0.0002        0.8162        0.8164       0.811514       2.31984
  47    0.1255        0.0048        0.0004        0.8103        0.8106       0.805801       2.59006
  46    0.1487        0.0047        0.0005        0.8018        0.8023       0.797567       3.00143
  45    0.1794        0.0045        0.0007        0.7889        0.7896       0.785013       3.44648
  44    0.2165        0.0044        0.0009        0.7720        0.7729       0.768507       3.75474
  43    0.2613        0.0042        0.0011        0.7500        0.7511       0.746955       4.06246
  42    0.3336        0.0039        0.0015        0.7106        0.7121       0.708267       4.51071
  41    0.4307        0.0035        0.0019        0.6566        0.6584       0.654972       4.63387
  40    0.5894        0.0029        0.0024        0.5680        0.5704       0.567464       4.65357
  39     1.339        0.0015        0.0030        0.2422        0.2452       0.243720       3.64476
  38     1.782        0.0010        0.0026        0.1493        0.1519       0.150889       1.76735
  37     2.292        0.0007        0.0022        0.0924        0.0946       0.093932       0.94336
  36     2.964        0.0005        0.0018        0.0539        0.0557       0.055224       0.48589
  35     3.853        0.0003        0.0013        0.0295        0.0308       0.030502       0.23462
  34     5.035        0.0002        0.0010        0.0154        0.0164       0.016181       0.10230
  33     6.613        0.0001        0.0007        0.0073        0.0080       0.007912       0.04420
  32     8.786        0.0000        0.0004        0.0030        0.0034       0.003390       0.01756
  31     11.80        0.0000        0.0003        0.0010        0.0012       0.001199       0.00613
  30     15.07        0.0000        0.0001        0.0003        0.0005       0.000463       0.00190
  29     18.79        0.0000        0.0001        0.0001        0.0002       0.000182       0.00064
  28     23.16        0.0000        0.0000        0.0000        0.0001       0.000071       0.00022
  27     28.12        0.0000        0.0000        0.0000        0.0000       0.000028       0.00007
  26     33.73        0.0000        0.0000        0.0000        0.0000       0.000011       0.00002
  25     40.54        0.0000        0.0000        0.0000        0.0000       0.000005       0.00001
  24     48.69        0.0000        0.0000        0.0000        0.0000       0.000002       0.00000
  23     57.69        0.0000        0.0000        0.0000        0.0000       0.000001       0.00000
  22     68.43        0.0000        0.0000        0.0000        0.0000       0.000000       0.00000
  21     81.20        0.0000        0.0000        0.0000        0.0000       0.000000       0.00000
  20     96.49        0.0000        0.0000        0.0000        0.0000       0.000000       0.00000
  19     114.6        0.0000        0.0000        0.0000        0.0000       0.000000       0.00000
  18     136.5        0.0000        0.0000        0.0000        0.0000       0.000000       0.00000
  17     162.9        0.0000        0.0000        0.0000        0.0000       0.000000       0.00000
  16     196.4        0.0000        0.0000        0.0000        0.0000       0.000000       0.00000
  15     218.7        0.0000        0.0000        0.0000        0.0000       0.000000       0.00000
  14     243.0        0.0000        0.0000        0.0000        0.0000       0.000000       0.00000
  13     269.0        0.0000        0.0000        0.0000        0.0000       0.000000       0.00000
  12     297.5        0.0000        0.0000        0.0000        0.0000       0.000000       0.00000
  11     328.5        0.0000        0.0000        0.0000        0.0000       0.000000       0.00000
  10     361.9        0.0000        0.0000        0.0000        0.0000       0.000000       0.00000
   9     398.1        0.0000        0.0000        0.0000        0.0000       0.000000       0.00000
   8     437.6        0.0000        0.0000        0.0000        0.0000       0.000000       0.00000
   7     480.5        0.0000        0.0000        0.0000        0.0000       0.000000       0.00000
   6     533.0        0.0000        0.0000        0.0000        0.0000       0.000000       0.00000
   5     589.8        0.0000        0.0000        0.0000        0.0000       0.000000       0.00000
   4     651.6        0.0000        0.0000        0.0000        0.0000       0.000000       0.00000
   3     718.7        0.0000        0.0000        0.0000        0.0000       0.000000       0.00000
   2     792.3        0.0000        0.0000        0.0000        0.0000       0.000000       0.00000
   1     891.5        0.0000        0.0000        0.0000        0.0000       0.000000       0.00000
   0    1013.0        0.0000        0.0000        0.0000        0.0000       0.000000       0.00000



 Wavenumbers:   820. -  2600. cm-1, ATM      1
 LEVEL PRESSURE   UPWARD FLUX   DIFDOWN FLUX  DIRDOWN FLUX  DOWNWARD FLUX   NET FLUX    HEATING RATE
          mb          W/m2          W/m2          W/m2        W/m2          W/m2       degree/day
  51    .06700        0.2474        0.0000        3.8670        3.8670       3.619607       0.00000
  50    .07753        0.2474        0.0000        3.8643        3.8643       3.616935       2.14171
  49    .09103        0.2474        0.0000        3.8636        3.8636       3.616184       0.46972
  48    0.1069        0.2474        0.0000        3.8628        3.8628       3.615363       0.43682
  47    0.1255        0.2474        0.0000        3.8619        3.8619       3.614486       0.39765
  46    0.1487        0.2474        0.0000        3.8609        3.8609       3.613487       0.36437
  45    0.1794        0.2474        0.0000        3.8597        3.8597       3.612307       0.32372
  44    0.2165        0.2474        0.0000        3.8585        3.8585       3.611121       0.26988
  43    0.2613        0.2474        0.0000        3.8573        3.8573       3.609895       0.23107
  42    0.3336        0.2474        0.0000        3.8555        3.8555       3.608063       0.21355
  41    0.4307        0.2474        0.0000        3.8531        3.8531       3.605728       0.20309
  40    0.5894        0.2474        0.0000        3.8493        3.8493       3.601911       0.20294
  39     1.339        0.2474        0.0000        3.8322        3.8322       3.584831       0.19230
  38     1.782        0.2474        0.0000        3.8228        3.8228       3.575402       0.17952
  37     2.292        0.2474        0.0000        3.8123        3.8123       3.564930       0.17343
  36     2.964        0.2474        0.0000        3.7993        3.7993       3.551886       0.16375
  35     3.853        0.2474        0.0000        3.7829        3.7829       3.535533       0.15519
  34     5.035        0.2474        0.0000        3.7620        3.7620       3.514605       0.14950
  33     6.613        0.2474        0.0000        3.7349        3.7349       3.487442       0.14521
  32     8.786        0.2474        0.0000        3.7008        3.7008       3.453409       0.13217
  31     11.80        0.2474        0.0000        3.6614        3.6614       3.413963       0.11044
  30     15.07        0.2474        0.0000        3.6319        3.6319       3.384518       0.07602
  29     18.79        0.2474        0.0000        3.6104        3.6104       3.362961       0.04888
  28     23.16        0.2474        0.0000        3.5934        3.5934       3.345997       0.03280
  27     28.12        0.2474        0.0000        3.5778        3.5778       3.330386       0.02654
  26     33.73        0.2474        0.0000        3.5614        3.5614       3.313964       0.02469
  25     40.54        0.2474        0.0000        3.5418        3.5418       3.294377       0.02430
  24     48.69        0.2474        0.0000        3.5183        3.5183       3.270883       0.02431
  23     57.69        0.2474        0.0000        3.4928        3.4928       3.245326       0.02396
  22     68.43        0.2475        0.0000        3.4629        3.4629       3.215459       0.02348
  21     81.20        0.2475        0.0000        3.4289        3.4290       3.181486       0.02245
  20     96.49        0.2475        0.0000        3.3905        3.3906       3.143069       0.02120
  19     114.6        0.2475        0.0000        3.3478        3.3478       3.100283       0.01998
  18     136.5        0.2475        0.0000        3.3000        3.3000       3.052494       0.01838
  17     162.9        0.2476        0.0000        3.2428        3.2428       2.995275       0.01829
  16     196.4        0.2476        0.0000        3.1651        3.1652       2.917528       0.01957
  15     218.7        0.2477        0.0000        3.1149        3.1149       2.867240       0.01909
  14     243.0        0.2477        0.0000        3.0534        3.0535       2.805715       0.02134
  13     269.0        0.2478        0.0000        2.9708        2.9708       2.722982       0.02684
  12     297.5        0.2480        0.0000        2.8740        2.8741       2.626070       0.02874
  11     328.5        0.2482        0.0000        2.7566        2.7566       2.508352       0.03201
  10     361.9        0.2486        0.0000        2.6047        2.6048       2.356199       0.03850
   9     398.1        0.2490        0.0000        2.4282        2.4283       2.179264       0.04122
   8     437.6        0.2496        0.0000        2.2523        2.2523       2.002727       0.03774
   7     480.5        0.2504        0.0000        2.1064        2.1064       1.856087       0.02880
   6     533.0        0.2515        0.0000        1.9945        1.9945       1.742978       0.01820
   5     589.8        0.2531        0.0000        1.9036        1.9037       1.650579       0.01371
   4     651.6        0.2552        0.0000        1.8068        1.8068       1.551573       0.01354
   3     718.7        0.2580        0.0000        1.7101        1.7102       1.452212       0.01249
   2     792.3        0.2613        0.0000        1.6229        1.6229       1.361645       0.01039
   1     891.5        0.2667        0.0001        1.5258        1.5258       1.259167       0.00872
   0    1013.0        0.2761        0.0001        1.4196        1.4196       1.143507       0.00803

  Modules and versions used in this calculation:

       rrtmg_sw.1col.f90:  $Revision$                    rrtmg_sw_init.f90:  $Revision$        
     rrtmgsw_cldprop.f90:  $Revision$                  rrtmgsw_cldprmc.f90:  NOT USED          
     rrtmg_sw_reftra.f90:  $Revision$                  rrtmg_sw_spcvrt.f90:  NOT USED          
     rrtmg_sw_spcvmc.f90:  NOT USED                    rrtmgsw_setcoef.f90:  NOT USED          
     rrtmg_sw_taumol.f90:  $Revision$                  rrtmg_sw_vrtqdr.f90:  NOT USED          
                rrtatm.f:  NOT USED                             util_xxx.f:  NOT USED          
                 extra.f:  NOT USED                       rrtmg_sw_k_g.f90:  $Revision$        

