

 Wavenumbers:   820. - 50000. cm-1, ATM      1
 LEVEL PRESSURE   UPWARD FLUX   DIFDOWN FLUX  DIRDOWN FLUX  DOWNWARD FLUX   NET FLUX    HEATING RATE
          mb          W/m2          W/m2          W/m2        W/m2          W/m2       degree/day
  51    .06700      184.2612        0.0000      397.8738      397.8738     213.612580       0.00000
  50    .07753      184.2606        0.0012      397.8580      397.8591     213.598559      11.23728
  49    .09103      184.2598        0.0026      397.8424      397.8450     213.585195       8.35314
  48    0.1069      184.2590        0.0043      397.8239      397.8282     213.569202       8.51322
  47    0.1255      184.2580        0.0062      397.8010      397.8071     213.549156       9.08791
  46    0.1487      184.2568        0.0086      397.7694      397.7780     213.521189      10.19429
  45    0.1794      184.2552        0.0119      397.7229      397.7348     213.479565      11.42670
  44    0.2165      184.2534        0.0158      397.6634      397.6792     213.425725      12.24771
  43    0.2613      184.2514        0.0204      397.5870      397.6073     213.355916      13.15867
  42    0.3336      184.2482        0.0279      397.4505      397.4784     213.230171      14.66062
  41    0.4307      184.2443        0.0377      397.2601      397.2979     213.053603      15.35220
  40    0.5894      184.2384        0.0536      396.9364      396.9901     212.751625      16.05881
  39     1.339      184.2215        0.1245      395.4508      395.5753     211.353735      15.73770
  38     1.782      184.2188        0.1643      394.7617      394.9260     210.707216      12.30868
  37     2.292      184.2218        0.2095      394.0985      394.3080     210.086151      10.28646
  36     2.964      184.2352        0.2681      393.3527      393.6208     209.385626       8.79371
  35     3.853      184.2657        0.3448      392.4970      392.8418     208.576183       7.68176
  34     5.035      184.3189        0.4457      391.5254      391.9711     207.652206       6.60051
  33     6.613      184.3971        0.5794      390.4269      391.0063     206.609198       5.57593
  32     8.786      184.4976        0.7581      389.1841      389.9423     205.444684       4.52255
  31     11.80      184.6198        1.0117      387.6977      388.7095     204.089620       3.79375
  30     15.07      184.7261        1.2818      386.3283      387.6101     202.884055       3.11254
  29     18.79      184.8237        1.5845      384.9496      386.5341     201.710395       2.66105
  28     23.16      184.9121        1.9351      383.4979      385.4330     200.520935       2.30003
  27     28.12      184.9830        2.3327      381.9940      384.3266     199.343618       2.00136
  26     33.73      185.0183        2.7743      380.4916      383.2660     198.247709       1.64773
  25     40.54      185.0097        3.3040      378.8674      382.1713     197.161587       1.34746
  24     48.69      184.9506        3.9367      377.0896      381.0263     196.075681       1.12374
  23     57.69      184.8388        4.6251      375.3021      379.9272     195.088420       0.92541
  22     68.43      184.6556        5.4365      373.3444      378.7809     194.125346       0.75710
  21     81.20      184.3680        6.3928      371.2327      377.6255     193.257415       0.57352
  20     96.49      183.9631        7.5175      368.9287      376.4462     192.483004       0.42742
  19     114.6      183.4601        8.8307      366.3344      375.1651     191.704953       0.36330
  18     136.5      182.8522       10.3554      363.3925      373.7479     190.895693       0.31118
  17     162.9      182.1233       12.1272      360.0215      372.1487     190.025353       0.27820
  16     196.4      181.1563       14.3602      355.8417      370.2019     189.045589       0.24662
  15     218.7      180.5193       15.7880      353.1545      368.9425     188.423205       0.23630
  14     243.0      179.8320       17.3063      350.2153      367.5216     187.689574       0.25445
  13     269.0      179.0941       18.9136      346.8994      365.8130     186.718950       0.31487
  12     297.5      178.3059       20.6078      343.1969      363.8047     185.498813       0.36188
  11     328.5      177.4702       22.3903      338.9984      361.3887     183.918466       0.42969
  10     361.9      176.5895       24.2558      334.3117      358.5674     181.977942       0.49097
   9     398.1      175.6639       26.2044      329.2099      355.4143     179.750417       0.51896
   8     437.6      174.6978       28.2309      323.6792      351.9101     177.212329       0.54266
   7     480.5      173.6960       30.3311      317.5855      347.9166     174.220616       0.58756
   6     533.0      172.5114       32.8212      310.0668      342.8880     170.376568       0.61839
   5     589.8      171.2974       35.3934      302.1380      337.5315     166.234057       0.61488
   4     651.6      170.0694       38.0376      293.8864      331.9240     161.854585       0.59890
   3     718.7      168.8372       40.7445      285.5768      326.3213     157.484159       0.54924
   2     792.3      167.6103       43.5028      277.3749      320.8777     153.267402       0.48361
   1     891.5      166.1199       47.0089      267.1329      314.1419     148.022015       0.44636
   0    1013.0      164.6610       50.9225      255.5156      306.4381     141.777158       0.43361



 Wavenumbers:  2600. -  3250. cm-1, ATM      1
 LEVEL PRESSURE   UPWARD FLUX   DIFDOWN FLUX  DIRDOWN FLUX  DOWNWARD FLUX   NET FLUX    HEATING RATE
          mb          W/m2          W/m2          W/m2        W/m2          W/m2       degree/day
  51    .06700        0.4670        0.0000        3.5066        3.5066       3.039647       0.00000
  50    .07753        0.4670        0.0000        3.5066        3.5066       3.039639       0.00640
  49    .09103        0.4670        0.0000        3.5066        3.5066       3.039629       0.00627
  48    0.1069        0.4670        0.0000        3.5066        3.5066       3.039617       0.00613
  47    0.1255        0.4670        0.0000        3.5066        3.5066       3.039604       0.00599
  46    0.1487        0.4670        0.0000        3.5066        3.5066       3.039587       0.00607
  45    0.1794        0.4670        0.0000        3.5065        3.5065       3.039564       0.00624
  44    0.2165        0.4670        0.0000        3.5065        3.5065       3.039538       0.00611
  43    0.2613        0.4670        0.0000        3.5065        3.5065       3.039506       0.00598
  42    0.3336        0.4670        0.0000        3.5064        3.5064       3.039453       0.00615
  41    0.4307        0.4670        0.0000        3.5064        3.5064       3.039382       0.00618
  40    0.5894        0.4670        0.0000        3.5062        3.5062       3.039263       0.00633
  39     1.339        0.4670        0.0000        3.5055        3.5055       3.038564       0.00787
  38     1.782        0.4670        0.0000        3.5050        3.5050       3.038033       0.01011
  37     2.292        0.4670        0.0000        3.5043        3.5043       3.037341       0.01147
  36     2.964        0.4670        0.0000        3.5033        3.5033       3.036349       0.01245
  35     3.853        0.4670        0.0000        3.5019        3.5019       3.034972       0.01307
  34     5.035        0.4670        0.0000        3.5001        3.5001       3.033111       0.01329
  33     6.613        0.4670        0.0000        3.4977        3.4977       3.030701       0.01288
  32     8.786        0.4670        0.0000        3.4947        3.4947       3.027730       0.01154
  31     11.80        0.4670        0.0000        3.4911        3.4911       3.024094       0.01018
  30     15.07        0.4670        0.0000        3.4878        3.4878       3.020872       0.00832
  29     18.79        0.4670        0.0000        3.4848        3.4848       3.017807       0.00695
  28     23.16        0.4670        0.0000        3.4816        3.4816       3.014585       0.00623
  27     28.12        0.4670        0.0000        3.4779        3.4779       3.010965       0.00616
  26     33.73        0.4670        0.0000        3.4735        3.4735       3.006494       0.00672
  25     40.54        0.4670        0.0000        3.4671        3.4671       3.000162       0.00786
  24     48.69        0.4670        0.0000        3.4582        3.4583       2.991257       0.00921
  23     57.69        0.4670        0.0000        3.4472        3.4472       2.980196       0.01037
  22     68.43        0.4670        0.0000        3.4329        3.4329       2.965917       0.01122
  21     81.20        0.4671        0.0000        3.4152        3.4152       2.948162       0.01173
  20     96.49        0.4671        0.0000        3.3940        3.3941       2.926980       0.01169
  19     114.6        0.4672        0.0000        3.3699        3.3699       2.902772       0.01130
  18     136.5        0.4672        0.0001        3.3435        3.3435       2.876306       0.01018
  17     162.9        0.4673        0.0001        3.3158        3.3159       2.848530       0.00888
  16     196.4        0.4675        0.0001        3.2858        3.2858       2.818322       0.00760
  15     218.7        0.4677        0.0001        3.2688        3.2689       2.801199       0.00650
  14     243.0        0.4678        0.0001        3.2517        3.2518       2.783980       0.00597
  13     269.0        0.4681        0.0001        3.2332        3.2333       2.765232       0.00608
  12     297.5        0.4684        0.0001        3.2117        3.2118       2.743364       0.00649
  11     328.5        0.4689        0.0001        3.1846        3.1847       2.715824       0.00749
  10     361.9        0.4696        0.0001        3.1516        3.1518       2.682187       0.00851
   9     398.1        0.4705        0.0001        3.1106        3.1108       2.640284       0.00976
   8     437.6        0.4717        0.0002        3.0591        3.0593       2.587579       0.01127
   7     480.5        0.4733        0.0002        2.9928        2.9930       2.519624       0.01335
   6     533.0        0.4759        0.0002        2.8991        2.8993       2.423356       0.01549
   5     589.8        0.4794        0.0002        2.7880        2.7882       2.308791       0.01701
   4     651.6        0.4843        0.0002        2.6631        2.6633       2.179024       0.01775
   3     718.7        0.4906        0.0002        2.5344        2.5346       2.044001       0.01697
   2     792.3        0.4985        0.0002        2.4105        2.4107       1.912232       0.01511
   1     891.5        0.5115        0.0002        2.2605        2.2607       1.749233       0.01387
   0    1013.0        0.5328        0.0003        2.0884        2.0887       1.555910       0.01342



 Wavenumbers:  3250. -  4000. cm-1, ATM      1
 LEVEL PRESSURE   UPWARD FLUX   DIFDOWN FLUX  DIRDOWN FLUX  DOWNWARD FLUX   NET FLUX    HEATING RATE
          mb          W/m2          W/m2          W/m2        W/m2          W/m2       degree/day
  51    .06700        0.3154        0.0000        5.9117        5.9117       5.596235       0.00000
  50    .07753        0.3154        0.0000        5.9076        5.9076       5.592183       3.24785
  49    .09103        0.3154        0.0000        5.9053        5.9053       5.589890       1.43353
  48    0.1069        0.3154        0.0000        5.9036        5.9036       5.588168       0.91617
  47    0.1255        0.3154        0.0000        5.9020        5.9020       5.586556       0.73110
  46    0.1487        0.3154        0.0000        5.9002        5.9002       5.584827       0.63030
  45    0.1794        0.3154        0.0000        5.8983        5.8983       5.582875       0.53582
  44    0.2165        0.3154        0.0000        5.8964        5.8964       5.580983       0.43038
  43    0.2613        0.3154        0.0000        5.8945        5.8945       5.579094       0.35602
  42    0.3336        0.3154        0.0000        5.8918        5.8918       5.576395       0.31466
  41    0.4307        0.3154        0.0000        5.8886        5.8886       5.573154       0.28179
  40    0.5894        0.3154        0.0000        5.8836        5.8836       5.568211       0.26290
  39     1.339        0.3154        0.0000        5.8653        5.8653       5.549852       0.20669
  38     1.782        0.3154        0.0000        5.8576        5.8576       5.542152       0.14660
  37     2.292        0.3154        0.0000        5.8502        5.8502       5.534752       0.12255
  36     2.964        0.3154        0.0000        5.8416        5.8416       5.526174       0.10768
  35     3.853        0.3154        0.0000        5.8309        5.8309       5.515487       0.10143
  34     5.035        0.3154        0.0000        5.8168        5.8168       5.501397       0.10065
  33     6.613        0.3154        0.0000        5.7976        5.7976       5.482163       0.10282
  32     8.786        0.3154        0.0000        5.7706        5.7706       5.455179       0.10480
  31     11.80        0.3154        0.0000        5.7306        5.7306       5.415197       0.11194
  30     15.07        0.3154        0.0000        5.6868        5.6868       5.371447       0.11295
  29     18.79        0.3154        0.0000        5.6377        5.6377       5.322336       0.11135
  28     23.16        0.3154        0.0000        5.5829        5.5829       5.267554       0.10593
  27     28.12        0.3154        0.0000        5.5254        5.5254       5.210033       0.09778
  26     33.73        0.3154        0.0000        5.4679        5.4680       5.152610       0.08634
  25     40.54        0.3154        0.0001        5.4062        5.4062       5.090869       0.07660
  24     48.69        0.3154        0.0001        5.3385        5.3385       5.023173       0.07005
  23     57.69        0.3153        0.0001        5.2677        5.2678       4.952422       0.06632
  22     68.43        0.3153        0.0001        5.1851        5.1852       4.869890       0.06488
  21     81.20        0.3153        0.0001        5.0893        5.0894       4.774124       0.06328
  20     96.49        0.3153        0.0001        4.9813        4.9815       4.666175       0.05958
  19     114.6        0.3153        0.0001        4.8630        4.8632       4.547917       0.05522
  18     136.5        0.3153        0.0002        4.7369        4.7371       4.421821       0.04849
  17     162.9        0.3152        0.0002        4.6000        4.6002       4.284954       0.04375
  16     196.4        0.3152        0.0002        4.4347        4.4349       4.119714       0.04159
  15     218.7        0.3152        0.0003        4.3263        4.3265       4.011356       0.04114
  14     243.0        0.3152        0.0003        4.1977        4.1980       3.882807       0.04458
  13     269.0        0.3152        0.0003        4.0191        4.0194       3.704168       0.05795
  12     297.5        0.3153        0.0003        3.8177        3.8180       3.502723       0.05975
  11     328.5        0.3155        0.0003        3.5784        3.5787       3.263208       0.06512
  10     361.9        0.3159        0.0003        3.2927        3.2930       2.977076       0.07239
   9     398.1        0.3166        0.0003        2.9744        2.9748       2.658184       0.07429
   8     437.6        0.3177        0.0003        2.6460        2.6463       2.328567       0.07047
   7     480.5        0.3197        0.0003        2.3184        2.3187       1.998982       0.06473
   6     533.0        0.3234        0.0003        1.9754        1.9757       1.652245       0.05578
   5     589.8        0.3295        0.0003        1.6701        1.6704       1.340971       0.04620
   4     651.6        0.3392        0.0003        1.3939        1.3942       1.055044       0.03910
   3     718.7        0.3536        0.0003        1.1561        1.1564       0.802821       0.03170
   2     792.3        0.3738        0.0003        0.9552        0.9554       0.581590       0.02537
   1     891.5        0.4120        0.0002        0.7358        0.7360       0.323981       0.02192
   0    1013.0        0.4911        0.0002        0.5178        0.5180       0.026862       0.02063



 Wavenumbers:  4000. -  4650. cm-1, ATM      1
 LEVEL PRESSURE   UPWARD FLUX   DIFDOWN FLUX  DIRDOWN FLUX  DOWNWARD FLUX   NET FLUX    HEATING RATE
          mb          W/m2          W/m2          W/m2        W/m2          W/m2       degree/day
  51    .06700        0.8278        0.0000        6.9421        6.9421       6.114231       0.00000
  50    .07753        0.8278        0.0000        6.9421        6.9421       6.114230       0.00082
  49    .09103        0.8278        0.0000        6.9421        6.9421       6.114229       0.00080
  48    0.1069        0.8278        0.0000        6.9421        6.9421       6.114227       0.00078
  47    0.1255        0.8278        0.0000        6.9421        6.9421       6.114226       0.00077
  46    0.1487        0.8278        0.0000        6.9421        6.9421       6.114224       0.00078
  45    0.1794        0.8278        0.0000        6.9421        6.9421       6.114221       0.00080
  44    0.2165        0.8278        0.0000        6.9421        6.9421       6.114217       0.00078
  43    0.2613        0.8278        0.0000        6.9420        6.9420       6.114213       0.00077
  42    0.3336        0.8278        0.0000        6.9420        6.9420       6.114206       0.00079
  41    0.4307        0.8278        0.0000        6.9420        6.9420       6.114197       0.00079
  40    0.5894        0.8278        0.0000        6.9420        6.9420       6.114182       0.00082
  39     1.339        0.8278        0.0000        6.9419        6.9419       6.114090       0.00103
  38     1.782        0.8278        0.0000        6.9418        6.9419       6.114019       0.00136
  37     2.292        0.8278        0.0000        6.9417        6.9418       6.113922       0.00160
  36     2.964        0.8278        0.0000        6.9416        6.9416       6.113779       0.00180
  35     3.853        0.8278        0.0000        6.9414        6.9414       6.113566       0.00202
  34     5.035        0.8278        0.0000        6.9411        6.9411       6.113252       0.00224
  33     6.613        0.8278        0.0000        6.9406        6.9406       6.112791       0.00247
  32     8.786        0.8278        0.0000        6.9399        6.9399       6.112111       0.00264
  31     11.80        0.8278        0.0000        6.9388        6.9388       6.111046       0.00298
  30     15.07        0.8278        0.0001        6.9375        6.9376       6.109799       0.00322
  29     18.79        0.8278        0.0001        6.9360        6.9361       6.108296       0.00341
  28     23.16        0.8278        0.0001        6.9341        6.9342       6.106436       0.00360
  27     28.12        0.8278        0.0001        6.9319        6.9320       6.104193       0.00381
  26     33.73        0.8278        0.0001        6.9291        6.9292       6.101438       0.00414
  25     40.54        0.8278        0.0002        6.9253        6.9255       6.097722       0.00461
  24     48.69        0.8277        0.0002        6.9204        6.9205       6.092797       0.00510
  23     57.69        0.8278        0.0002        6.9145        6.9147       6.086997       0.00544
  22     68.43        0.8278        0.0003        6.9073        6.9075       6.079779       0.00567
  21     81.20        0.8278        0.0003        6.8984        6.8987       6.070942       0.00584
  20     96.49        0.8278        0.0004        6.8877        6.8881       6.060258       0.00590
  19     114.6        0.8279        0.0004        6.8749        6.8753       6.047430       0.00599
  18     136.5        0.8280        0.0005        6.8595        6.8600       6.032054       0.00591
  17     162.9        0.8281        0.0006        6.8410        6.8416       6.013507       0.00593
  16     196.4        0.8283        0.0007        6.8166        6.8173       5.988997       0.00617
  15     218.7        0.8285        0.0008        6.8001        6.8009       5.972417       0.00629
  14     243.0        0.8287        0.0009        6.7813        6.7822       5.953467       0.00657
  13     269.0        0.8290        0.0010        6.7591        6.7601       5.931038       0.00728
  12     297.5        0.8295        0.0011        6.7328        6.7339       5.904386       0.00790
  11     328.5        0.8300        0.0012        6.7013        6.7025       5.872453       0.00868
  10     361.9        0.8308        0.0013        6.6640        6.6653       5.834443       0.00962
   9     398.1        0.8318        0.0014        6.6196        6.6210       5.789206       0.01054
   8     437.6        0.8331        0.0016        6.5658        6.5673       5.734257       0.01175
   7     480.5        0.8348        0.0017        6.4986        6.5003       5.665460       0.01351
   6     533.0        0.8374        0.0019        6.4045        6.4064       5.568948       0.01553
   5     589.8        0.8409        0.0020        6.2934        6.2954       5.454486       0.01699
   4     651.6        0.8454        0.0022        6.1693        6.1715       5.326115       0.01755
   3     718.7        0.8511        0.0024        6.0392        6.0416       5.190492       0.01704
   2     792.3        0.8582        0.0026        5.9066        5.9092       5.050994       0.01600
   1     891.5        0.8695        0.0028        5.7303        5.7332       4.863654       0.01594
   0    1013.0        0.8875        0.0031        5.5082        5.5113       4.623749       0.01666



 Wavenumbers:  4650. -  5150. cm-1, ATM      1
 LEVEL PRESSURE   UPWARD FLUX   DIFDOWN FLUX  DIRDOWN FLUX  DOWNWARD FLUX   NET FLUX    HEATING RATE
          mb          W/m2          W/m2          W/m2        W/m2          W/m2       degree/day
  51    .06700        0.5749        0.0000        6.5710        6.5710       5.996104       0.00000
  50    .07753        0.5749        0.0000        6.5708        6.5708       5.995874       0.18402
  49    .09103        0.5749        0.0000        6.5705        6.5705       5.995588       0.17892
  48    0.1069        0.5749        0.0000        6.5702        6.5702       5.995262       0.17352
  47    0.1255        0.5749        0.0000        6.5698        6.5698       5.994891       0.16800
  46    0.1487        0.5749        0.0000        6.5693        6.5693       5.994430       0.16831
  45    0.1794        0.5749        0.0000        6.5687        6.5687       5.993809       0.17033
  44    0.2165        0.5749        0.0000        6.5680        6.5680       5.993090       0.16366
  43    0.2613        0.5749        0.0000        6.5671        6.5671       5.992258       0.15676
  42    0.3336        0.5749        0.0000        6.5658        6.5658       5.990929       0.15499
  41    0.4307        0.5749        0.0000        6.5641        6.5641       5.989249       0.14602
  40    0.5894        0.5749        0.0000        6.5616        6.5616       5.986697       0.13574
  39     1.339        0.5749        0.0000        6.5520        6.5520       5.977149       0.10749
  38     1.782        0.5749        0.0000        6.5479        6.5479       5.973027       0.07847
  37     2.292        0.5749        0.0000        6.5441        6.5441       5.969224       0.06300
  36     2.964        0.5749        0.0000        6.5402        6.5402       5.965348       0.04865
  35     3.853        0.5749        0.0000        6.5363        6.5363       5.961476       0.03675
  34     5.035        0.5749        0.0000        6.5324        6.5324       5.957534       0.02816
  33     6.613        0.5749        0.0000        6.5280        6.5281       5.953192       0.02321
  32     8.786        0.5748        0.0000        6.5226        6.5226       5.947752       0.02113
  31     11.80        0.5748        0.0001        6.5145        6.5146       5.939746       0.02241
  30     15.07        0.5748        0.0001        6.5052        6.5053       5.930460       0.02398
  29     18.79        0.5748        0.0001        6.4938        6.4939       5.919044       0.02588
  28     23.16        0.5748        0.0001        6.4792        6.4794       5.904577       0.02797
  27     28.12        0.5748        0.0002        6.4614        6.4615       5.886756       0.03030
  26     33.73        0.5748        0.0002        6.4401        6.4403       5.865507       0.03195
  25     40.54        0.5748        0.0002        6.4132        6.4134       5.838609       0.03337
  24     48.69        0.5748        0.0003        6.3797        6.3800       5.805251       0.03452
  23     57.69        0.5748        0.0003        6.3429        6.3432       5.768461       0.03448
  22     68.43        0.5748        0.0004        6.3000        6.3004       5.725614       0.03368
  21     81.20        0.5748        0.0004        6.2515        6.2520       5.677173       0.03201
  20     96.49        0.5749        0.0005        6.1985        6.1990       5.624190       0.02924
  19     114.6        0.5749        0.0006        6.1424        6.1430       5.568061       0.02621
  18     136.5        0.5751        0.0007        6.0838        6.0845       5.509481       0.02253
  17     162.9        0.5752        0.0009        6.0216        6.0224       5.447180       0.01991
  16     196.4        0.5756        0.0010        5.9468        5.9478       5.372252       0.01886
  15     218.7        0.5758        0.0011        5.8983        5.8994       5.323575       0.01848
  14     243.0        0.5762        0.0013        5.8445        5.8458       5.269602       0.01872
  13     269.0        0.5766        0.0014        5.7843        5.7857       5.209143       0.01961
  12     297.5        0.5771        0.0015        5.7165        5.7180       5.140909       0.02024
  11     328.5        0.5778        0.0017        5.6397        5.6414       5.063573       0.02103
  10     361.9        0.5787        0.0018        5.5530        5.5548       4.976074       0.02214
   9     398.1        0.5798        0.0020        5.4554        5.4574       4.877577       0.02295
   8     437.6        0.5813        0.0021        5.3457        5.3478       4.766502       0.02375
   7     480.5        0.5833        0.0023        5.2215        5.2238       4.640499       0.02475
   6     533.0        0.5862        0.0025        5.0648        5.0672       4.481030       0.02565
   5     589.8        0.5900        0.0027        4.8952        4.8979       4.307905       0.02570
   4     651.6        0.5950        0.0028        4.7145        4.7173       4.122340       0.02538
   3     718.7        0.6013        0.0030        4.5286        4.5317       3.930317       0.02413
   2     792.3        0.6094        0.0032        4.3433        4.3465       3.737149       0.02215
   1     891.5        0.6224        0.0035        4.1129        4.1163       3.493874       0.02070
   0    1013.0        0.6429        0.0037        3.8557        3.8594       3.216430       0.01926



 Wavenumbers:  5150. -  6150. cm-1, ATM      1
 LEVEL PRESSURE   UPWARD FLUX   DIFDOWN FLUX  DIRDOWN FLUX  DOWNWARD FLUX   NET FLUX    HEATING RATE
          mb          W/m2          W/m2          W/m2        W/m2          W/m2       degree/day
  51    .06700        1.5828        0.0000       16.4735       16.4735      14.890706       0.00000
  50    .07753        1.5828        0.0000       16.4735       16.4735      14.890702       0.00293
  49    .09103        1.5828        0.0000       16.4735       16.4735      14.890698       0.00298
  48    0.1069        1.5828        0.0000       16.4735       16.4735      14.890692       0.00302
  47    0.1255        1.5828        0.0000       16.4735       16.4735      14.890685       0.00307
  46    0.1487        1.5828        0.0000       16.4735       16.4735      14.890676       0.00322
  45    0.1794        1.5828        0.0000       16.4735       16.4735      14.890664       0.00344
  44    0.2165        1.5828        0.0000       16.4734       16.4734      14.890648       0.00350
  43    0.2613        1.5828        0.0000       16.4734       16.4734      14.890630       0.00355
  42    0.3336        1.5828        0.0000       16.4734       16.4734      14.890598       0.00374
  41    0.4307        1.5828        0.0000       16.4733       16.4733      14.890553       0.00383
  40    0.5894        1.5828        0.0000       16.4733       16.4733      14.890479       0.00393
  39     1.339        1.5828        0.0000       16.4729       16.4729      14.890112       0.00413
  38     1.782        1.5828        0.0000       16.4726       16.4727      14.889890       0.00423
  37     2.292        1.5828        0.0001       16.4723       16.4724      14.889630       0.00431
  36     2.964        1.5827        0.0001       16.4719       16.4720      14.889285       0.00433
  35     3.853        1.5827        0.0001       16.4714       16.4715      14.888824       0.00438
  34     5.035        1.5827        0.0001       16.4708       16.4709      14.888205       0.00442
  33     6.613        1.5827        0.0002       16.4699       16.4700      14.887370       0.00447
  32     8.786        1.5826        0.0002       16.4686       16.4689      14.886236       0.00440
  31     11.80        1.5826        0.0003       16.4669       16.4672      14.884602       0.00457
  30     15.07        1.5825        0.0004       16.4650       16.4654      14.882841       0.00455
  29     18.79        1.5825        0.0005       16.4628       16.4633      14.880850       0.00452
  28     23.16        1.5824        0.0006       16.4603       16.4609      14.878526       0.00449
  27     28.12        1.5823        0.0007       16.4574       16.4582      14.875872       0.00451
  26     33.73        1.5822        0.0009       16.4542       16.4551      14.872886       0.00449
  25     40.54        1.5821        0.0010       16.4503       16.4514      14.869265       0.00449
  24     48.69        1.5820        0.0013       16.4456       16.4469      14.864890       0.00453
  23     57.69        1.5819        0.0015       16.4405       16.4420      14.860135       0.00446
  22     68.43        1.5818        0.0018       16.4346       16.4364      14.854628       0.00433
  21     81.20        1.5816        0.0021       16.4277       16.4298      14.848164       0.00427
  20     96.49        1.5815        0.0025       16.4195       16.4219      14.840473       0.00424
  19     114.6        1.5813        0.0030       16.4095       16.4124      14.831150       0.00435
  18     136.5        1.5811        0.0035       16.3962       16.3997      14.818660       0.00480
  17     162.9        1.5808        0.0042       16.3740       16.3781      14.797312       0.00682
  16     196.4        1.5805        0.0050       16.3261       16.3312      14.750646       0.01175
  15     218.7        1.5803        0.0056       16.2761       16.2817      14.701321       0.01873
  14     243.0        1.5801        0.0062       16.1953       16.2015      14.621385       0.02772
  13     269.0        1.5800        0.0068       16.0572       16.0640      14.484067       0.04455
  12     297.5        1.5798        0.0075       15.8460       15.8535      14.273650       0.06241
  11     328.5        1.5797        0.0081       15.5393       15.5475      13.967739       0.08318
  10     361.9        1.5797        0.0088       15.1714       15.1802      13.600468       0.09292
   9     398.1        1.5798        0.0094       14.7753       14.7848      13.204941       0.09215
   8     437.6        1.5801        0.0101       14.3215       14.3316      12.751492       0.09695
   7     480.5        1.5808        0.0108       13.7621       13.7729      12.192104       0.10986
   6     533.0        1.5821        0.0114       13.0573       13.0688      11.486618       0.11349
   5     589.8        1.5845        0.0121       12.3438       12.3558      10.771375       0.10617
   4     651.6        1.5883        0.0127       11.6465       11.6592      10.070915       0.09579
   3     718.7        1.5940        0.0133       11.0307       11.0440       9.450043       0.07803
   2     792.3        1.6019        0.0140       10.5228       10.5368       8.934895       0.05908
   1     891.5        1.6169        0.0150       10.0023       10.0173       8.400412       0.04548
   0    1013.0        1.6473        0.0161        9.5164        9.5325       7.885237       0.03577



 Wavenumbers:  6150. -  7700. cm-1, ATM      1
 LEVEL PRESSURE   UPWARD FLUX   DIFDOWN FLUX  DIRDOWN FLUX  DOWNWARD FLUX   NET FLUX    HEATING RATE
          mb          W/m2          W/m2          W/m2        W/m2          W/m2       degree/day
  51    .06700        2.9174        0.0000       30.4684       30.4684      27.551000       0.00000
  50    .07753        2.9174        0.0000       30.4684       30.4684      27.550980       0.01587
  49    .09103        2.9174        0.0000       30.4683       30.4683      27.550955       0.01566
  48    0.1069        2.9174        0.0000       30.4683       30.4683      27.550926       0.01545
  47    0.1255        2.9174        0.0000       30.4683       30.4683      27.550893       0.01523
  46    0.1487        2.9174        0.0000       30.4682       30.4682      27.550850       0.01558
  45    0.1794        2.9174        0.0000       30.4681       30.4682      27.550791       0.01616
  44    0.2165        2.9174        0.0000       30.4681       30.4681      27.550721       0.01598
  43    0.2613        2.9174        0.0000       30.4680       30.4680      27.550637       0.01580
  42    0.3336        2.9173        0.0000       30.4678       30.4678      27.550497       0.01628
  41    0.4307        2.9173        0.0000       30.4676       30.4676      27.550310       0.01624
  40    0.5894        2.9173        0.0001       30.4673       30.4673      27.550004       0.01632
  39     1.339        2.9172        0.0001       30.4656       30.4658      27.548542       0.01646
  38     1.782        2.9172        0.0002       30.4647       30.4649      27.547683       0.01635
  37     2.292        2.9172        0.0002       30.4636       30.4638      27.546691       0.01643
  36     2.964        2.9171        0.0003       30.4622       30.4625      27.545391       0.01631
  35     3.853        2.9170        0.0004       30.4603       30.4607      27.543681       0.01623
  34     5.035        2.9169        0.0005       30.4578       30.4583      27.541419       0.01615
  33     6.613        2.9167        0.0007       30.4544       30.4551      27.538418       0.01605
  32     8.786        2.9165        0.0010       30.4500       30.4509      27.534410       0.01556
  31     11.80        2.9162        0.0013       30.4437       30.4449      27.528750       0.01585
  30     15.07        2.9159        0.0016       30.4370       30.4386      27.522769       0.01544
  29     18.79        2.9155        0.0021       30.4296       30.4316      27.516128       0.01506
  28     23.16        2.9151        0.0025       30.4211       30.4236      27.508520       0.01471
  27     28.12        2.9146        0.0031       30.4115       30.4146      27.500006       0.01447
  26     33.73        2.9140        0.0037       30.4010       30.4047      27.490706       0.01398
  25     40.54        2.9133        0.0044       30.3887       30.3931      27.479798       0.01353
  24     48.69        2.9125        0.0053       30.3743       30.3796      27.467084       0.01316
  23     57.69        2.9116        0.0063       30.3590       30.3653      27.453660       0.01258
  22     68.43        2.9106        0.0074       30.3415       30.3490      27.438393       0.01200
  21     81.20        2.9093        0.0088       30.3214       30.3303      27.420990       0.01150
  20     96.49        2.9078        0.0105       30.2984       30.3088      27.401079       0.01099
  19     114.6        2.9060        0.0125       30.2717       30.2841      27.378159       0.01070
  18     136.5        2.9038        0.0148       30.2399       30.2547      27.350848       0.01050
  17     162.9        2.9013        0.0176       30.1974       30.2149      27.313675       0.01188
  16     196.4        2.8980        0.0212       30.1255       30.1467      27.248676       0.01636
  15     218.7        2.8958        0.0235       30.0580       30.0816      27.185749       0.02389
  14     243.0        2.8936        0.0261       29.9486       29.9746      27.081091       0.03630
  13     269.0        2.8912        0.0288       29.7534       29.7822      26.890987       0.06167
  12     297.5        2.8887        0.0316       29.4643       29.4959      26.607181       0.08417
  11     328.5        2.8863        0.0345       29.0385       29.0730      26.186713       0.11432
  10     361.9        2.8840        0.0375       28.4616       28.4991      25.615034       0.14464
   9     398.1        2.8821        0.0405       27.7729       27.8134      24.931303       0.15929
   8     437.6        2.8807        0.0435       26.9924       27.0358      24.155144       0.16595
   7     480.5        2.8804        0.0463       26.0726       26.1190      23.238514       0.18002
   6     533.0        2.8823        0.0495       24.8735       24.9230      22.040703       0.19269
   5     589.8        2.8874        0.0525       23.5872       23.6397      20.752312       0.19124
   4     651.6        2.8976        0.0553       22.2750       22.3303      19.432689       0.18046
   3     718.7        2.9141        0.0580       21.0437       21.1017      18.187668       0.15646
   2     792.3        2.9378        0.0609       19.9484       20.0093      17.071478       0.12801
   1     891.5        2.9826        0.0647       18.7162       18.7809      15.798218       0.10835
   0    1013.0        3.0725        0.0688       17.4125       17.4813      14.408809       0.09647



 Wavenumbers:  7700. -  8050. cm-1, ATM      1
 LEVEL PRESSURE   UPWARD FLUX   DIFDOWN FLUX  DIRDOWN FLUX  DOWNWARD FLUX   NET FLUX    HEATING RATE
          mb          W/m2          W/m2          W/m2        W/m2          W/m2       degree/day
  51    .06700        1.0696        0.0000        7.2006        7.2006       6.131004       0.00000
  50    .07753        1.0696        0.0000        7.2006        7.2006       6.130985       0.01480
  49    .09103        1.0696        0.0000        7.2005        7.2005       6.130962       0.01451
  48    0.1069        1.0696        0.0000        7.2005        7.2005       6.130935       0.01420
  47    0.1255        1.0696        0.0000        7.2005        7.2005       6.130905       0.01390
  46    0.1487        1.0696        0.0000        7.2004        7.2005       6.130866       0.01410
  45    0.1794        1.0696        0.0000        7.2004        7.2004       6.130813       0.01451
  44    0.2165        1.0696        0.0000        7.2003        7.2003       6.130751       0.01423
  43    0.2613        1.0696        0.0000        7.2003        7.2003       6.130677       0.01397
  42    0.3336        1.0696        0.0000        7.2001        7.2001       6.130554       0.01429
  41    0.4307        1.0696        0.0000        7.2000        7.2000       6.130391       0.01413
  40    0.5894        1.0696        0.0000        7.1997        7.1997       6.130126       0.01412
  39     1.339        1.0696        0.0001        7.1984        7.1985       6.128871       0.01413
  38     1.782        1.0696        0.0001        7.1977        7.1978       6.128134       0.01403
  37     2.292        1.0696        0.0001        7.1968        7.1969       6.127281       0.01413
  36     2.964        1.0697        0.0001        7.1957        7.1958       6.126161       0.01405
  35     3.853        1.0697        0.0002        7.1942        7.1944       6.124683       0.01403
  34     5.035        1.0697        0.0002        7.1922        7.1924       6.122721       0.01401
  33     6.613        1.0698        0.0003        7.1896        7.1899       6.120104       0.01400
  32     8.786        1.0698        0.0004        7.1860        7.1864       6.116581       0.01368
  31     11.80        1.0699        0.0005        7.1809        7.1814       6.111555       0.01407
  30     15.07        1.0700        0.0006        7.1755        7.1762       6.106174       0.01389
  29     18.79        1.0701        0.0008        7.1694        7.1702       6.100116       0.01374
  28     23.16        1.0702        0.0010        7.1623        7.1633       6.093068       0.01363
  27     28.12        1.0703        0.0012        7.1542        7.1554       6.085045       0.01364
  26     33.73        1.0705        0.0014        7.1451        7.1466       6.076116       0.01343
  25     40.54        1.0707        0.0017        7.1343        7.1361       6.065397       0.01330
  24     48.69        1.0709        0.0021        7.1214        7.1235       6.052573       0.01327
  23     57.69        1.0711        0.0025        7.1073        7.1097       6.038612       0.01309
  22     68.43        1.0714        0.0029        7.0907        7.0936       6.022153       0.01294
  21     81.20        1.0718        0.0035        7.0711        7.0746       6.002781       0.01280
  20     96.49        1.0722        0.0041        7.0482        7.0523       5.980025       0.01256
  19     114.6        1.0728        0.0049        7.0214        7.0262       5.953457       0.01241
  18     136.5        1.0734        0.0058        6.9902        6.9960       5.922572       0.01188
  17     162.9        1.0742        0.0068        6.9540        6.9608       5.886602       0.01150
  16     196.4        1.0753        0.0082        6.9083        6.9165       5.841197       0.01143
  15     218.7        1.0760        0.0091        6.8790        6.8881       5.812052       0.01107
  14     243.0        1.0768        0.0101        6.8477        6.8577       5.780942       0.01079
  13     269.0        1.0777        0.0111        6.8144        6.8256       5.747848       0.01074
  12     297.5        1.0787        0.0122        6.7792        6.7915       5.712762       0.01041
  11     328.5        1.0798        0.0135        6.7419        6.7553       5.675525       0.01012
  10     361.9        1.0811        0.0148        6.7024        6.7172       5.636139       0.00997
   9     398.1        1.0824        0.0162        6.6607        6.6769       5.594460       0.00971
   8     437.6        1.0840        0.0177        6.6167        6.6343       5.550340       0.00943
   7     480.5        1.0858        0.0193        6.5702        6.5894       5.503643       0.00917
   6     533.0        1.0881        0.0212        6.5136        6.5348       5.446741       0.00915
   5     589.8        1.0907        0.0233        6.4532        6.4766       5.385856       0.00904
   4     651.6        1.0937        0.0256        6.3888        6.4143       5.320591       0.00893
   3     718.7        1.0973        0.0280        6.3200        6.3479       5.250648       0.00879
   2     792.3        1.1013        0.0305        6.2467        6.2772       5.175923       0.00857
   1     891.5        1.1072        0.0339        6.1482        6.1821       5.074890       0.00860
   0    1013.0        1.1150        0.0379        6.0288        6.0667       4.951698       0.00855



 Wavenumbers:  8050. - 12850. cm-1, ATM      1
 LEVEL PRESSURE   UPWARD FLUX   DIFDOWN FLUX  DIRDOWN FLUX  DOWNWARD FLUX   NET FLUX    HEATING RATE
          mb          W/m2          W/m2          W/m2        W/m2          W/m2       degree/day
  51    .06700       26.9923        0.0000      100.8135      100.8135      73.821213       0.00000
  50    .07753       26.9923        0.0000      100.8135      100.8135      73.821213       0.00000
  49    .09103       26.9923        0.0001      100.8134      100.8135      73.821213       0.00000
  48    0.1069       26.9922        0.0001      100.8134      100.8134      73.821213      -0.00000
  47    0.1255       26.9922        0.0001      100.8133      100.8134      73.821213       0.00000
  46    0.1487       26.9922        0.0002      100.8132      100.8134      73.821213       0.00000
  45    0.1794       26.9921        0.0003      100.8131      100.8133      73.821213      -0.00000
  44    0.2165       26.9920        0.0003      100.8129      100.8133      73.821213       0.00000
  43    0.2613       26.9920        0.0004      100.8127      100.8132      73.821213       0.00000
  42    0.3336       26.9918        0.0006      100.8125      100.8131      73.821213       0.00000
  41    0.4307       26.9917        0.0008      100.8121      100.8129      73.821213       0.00000
  40    0.5894       26.9914        0.0012      100.8115      100.8126      73.821213      -0.00000
  39     1.339       26.9901        0.0028      100.8085      100.8113      73.821213       0.00000
  38     1.782       26.9893        0.0038      100.8068      100.8105      73.821213      -0.00000
  37     2.292       26.9884        0.0049      100.8047      100.8097      73.821213       0.00000
  36     2.964       26.9873        0.0064      100.8021      100.8085      73.821213      -0.00000
  35     3.853       26.9858        0.0084      100.7986      100.8070      73.821213       0.00000
  34     5.035       26.9837        0.0110      100.7940      100.8049      73.821213       0.00000
  33     6.613       26.9810        0.0144      100.7878      100.8022      73.821213      -0.00000
  32     8.786       26.9773        0.0191      100.7794      100.7985      73.821213      -0.00000
  31     11.80       26.9721        0.0258      100.7674      100.7933      73.821213       0.00000
  30     15.07       26.9664        0.0331      100.7546      100.7876      73.821213       0.00000
  29     18.79       26.9600        0.0412      100.7400      100.7812      73.821213       0.00000
  28     23.16       26.9525        0.0508      100.7230      100.7737      73.821213      -0.00000
  27     28.12       26.9440        0.0617      100.7035      100.7652      73.821213       0.00000
  26     33.73       26.9344        0.0739      100.6817      100.7556      73.821213       0.00000
  25     40.54       26.9228        0.0887      100.6552      100.7440      73.821213      -0.00000
  24     48.69       26.9087        0.1066      100.6234      100.7300      73.821213       0.00000
  23     57.69       26.8933        0.1263      100.5883      100.7145      73.821213      -0.00000
  22     68.43       26.8749        0.1497      100.5464      100.6961      73.821213      -0.00000
  21     81.20       26.8530        0.1777      100.4965      100.6742      73.821213       0.00000
  20     96.49       26.8268        0.2110      100.4370      100.6480      73.821213       0.00000
  19     114.6       26.7956        0.2507      100.3653      100.6160      73.820437       0.00036
  18     136.5       26.7586        0.2978      100.2801      100.5779      73.819310       0.00043
  17     162.9       26.7144        0.3540      100.1773      100.5314      73.816986       0.00074
  16     196.4       26.6570        0.4271      100.0404      100.4675      73.810545       0.00162
  15     218.7       26.6192        0.4752       99.9459      100.4210      73.801847       0.00330
  14     243.0       26.5781        0.5275       99.8336      100.3611      73.782964       0.00655
  13     269.0       26.5337        0.5842       99.6859      100.2701      73.736361       0.01512
  12     297.5       26.4862        0.6456       99.4890      100.1346      73.648402       0.02609
  11     328.5       26.4354        0.7118       99.2268       99.9386      73.503192       0.03948
  10     361.9       26.3818        0.7830       98.8916       99.6746      73.292778       0.05324
   9     398.1       26.3259        0.8596       98.4828       99.3423      73.016473       0.06437
   8     437.6       26.2685        0.9415       97.9880       98.9295      72.660981       0.07601
   7     480.5       26.2118        1.0288       97.3668       98.3956      72.183760       0.09372
   6     533.0       26.1501        1.1355       96.4874       97.6229      71.472768       0.11438
   5     589.8       26.0952        1.2493       95.4140       96.6633      70.568083       0.13428
   4     651.6       26.0533        1.3700       94.1315       95.5015      69.448247       0.15314
   3     718.7       26.0270        1.4979       92.7027       94.2006      68.173586       0.16019
   2     792.3       26.0180        1.6333       91.1947       92.8281      66.810087       0.15638
   1     891.5       26.0446        1.8133       89.1731       90.9865      64.941852       0.15898
   0    1013.0       26.1736        2.0236       86.6436       88.6672      62.493517       0.17000



 Wavenumbers: 12850. - 16000. cm-1, ATM      1
 LEVEL PRESSURE   UPWARD FLUX   DIFDOWN FLUX  DIRDOWN FLUX  DOWNWARD FLUX   NET FLUX    HEATING RATE
          mb          W/m2          W/m2          W/m2        W/m2          W/m2       degree/day
  51    .06700       34.0528        0.0000       63.1686       63.1686      29.115733       0.00000
  50    .07753       34.0528        0.0001       63.1677       63.1678      29.114953       0.62515
  49    .09103       34.0528        0.0001       63.1666       63.1668      29.113981       0.60760
  48    0.1069       34.0528        0.0002       63.1654       63.1656      29.112874       0.58926
  47    0.1255       34.0527        0.0003       63.1640       63.1643      29.111614       0.57085
  46    0.1487       34.0527        0.0004       63.1623       63.1627      29.110044       0.57251
  45    0.1794       34.0526        0.0006       63.1600       63.1606      29.107937       0.57828
  44    0.2165       34.0526        0.0008       63.1573       63.1581      29.105501       0.55423
  43    0.2613       34.0525        0.0010       63.1542       63.1552      29.102690       0.52982
  42    0.3336       34.0525        0.0014       63.1493       63.1507      29.098211       0.52227
  41    0.4307       34.0524        0.0019       63.1431       63.1450      29.092607       0.48726
  40    0.5894       34.0524        0.0027       63.1338       63.1365      29.084114       0.45163
  39     1.339       34.0538        0.0066       63.0956       63.1021      29.048389       0.40219
  38     1.782       34.0555        0.0088       63.0740       63.0829      29.027334       0.40086
  37     2.292       34.0585        0.0115       63.0477       63.0591      29.000617       0.44251
  36     2.964       34.0638        0.0149       63.0095       63.0244      28.960594       0.50240
  35     3.853       34.0729        0.0195       62.9533       62.9727      28.899838       0.57659
  34     5.035       34.0868        0.0255       62.8725       62.8980      28.811154       0.63352
  33     6.613       34.1065        0.0335       62.7621       62.7956      28.689105       0.65247
  32     8.786       34.1319        0.0444       62.6183       62.6626      28.530675       0.61529
  31     11.80       34.1645        0.0598       62.4284       62.4882      28.323719       0.57941
  30     15.07       34.1949        0.0764       62.2426       62.3190      28.124118       0.51533
  29     18.79       34.2252        0.0950       62.0493       62.1443      27.919178       0.46466
  28     23.16       34.2559        0.1168       61.8425       61.9592      27.703373       0.41730
  27     28.12       34.2855        0.1416       61.6278       61.7694      27.483903       0.37308
  26     33.73       34.3108        0.1693       61.4177       61.5870      27.276108       0.31243
  25     40.54       34.3324        0.2027       61.1983       61.4010      27.068560       0.25749
  24     48.69       34.3497        0.2429       60.9680       61.2109      26.861205       0.21458
  23     57.69       34.3602        0.2870       60.7478       61.0348      26.674661       0.17486
  22     68.43       34.3635        0.3395       60.5202       60.8597      26.496225       0.14027
  21     81.20       34.3549        0.4020       60.2939       60.6959      26.340990       0.10258
  20     96.49       34.3330        0.4764       60.0643       60.5407      26.207756       0.07354
  19     114.6       34.3050        0.5652       59.8079       60.3731      26.068078       0.06522
  18     136.5       34.2671        0.6702       59.5160       60.1862      25.919076       0.05729
  17     162.9       34.2178        0.7948       59.1777       59.9725      25.754721       0.05253
  16     196.4       34.1447        0.9561       58.7619       59.7180      25.573250       0.04568
  15     218.7       34.0935        1.0617       58.4974       59.5591      25.465564       0.04088
  14     243.0       34.0365        1.1763       58.2140       59.3903      25.353791       0.03877
  13     269.0       33.9733        1.3001       57.9121       59.2122      25.238898       0.03727
  12     297.5       33.9037        1.4336       57.5908       59.0244      25.120663       0.03507
  11     328.5       33.8282        1.5775       57.2469       58.8244      24.996149       0.03386
  10     361.9       33.7468        1.7320       56.8793       58.6113      24.864518       0.03330
   9     398.1       33.6593        1.8978       56.4864       58.3842      24.724913       0.03253
   8     437.6       33.5659        2.0752       56.0651       58.1403      24.574443       0.03217
   7     480.5       33.4669        2.2648       55.6124       57.8773      24.410333       0.03223
   6     533.0       33.3472        2.4973       55.0519       57.5491      24.201900       0.03353
   5     589.8       33.2216        2.7466       54.4433       57.1899      23.968330       0.03467
   4     651.6       33.0914        3.0131       53.7835       56.7967      23.705316       0.03597
   3     718.7       32.9574        3.2974       53.0757       56.3731      23.415718       0.03639
   2     792.3       32.8208        3.5994       52.3244       55.9239      23.103088       0.03586
   1     891.5       32.6499        4.0032       51.3242       55.3274      22.677472       0.03622
   0    1013.0       32.4730        4.4820       50.1405       54.6226      22.149596       0.03665



 Wavenumbers: 16000. - 22650. cm-1, ATM      1
 LEVEL PRESSURE   UPWARD FLUX   DIFDOWN FLUX  DIRDOWN FLUX  DOWNWARD FLUX   NET FLUX    HEATING RATE
          mb          W/m2          W/m2          W/m2        W/m2          W/m2       degree/day
  51    .06700       75.9048        0.0000      100.7153      100.7153      24.810483       0.00000
  50    .07753       75.9047        0.0003      100.7147      100.7151      24.810365       0.09428
  49    .09103       75.9045        0.0007      100.7140      100.7147      24.810194       0.10693
  48    0.1069       75.9044        0.0012      100.7131      100.7143      24.809965       0.12194
  47    0.1255       75.9042        0.0017      100.7121      100.7139      24.809659       0.13899
  46    0.1487       75.9040        0.0024      100.7108      100.7132      24.809207       0.16470
  45    0.1794       75.9037        0.0034      100.7089      100.7122      24.808500       0.19393
  44    0.2165       75.9035        0.0045      100.7066      100.7110      24.807542       0.21795
  43    0.2613       75.9032        0.0058      100.7037      100.7095      24.806242       0.24502
  42    0.3336       75.9029        0.0079      100.6987      100.7066      24.803771       0.28814
  41    0.4307       75.9025        0.0108      100.6918      100.7026      24.800046       0.32389
  40    0.5894       75.9023        0.0155      100.6797      100.6953      24.792942       0.37779
  39     1.339       75.9067        0.0377      100.6095      100.6472      24.740466       0.59078
  38     1.782       75.9134        0.0507      100.5585      100.6092      24.695776       0.85082
  37     2.292       75.9250        0.0658      100.4903      100.5561      24.631108       1.07108
  36     2.964       75.9460        0.0856      100.3868      100.4724      24.526393       1.31449
  35     3.853       75.9820        0.1117      100.2306      100.3423      24.360355       1.57572
  34     5.035       76.0379        0.1463      100.0045      100.1508      24.112908       1.76766
  33     6.613       76.1168        0.1925       99.6939       99.8864      23.769554       1.83557
  32     8.786       76.2189        0.2545       99.2881       99.5426      23.323685       1.73159
  31     11.80       76.3491        0.3430       98.7496       99.0926      22.743501       1.62433
  30     15.07       76.4704        0.4377       98.2198       98.6575      22.187062       1.43662
  29     18.79       76.5909        0.5442       97.6651       98.2094      21.618490       1.28913
  28     23.16       76.7124        0.6682       97.0671       97.7354      21.022972       1.15154
  27     28.12       76.8290        0.8095       96.4406       97.2500      20.421041       1.02324
  26     33.73       76.9274        0.9670       95.8179       96.7849      19.857546       0.84723
  25     40.54       77.0091        1.1567       95.1548       96.3116      19.302489       0.68861
  24     48.69       77.0716        1.3845       94.4420       95.8265      18.754903       0.56667
  23     57.69       77.1056        1.6337       93.7416       95.3753      18.269746       0.45476
  22     68.43       77.1087        1.9293       92.9954       94.9246      17.815885       0.35680
  21     81.20       77.0614        2.2800       92.2232       94.5032      17.441732       0.24723
  20     96.49       76.9579        2.6960       91.4110       94.1070      17.149111       0.16151
  19     114.6       76.8115        3.1866       90.5071       93.6936      16.882138       0.12466
  18     136.5       76.6229        3.7631       89.4803       93.2434      16.620502       0.10061
  17     162.9       76.3855        4.4428       88.3023       92.7451      16.359552       0.08341
  16     196.4       76.0487        5.3139       86.8609       92.1748      16.126084       0.05877
  15     218.7       75.8178        5.8798       85.9496       91.8295      16.011700       0.04343
  14     243.0       75.5630        6.4893       84.9798       91.4691      15.906095       0.03663
  13     269.0       75.2833        7.1433       83.9513       91.0945      15.811246       0.03077
  12     297.5       74.9778        7.8425       82.8631       90.7056      15.727750       0.02476
  11     328.5       74.6479        8.5895       81.7062       90.2957      15.647810       0.02174
  10     361.9       74.2932        9.3838       80.4812       89.8650      15.571816       0.01923
   9     398.1       73.9127       10.2273       79.1850       89.4123      15.499657       0.01681
   8     437.6       73.5065       11.1204       77.8160       88.9363      15.429879       0.01492
   7     480.5       73.0739       12.0631       76.3737       88.4368      15.362883       0.01316
   6     533.0       72.5464       13.2034       74.6317       87.8350      15.288632       0.01194
   5     589.8       71.9847       14.4080       72.7916       87.1996      15.214970       0.01093
   4     651.6       71.3894       15.6754       70.8546       86.5300      15.140611       0.01017
   3     718.7       70.7606       17.0035       68.8227       85.8262      15.065646       0.00942
   2     792.3       70.0996       18.3882       66.7015       85.0898      14.990203       0.00865
   1     891.5       69.2284       20.1960       63.9253       84.1213      14.892868       0.00828
   0    1013.0       68.2146       22.2768       60.7160       82.9928      14.778217       0.00796



 Wavenumbers: 22650. - 29000. cm-1, ATM      1
 LEVEL PRESSURE   UPWARD FLUX   DIFDOWN FLUX  DIRDOWN FLUX  DOWNWARD FLUX   NET FLUX    HEATING RATE
          mb          W/m2          W/m2          W/m2        W/m2          W/m2       degree/day
  51    .06700       34.3496        0.0000       38.0063       38.0063       3.656716       0.00000
  50    .07753       34.3494        0.0004       38.0057       38.0061       3.656716      -0.00000
  49    .09103       34.3492        0.0009       38.0050       38.0059       3.656716       0.00000
  48    0.1069       34.3490        0.0014       38.0042       38.0057       3.656716       0.00000
  47    0.1255       34.3487        0.0021       38.0033       38.0054       3.656716       0.00000
  46    0.1487       34.3483        0.0029       38.0022       38.0050       3.656716      -0.00000
  45    0.1794       34.3479        0.0040       38.0006       38.0046       3.656716       0.00000
  44    0.2165       34.3473        0.0053       37.9987       38.0040       3.656716      -0.00000
  43    0.2613       34.3466        0.0068       37.9965       38.0033       3.656716       0.00000
  42    0.3336       34.3455        0.0094       37.9928       38.0022       3.656716       0.00000
  41    0.4307       34.3441        0.0128       37.9880       38.0008       3.656716      -0.00000
  40    0.5894       34.3417        0.0183       37.9800       37.9984       3.656716       0.00000
  39     1.339       34.3303        0.0446       37.9425       37.9870       3.656716       0.00000
  38     1.782       34.3237        0.0600       37.9204       37.9804       3.656716      -0.00000
  37     2.292       34.3160        0.0778       37.8949       37.9727       3.656716       0.00000
  36     2.964       34.3059        0.1012       37.8614       37.9626       3.656716       0.00000
  35     3.853       34.2925        0.1320       37.8172       37.9493       3.656716       0.00000
  34     5.035       34.2748        0.1730       37.7586       37.9316       3.656716      -0.00000
  33     6.613       34.2512        0.2276       37.6803       37.9079       3.656716       0.00000
  32     8.786       34.2194        0.3011       37.5750       37.8762       3.656716       0.00000
  31     11.80       34.1741        0.4059       37.4249       37.8308       3.656716      -0.00000
  30     15.07       34.1256        0.5181       37.2642       37.7823       3.656716       0.00000
  29     18.79       34.0709        0.6443       37.0833       37.7276       3.656716      -0.00000
  28     23.16       34.0074        0.7911       36.8730       37.6641       3.656716       0.00000
  27     28.12       33.9350        0.9579       36.6338       37.5917       3.656716       0.00000
  26     33.73       33.8545        1.1435       36.3677       37.5112       3.656716      -0.00000
  25     40.54       33.7579        1.3660       36.0486       37.4146       3.656716       0.00000
  24     48.69       33.6423        1.6318       35.6672       37.2991       3.656716      -0.00000
  23     57.69       33.5166        1.9206       35.2527       37.1733       3.656716      -0.00000
  22     68.43       33.3685        2.2603       34.7649       37.0253       3.656716       0.00000
  21     81.20       33.1945        2.6589       34.1923       36.8512       3.656716       0.00000
  20     96.49       32.9904        3.1253       33.5218       36.6471       3.656716       0.00000
  19     114.6       32.7526        3.6670       32.7424       36.4094       3.656716       0.00000
  18     136.5       32.4773        4.2924       31.8416       36.1340       3.656716      -0.00000
  17     162.9       32.1583        5.0141       30.8008       35.8150       3.656716       0.00000
  16     196.4       31.7583        5.9143       29.5007       35.4150       3.656716       0.00000
  15     218.7       31.5040        6.4839       28.6768       35.1607       3.656716      -0.00000
  14     243.0       31.2347        7.0845       27.8069       34.8914       3.656716       0.00000
  13     269.0       30.9510        7.7141       26.8936       34.6077       3.656716       0.00000
  12     297.5       30.6536        8.3705       25.9398       34.3103       3.656716      -0.00000
  11     328.5       30.3425        9.0531       24.9461       33.9992       3.656716      -0.00000
  10     361.9       30.0190        9.7581       23.9176       33.6757       3.656716       0.00000
   9     398.1       29.6836       10.4838       22.8564       33.3403       3.656716       0.00000
   8     437.6       29.3376       11.2258       21.7685       32.9943       3.656716      -0.00000
   7     480.5       28.9823       11.9803       20.6587       32.6390       3.656716      -0.00000
   6     533.0       28.5653       12.8555       19.3665       32.2220       3.656716       0.00000
   5     589.8       28.1399       13.7356       18.0610       31.7966       3.656716       0.00000
   4     651.6       27.7083       14.6135       16.7515       31.3650       3.656716      -0.00000
   3     718.7       27.2731       15.4817       15.4481       30.9298       3.656716       0.00000
   2     792.3       26.8366       16.3334       14.1599       30.4933       3.656716      -0.00000
   1     891.5       26.2930       17.3620       12.5877       29.9498       3.656716       0.00000
   0    1013.0       25.7003       18.4370       10.9200       29.3571       3.656716       0.00000



 Wavenumbers: 29000. - 38000. cm-1, ATM      1
 LEVEL PRESSURE   UPWARD FLUX   DIFDOWN FLUX  DIRDOWN FLUX  DOWNWARD FLUX   NET FLUX    HEATING RATE
          mb          W/m2          W/m2          W/m2        W/m2          W/m2       degree/day
  51    .06700        4.8870        0.0000       13.4026       13.4026       8.515573       0.00000
  50    .07753        4.8868        0.0003       13.3983       13.3986       8.511774       3.04438
  49    .09103        4.8865        0.0007       13.3921       13.3928       8.506255       3.44966
  48    0.1069        4.8862        0.0011       13.3840       13.3851       8.498878       3.92676
  47    0.1255        4.8859        0.0016       13.3733       13.3749       8.489033       4.46317
  46    0.1487        4.8855        0.0022       13.3579       13.3600       8.474591       5.26437
  45    0.1794        4.8849        0.0030       13.3340       13.3371       8.452191       6.14925
  44    0.2165        4.8842        0.0040       13.3024       13.3064       8.422173       6.82875
  43    0.2613        4.8834        0.0052       13.2604       13.2656       8.382118       7.55009
  42    0.3336        4.8822        0.0070       13.1833       13.1903       8.308112       8.62840
  41    0.4307        4.8807        0.0095       13.0729       13.0824       8.201740       9.24878
  40    0.5894        4.8783        0.0134       12.8796       12.8930       8.014698       9.94668
  39     1.339        4.8698        0.0296       11.9165       11.9462       7.076365      10.56392
  38     1.782        4.8665        0.0379       11.4399       11.4779       6.611389       8.85239
  37     2.292        4.8640        0.0468       10.9796       11.0264       6.162463       7.43539
  36     2.964        4.8625        0.0577       10.4786       10.5364       5.673840       6.13369
  35     3.853        4.8631        0.0712        9.9429       10.0141       5.150992       4.96192
  34     5.035        4.8665        0.0880        9.4007        9.4887       4.622269       3.77698
  33     6.613        4.8727        0.1094        8.8752        8.9846       4.111886       2.72851
  32     8.786        4.8813        0.1369        8.3786        8.5155       3.634159       1.85532
  31     11.80        4.8918        0.1746        7.8897        8.0643       3.172506       1.29248
  30     15.07        4.9008        0.2136        7.5108        7.7244       2.823590       0.90083
  29     18.79        4.9091        0.2560        7.1776        7.4336       2.524504       0.67812
  28     23.16        4.9167        0.3038        6.8664        7.1703       2.253528       0.52398
  27     28.12        4.9228        0.3567        6.5780        6.9347       2.011887       0.41077
  26     33.73        4.9250        0.4142        6.3195        6.7337       1.808765       0.30540
  25     40.54        4.9220        0.4821        6.0663        6.5484       1.626455       0.22618
  24     48.69        4.9133        0.5617        5.8128        6.3746       1.461264       0.17095
  23     57.69        4.8989        0.6466        5.5777        6.2243       1.325415       0.12734
  22     68.43        4.8765        0.7449        5.3379        6.0828       1.206237       0.09369
  21     81.20        4.8419        0.8589        5.0965        5.9554       1.113457       0.06131
  20     96.49        4.7938        0.9905        4.8476        5.8382       1.044354       0.03814
  19     114.6        4.7354        1.1397        4.5799        5.7196       0.984192       0.02809
  18     136.5        4.6676        1.3064        4.2891        5.5954       0.927792       0.02169
  17     162.9        4.5903        1.4911        3.9732        5.4643       0.874014       0.01719
  16     196.4        4.4923        1.7123        3.6080        5.3203       0.828032       0.01157
  15     218.7        4.4305        1.8468        3.3898        5.2366       0.806136       0.00831
  14     243.0        4.3663        1.9839        3.1686        5.1525       0.786270       0.00689
  13     269.0        4.2999        2.1225        2.9461        5.0686       0.768745       0.00569
  12     297.5        4.2317        2.2613        2.7239        4.9853       0.753580       0.00450
  11     328.5        4.1625        2.3990        2.5029        4.9019       0.739331       0.00387
  10     361.9        4.0930        2.5342        2.2848        4.8190       0.726031       0.00336
   9     398.1        4.0232        2.6659        2.0710        4.7369       0.713655       0.00288
   8     437.6        3.9540        2.7926        1.8633        4.6559       0.701948       0.00250
   7     480.5        3.8855        2.9133        1.6632        4.5765       0.691036       0.00214
   6     533.0        3.8085        3.0426        1.4452        4.4878       0.679371       0.00188
   5     589.8        3.7337        3.1608        1.2412        4.4020       0.668301       0.00164
   4     651.6        3.6616        3.2665        1.0528        4.3192       0.657679       0.00145
   3     718.7        3.5924        3.3587        0.8812        4.2399       0.647465       0.00128
   2     792.3        3.5265        3.4367        0.7274        4.1641       0.637641       0.00113
   1     891.5        3.4484        3.5139        0.5602        4.0741       0.625736       0.00101
   0    1013.0        3.3680        3.5729        0.4080        3.9809       0.612864       0.00089



 Wavenumbers: 38000. - 50000. cm-1, ATM      1
 LEVEL PRESSURE   UPWARD FLUX   DIFDOWN FLUX  DIRDOWN FLUX  DOWNWARD FLUX   NET FLUX    HEATING RATE
          mb          W/m2          W/m2          W/m2        W/m2          W/m2       degree/day
  51    .06700        0.0051        0.0000        0.8267        0.8267       0.821528       0.00000
  50    .07753        0.0051        0.0001        0.8242        0.8243       0.819196       1.86936
  49    .09103        0.0050        0.0002        0.8207        0.8209       0.815873       2.07705
  48    0.1069        0.0049        0.0002        0.8162        0.8164       0.811514       2.31984
  47    0.1255        0.0048        0.0004        0.8103        0.8106       0.805801       2.59006
  46    0.1487        0.0047        0.0005        0.8018        0.8023       0.797567       3.00143
  45    0.1794        0.0045        0.0007        0.7889        0.7896       0.785013       3.44648
  44    0.2165        0.0044        0.0009        0.7720        0.7729       0.768507       3.75474
  43    0.2613        0.0042        0.0011        0.7500        0.7511       0.746955       4.06246
  42    0.3336        0.0039        0.0015        0.7106        0.7121       0.708267       4.51071
  41    0.4307        0.0035        0.0019        0.6566        0.6584       0.654972       4.63387
  40    0.5894        0.0029        0.0024        0.5680        0.5704       0.567464       4.65357
  39     1.339        0.0015        0.0030        0.2422        0.2452       0.243720       3.64476
  38     1.782        0.0010        0.0026        0.1493        0.1519       0.150889       1.76735
  37     2.292        0.0007        0.0022        0.0924        0.0946       0.093932       0.94336
  36     2.964        0.0005        0.0018        0.0539        0.0557       0.055224       0.48589
  35     3.853        0.0003        0.0013        0.0295        0.0308       0.030502       0.23462
  34     5.035        0.0002        0.0010        0.0154        0.0164       0.016181       0.10230
  33     6.613        0.0001        0.0007        0.0073        0.0080       0.007912       0.04420
  32     8.786        0.0000        0.0004        0.0030        0.0034       0.003390       0.01756
  31     11.80        0.0000        0.0003        0.0010        0.0012       0.001199       0.00613
  30     15.07        0.0000        0.0001        0.0003        0.0005       0.000463       0.00190
  29     18.79        0.0000        0.0001        0.0001        0.0002       0.000182       0.00064
  28     23.16        0.0000        0.0000        0.0000        0.0001       0.000071       0.00022
  27     28.12        0.0000        0.0000        0.0000        0.0000       0.000028       0.00007
  26     33.73        0.0000        0.0000        0.0000        0.0000       0.000011       0.00002
  25     40.54        0.0000        0.0000        0.0000        0.0000       0.000005       0.00001
  24     48.69        0.0000        0.0000        0.0000        0.0000       0.000002       0.00000
  23     57.69        0.0000        0.0000        0.0000        0.0000       0.000001       0.00000
  22     68.43        0.0000        0.0000        0.0000        0.0000       0.000000       0.00000
  21     81.20        0.0000        0.0000        0.0000        0.0000       0.000000       0.00000
  20     96.49        0.0000        0.0000        0.0000        0.0000       0.000000       0.00000
  19     114.6        0.0000        0.0000        0.0000        0.0000       0.000000       0.00000
  18     136.5        0.0000        0.0000        0.0000        0.0000       0.000000       0.00000
  17     162.9        0.0000        0.0000        0.0000        0.0000       0.000000       0.00000
  16     196.4        0.0000        0.0000        0.0000        0.0000       0.000000       0.00000
  15     218.7        0.0000        0.0000        0.0000        0.0000       0.000000       0.00000
  14     243.0        0.0000        0.0000        0.0000        0.0000       0.000000       0.00000
  13     269.0        0.0000        0.0000        0.0000        0.0000       0.000000       0.00000
  12     297.5        0.0000        0.0000        0.0000        0.0000       0.000000       0.00000
  11     328.5        0.0000        0.0000        0.0000        0.0000       0.000000       0.00000
  10     361.9        0.0000        0.0000        0.0000        0.0000       0.000000       0.00000
   9     398.1        0.0000        0.0000        0.0000        0.0000       0.000000       0.00000
   8     437.6        0.0000        0.0000        0.0000        0.0000       0.000000       0.00000
   7     480.5        0.0000        0.0000        0.0000        0.0000       0.000000       0.00000
   6     533.0        0.0000        0.0000        0.0000        0.0000       0.000000       0.00000
   5     589.8        0.0000        0.0000        0.0000        0.0000       0.000000       0.00000
   4     651.6        0.0000        0.0000        0.0000        0.0000       0.000000       0.00000
   3     718.7        0.0000        0.0000        0.0000        0.0000       0.000000       0.00000
   2     792.3        0.0000        0.0000        0.0000        0.0000       0.000000       0.00000
   1     891.5        0.0000        0.0000        0.0000        0.0000       0.000000       0.00000
   0    1013.0        0.0000        0.0000        0.0000        0.0000       0.000000       0.00000



 Wavenumbers:   820. -  2600. cm-1, ATM      1
 LEVEL PRESSURE   UPWARD FLUX   DIFDOWN FLUX  DIRDOWN FLUX  DOWNWARD FLUX   NET FLUX    HEATING RATE
          mb          W/m2          W/m2          W/m2        W/m2          W/m2       degree/day
  51    .06700        0.3146        0.0000        3.8670        3.8670       3.552407       0.00000
  50    .07753        0.3146        0.0000        3.8644        3.8644       3.549748       2.13142
  49    .09103        0.3146        0.0000        3.8636        3.8636       3.549013       0.45924
  48    0.1069        0.3146        0.0000        3.8628        3.8628       3.548212       0.42615
  47    0.1255        0.3146        0.0000        3.8620        3.8620       3.547359       0.38679
  46    0.1487        0.3146        0.0000        3.8610        3.8610       3.546391       0.35292
  45    0.1794        0.3146        0.0000        3.8599        3.8599       3.545256       0.31148
  44    0.2165        0.3146        0.0000        3.8587        3.8587       3.544125       0.25739
  43    0.2613        0.3146        0.0000        3.8576        3.8576       3.542966       0.21842
  42    0.3336        0.3146        0.0000        3.8559        3.8559       3.541249       0.20019
  41    0.4307        0.3146        0.0000        3.8537        3.8537       3.539071       0.18943
  40    0.5894        0.3146        0.0000        3.8501        3.8501       3.535517       0.18899
  39     1.339        0.3146        0.0000        3.8343        3.8343       3.519685       0.17823
  38     1.782        0.3146        0.0000        3.8256        3.8256       3.510960       0.16611
  37     2.292        0.3146        0.0000        3.8159        3.8159       3.501262       0.16063
  36     2.964        0.3146        0.0000        3.8038        3.8038       3.489157       0.15196
  35     3.853        0.3146        0.0000        3.7885        3.7885       3.473878       0.14500
  34     5.035        0.3146        0.0000        3.7687        3.7687       3.454125       0.14111
  33     6.613        0.3146        0.0000        3.7427        3.7427       3.428072       0.13927
  32     8.786        0.3146        0.0000        3.7095        3.7095       3.394847       0.12903
  31     11.80        0.3146        0.0000        3.6704        3.6704       3.355775       0.10939
  30     15.07        0.3146        0.0000        3.6411        3.6411       3.326529       0.07551
  29     18.79        0.3146        0.0000        3.6202        3.6202       3.305535       0.04760
  28     23.16        0.3146        0.0000        3.6044        3.6044       3.289796       0.03043
  27     28.12        0.3146        0.0000        3.5906        3.5906       3.275961       0.02352
  26     33.73        0.3146        0.0000        3.5762        3.5762       3.261592       0.02161
  25     40.54        0.3146        0.0000        3.5590        3.5590       3.244328       0.02142
  24     48.69        0.3147        0.0000        3.5380        3.5380       3.223353       0.02171
  23     57.69        0.3147        0.0000        3.5148        3.5149       3.200185       0.02172
  22     68.43        0.3147        0.0000        3.4874        3.4874       3.172695       0.02161
  21     81.20        0.3147        0.0000        3.4557        3.4557       3.140970       0.02096
  20     96.49        0.3147        0.0000        3.4194        3.4194       3.104674       0.02003
  19     114.6        0.3148        0.0000        3.3792        3.3792       3.064445       0.01878
  18     136.5        0.3148        0.0000        3.3353        3.3354       3.020555       0.01688
  17     162.9        0.3149        0.0000        3.2864        3.2865       2.971605       0.01565
  16     196.4        0.3150        0.0000        3.2261        3.2261       2.911158       0.01522
  15     218.7        0.3150        0.0000        3.1886        3.1886       2.873572       0.01427
  14     243.0        0.3151        0.0000        3.1455        3.1456       2.830463       0.01495
  13     269.0        0.3152        0.0000        3.0897        3.0897       2.774500       0.01815
  12     297.5        0.3154        0.0000        3.0221        3.0221       2.706726       0.02010
  11     328.5        0.3156        0.0000        2.9458        2.9458       2.630234       0.02080
  10     361.9        0.3159        0.0000        2.8605        2.8605       2.544661       0.02165
   9     398.1        0.3163        0.0000        2.7593        2.7593       2.443047       0.02367
   8     437.6        0.3168        0.0000        2.6312        2.6313       2.314480       0.02749
   7     480.5        0.3175        0.0000        2.4745        2.4746       2.157063       0.03092
   6     533.0        0.3186        0.0000        2.2961        2.2961       1.977540       0.02888
   5     589.8        0.3201        0.0000        2.1560        2.1560       1.835961       0.02101
   4     651.6        0.3221        0.0001        2.0613        2.0614       1.739298       0.01322
   3     718.7        0.3247        0.0001        1.9937        1.9938       1.669039       0.00883
   2     792.3        0.3280        0.0001        1.9333        1.9334       1.605407       0.00730
   1     891.5        0.3332        0.0001        1.8563        1.8563       1.523108       0.00700
   0    1013.0        0.3423        0.0001        1.7598        1.7598       1.417552       0.00733

  Modules and versions used in this calculation:

       rrtmg_sw.1col.f90:  $Revision$                    rrtmg_sw_init.f90:  $Revision$        
     rrtmgsw_cldprop.f90:  $Revision$                  rrtmgsw_cldprmc.f90:  NOT USED          
     rrtmg_sw_reftra.f90:  $Revision$                  rrtmg_sw_spcvrt.f90:  NOT USED          
     rrtmg_sw_spcvmc.f90:  NOT USED                    rrtmgsw_setcoef.f90:  NOT USED          
     rrtmg_sw_taumol.f90:  $Revision$                  rrtmg_sw_vrtqdr.f90:  NOT USED          
                rrtatm.f:  NOT USED                             util_xxx.f:  NOT USED          
                 extra.f:  NOT USED                       rrtmg_sw_k_g.f90:  $Revision$        

