

 Wavenumbers:   820. - 50000. cm-1, ATM      1
 LEVEL PRESSURE   UPWARD FLUX   DIFDOWN FLUX  DIRDOWN FLUX  DOWNWARD FLUX   NET FLUX    HEATING RATE
          mb          W/m2          W/m2          W/m2        W/m2          W/m2       degree/day
  51    .06700      173.2624        0.0000      397.8738      397.8738     224.611407       0.00000
  50    .07753      173.2617        0.0011      397.8578      397.8589     224.597152      11.42570
  49    .09103      173.2610        0.0026      397.8419      397.8445     224.583513       8.52479
  48    0.1069      173.2601        0.0042      397.8231      397.8273     224.567220       8.67263
  47    0.1255      173.2591        0.0061      397.7998      397.8059     224.546843       9.23798
  46    0.1487      173.2579        0.0085      397.7678      397.7763     224.518471      10.34186
  45    0.1794      173.2562        0.0118      397.7208      397.7325     224.476301      11.57671
  44    0.2165      173.2544        0.0156      397.6606      397.6762     224.421807      12.39632
  43    0.2613      173.2523        0.0201      397.5833      397.6035     224.351209      13.30753
  42    0.3336      173.2490        0.0276      397.4455      397.4731     224.224128      14.81635
  41    0.4307      173.2448        0.0373      397.2532      397.2906     224.045771      15.50778
  40    0.5894      173.2386        0.0530      396.9265      396.9795     223.740943      16.21035
  39     1.339      173.2196        0.1231      395.4281      395.5512     222.331626      15.86635
  38     1.782      173.2152        0.1624      394.7323      394.8947     221.679476      12.41588
  37     2.292      173.2161        0.2070      394.0616      394.2686     221.052536      10.38375
  36     2.964      173.2260        0.2649      393.3062      393.5712     220.345194       8.87929
  35     3.853      173.2513        0.3407      392.4387      392.7794     219.528138       7.75401
  34     5.035      173.2969        0.4403      391.4527      391.8930     218.596055       6.65842
  33     6.613      173.3646        0.5722      390.3373      390.9095     217.544891       5.61952
  32     8.786      173.4512        0.7486      389.0750      389.8236     216.372407       4.55350
  31     11.80      173.5551        0.9989      387.5651      388.5640     215.008904       3.81738
  30     15.07      173.6432        1.2654      386.1731      387.4384     213.795220       3.13350
  29     18.79      173.7218        1.5639      384.7701      386.3340     212.612183       2.68231
  28     23.16      173.7896        1.9098      383.2911      385.2009     211.411277       2.32216
  27     28.12      173.8389        2.3019      381.7580      384.0599     210.220975       2.02343
  26     33.73      173.8528        2.7375      380.2256      382.9631     209.110307       1.66992
  25     40.54      173.8217        3.2597      378.5684      381.8280     208.006379       1.36955
  24     48.69      173.7384        3.8834      376.7541      380.6375     206.899156       1.14580
  23     57.69      173.6031        4.5619      374.9309      379.4929     205.889719       0.94620
  22     68.43      173.3952        5.3615      372.9374      378.2989     204.903709       0.77514
  21     81.20      173.0828        6.3036      370.7896      377.0931     204.010386       0.59029
  20     96.49      172.6524        7.4113      368.4480      375.8594     203.207039       0.44339
  19     114.6      172.1233        8.7045      365.7981      374.5025     202.379204       0.38654
  18     136.5      171.4855       10.2052      362.7767      372.9819     201.496455       0.33944
  17     162.9      170.7218       11.9485      359.2432      371.1916     200.469877       0.32814
  16     196.4      169.7115       14.1441      354.6757      368.8198     199.108296       0.34273
  15     218.7      169.0467       15.5471      351.5847      367.1318     198.085145       0.38845
  14     243.0      168.3297       17.0382      347.9170      364.9552     196.625531       0.50624
  13     269.0      167.5604       18.6154      343.2462      361.8617     194.301289       0.75397
  12     297.5      166.7397       20.2763      337.8193      358.0956     191.355861       0.87358
  11     328.5      165.8706       22.0220      331.6713      353.6934     187.822730       0.96065
  10     361.9      164.9565       23.8471      324.8089      348.6559     183.699423       1.04324
   9     398.1      163.9988       25.7503      317.4202      343.1705     179.171706       1.05486
   8     437.6      163.0035       27.7268      309.5302      337.2570     174.253503       1.05154
   7     480.5      161.9799       29.7706      301.0011      330.7717     168.791792       1.07266
   6     533.0      160.7845       32.1867      290.8950      323.0817     162.297244       1.04477
   5     589.8      159.5803       34.6748      280.6453      315.3202     155.739824       0.97334
   4     651.6      158.3926       37.2228      270.2167      307.4395     149.046881       0.91528
   3     718.7      157.2365       39.8207      259.8608      299.6816     142.445024       0.82967
   2     792.3      156.1299       42.4531      249.7720      292.2251     136.095248       0.72825
   1     891.5      154.8816       45.7785      237.3251      283.1036     128.222002       0.66998
   0    1013.0      153.9064       49.4513      223.3729      272.8242     118.917789       0.64604



 Wavenumbers:  2600. -  3250. cm-1, ATM      1
 LEVEL PRESSURE   UPWARD FLUX   DIFDOWN FLUX  DIRDOWN FLUX  DOWNWARD FLUX   NET FLUX    HEATING RATE
          mb          W/m2          W/m2          W/m2        W/m2          W/m2       degree/day
  51    .06700        0.2914        0.0000        3.5066        3.5066       3.215178       0.00000
  50    .07753        0.2914        0.0000        3.5066        3.5066       3.215170       0.00640
  49    .09103        0.2914        0.0000        3.5066        3.5066       3.215160       0.00627
  48    0.1069        0.2914        0.0000        3.5066        3.5066       3.215148       0.00613
  47    0.1255        0.2914        0.0000        3.5066        3.5066       3.215135       0.00599
  46    0.1487        0.2914        0.0000        3.5066        3.5066       3.215118       0.00607
  45    0.1794        0.2914        0.0000        3.5065        3.5065       3.215095       0.00624
  44    0.2165        0.2914        0.0000        3.5065        3.5065       3.215069       0.00611
  43    0.2613        0.2914        0.0000        3.5065        3.5065       3.215037       0.00598
  42    0.3336        0.2914        0.0000        3.5064        3.5064       3.214984       0.00615
  41    0.4307        0.2914        0.0000        3.5064        3.5064       3.214913       0.00618
  40    0.5894        0.2914        0.0000        3.5062        3.5062       3.214794       0.00633
  39     1.339        0.2914        0.0000        3.5055        3.5055       3.214095       0.00787
  38     1.782        0.2914        0.0000        3.5050        3.5050       3.213564       0.01011
  37     2.292        0.2914        0.0000        3.5043        3.5043       3.212872       0.01147
  36     2.964        0.2914        0.0000        3.5033        3.5033       3.211880       0.01245
  35     3.853        0.2914        0.0000        3.5019        3.5019       3.210503       0.01307
  34     5.035        0.2914        0.0000        3.5001        3.5001       3.208642       0.01329
  33     6.613        0.2914        0.0000        3.4977        3.4977       3.206233       0.01288
  32     8.786        0.2914        0.0000        3.4947        3.4947       3.203262       0.01154
  31     11.80        0.2914        0.0000        3.4911        3.4911       3.199627       0.01018
  30     15.07        0.2914        0.0000        3.4878        3.4878       3.196406       0.00832
  29     18.79        0.2914        0.0000        3.4848        3.4848       3.193342       0.00695
  28     23.16        0.2914        0.0000        3.4816        3.4816       3.190122       0.00623
  27     28.12        0.2914        0.0000        3.4779        3.4779       3.186504       0.00615
  26     33.73        0.2914        0.0000        3.4735        3.4735       3.182038       0.00672
  25     40.54        0.2914        0.0000        3.4671        3.4671       3.175712       0.00785
  24     48.69        0.2914        0.0000        3.4582        3.4583       3.166817       0.00920
  23     57.69        0.2914        0.0000        3.4472        3.4472       3.155769       0.01036
  22     68.43        0.2914        0.0000        3.4329        3.4329       3.141509       0.01121
  21     81.20        0.2914        0.0000        3.4152        3.4152       3.123779       0.01172
  20     96.49        0.2914        0.0000        3.3940        3.3941       3.102634       0.01167
  19     114.6        0.2915        0.0000        3.3692        3.3693       3.077808       0.01159
  18     136.5        0.2915        0.0001        3.3421        3.3422       3.050682       0.01043
  17     162.9        0.2915        0.0001        3.3132        3.3132       3.021743       0.00925
  16     196.4        0.2915        0.0001        3.2800        3.2801       2.988561       0.00835
  15     218.7        0.2916        0.0001        3.2590        3.2590       2.967435       0.00802
  14     243.0        0.2917        0.0001        3.2338        3.2339       2.942193       0.00875
  13     269.0        0.2918        0.0001        3.2000        3.2001       2.908213       0.01102
  12     297.5        0.2921        0.0001        3.1543        3.1544       2.862316       0.01361
  11     328.5        0.2924        0.0001        3.0909        3.0910       2.798589       0.01733
  10     361.9        0.2930        0.0001        3.0041        3.0042       2.711275       0.02209
   9     398.1        0.2937        0.0001        2.8915        2.8917       2.597973       0.02640
   8     437.6        0.2947        0.0001        2.7534        2.7535       2.458814       0.02975
   7     480.5        0.2963        0.0001        2.5905        2.5906       2.294354       0.03230
   6     533.0        0.2988        0.0002        2.3948        2.3949       2.096114       0.03189
   5     589.8        0.3024        0.0002        2.2016        2.2018       1.899345       0.02921
   4     651.6        0.3076        0.0002        2.0028        2.0029       1.695298       0.02790
   3     718.7        0.3147        0.0002        1.8056        1.8058       1.491098       0.02566
   2     792.3        0.3239        0.0002        1.6239        1.6241       1.300238       0.02189
   1     891.5        0.3396        0.0002        1.4192        1.4194       1.079739       0.01876
   0    1013.0        0.3679        0.0002        1.2061        1.2063       0.838357       0.01676



 Wavenumbers:  3250. -  4000. cm-1, ATM      1
 LEVEL PRESSURE   UPWARD FLUX   DIFDOWN FLUX  DIRDOWN FLUX  DOWNWARD FLUX   NET FLUX    HEATING RATE
          mb          W/m2          W/m2          W/m2        W/m2          W/m2       degree/day
  51    .06700        0.0004        0.0000        5.9117        5.9117       5.911212       0.00000
  50    .07753        0.0004        0.0000        5.9075        5.9075       5.907035       3.34774
  49    .09103        0.0004        0.0000        5.9051        5.9051       5.904610       1.51550
  48    0.1069        0.0004        0.0000        5.9032        5.9032       5.902760       0.98485
  47    0.1255        0.0004        0.0000        5.9015        5.9015       5.901019       0.78955
  46    0.1487        0.0004        0.0000        5.8996        5.8996       5.899148       0.68200
  45    0.1794        0.0004        0.0000        5.8975        5.8975       5.897020       0.58405
  44    0.2165        0.0004        0.0000        5.8954        5.8954       5.894928       0.47601
  43    0.2613        0.0004        0.0000        5.8932        5.8932       5.892798       0.40137
  42    0.3336        0.0004        0.0000        5.8901        5.8901       5.889692       0.36214
  41    0.4307        0.0004        0.0000        5.8864        5.8864       5.885922       0.32778
  40    0.5894        0.0004        0.0000        5.8806        5.8806       5.880204       0.30409
  39     1.339        0.0004        0.0000        5.8603        5.8603       5.859836       0.22931
  38     1.782        0.0004        0.0000        5.8519        5.8519       5.851488       0.15894
  37     2.292        0.0004        0.0000        5.8438        5.8438       5.843401       0.13393
  36     2.964        0.0004        0.0000        5.8343        5.8343       5.833879       0.11954
  35     3.853        0.0004        0.0000        5.8223        5.8223       5.821867       0.11399
  34     5.035        0.0004        0.0000        5.8064        5.8064       5.805987       0.11344
  33     6.613        0.0004        0.0000        5.7849        5.7849       5.784473       0.11501
  32     8.786        0.0004        0.0000        5.7550        5.7550       5.754598       0.11602
  31     11.80        0.0004        0.0000        5.7113        5.7113       5.710876       0.12241
  30     15.07        0.0004        0.0000        5.6642        5.6642       5.663785       0.12158
  29     18.79        0.0004        0.0000        5.6123        5.6124       5.611954       0.11752
  28     23.16        0.0004        0.0000        5.5556        5.5556       5.555223       0.10970
  27     28.12        0.0004        0.0000        5.4969        5.4969       5.496504       0.09982
  26     33.73        0.0004        0.0000        5.4383        5.4383       5.437944       0.08805
  25     40.54        0.0004        0.0001        5.3745        5.3745       5.374162       0.07913
  24     48.69        0.0004        0.0001        5.3028        5.3029       5.302514       0.07414
  23     57.69        0.0004        0.0001        5.2265        5.2266       5.226230       0.07150
  22     68.43        0.0004        0.0001        5.1376        5.1376       5.137297       0.06991
  21     81.20        0.0003        0.0001        5.0350        5.0351       5.034763       0.06775
  20     96.49        0.0003        0.0001        4.9197        4.9198       4.919530       0.06360
  19     114.6        0.0003        0.0001        4.7871        4.7873       4.786980       0.06189
  18     136.5        0.0003        0.0002        4.6400        4.6402       4.639898       0.05656
  17     162.9        0.0002        0.0002        4.4571        4.4573       4.457010       0.05846
  16     196.4        0.0002        0.0002        4.1805        4.1807       4.180456       0.06961
  15     218.7        0.0002        0.0002        3.9859        3.9862       3.985987       0.07383
  14     243.0        0.0002        0.0002        3.7419        3.7421       3.741928       0.08465
  13     269.0        0.0001        0.0002        3.3885        3.3888       3.388605       0.11462
  12     297.5        0.0001        0.0002        2.9556        2.9559       2.955757       0.12838
  11     328.5        0.0001        0.0002        2.5020        2.5022       2.502140       0.12334
  10     361.9        0.0001        0.0002        2.0891        2.0893       2.089238       0.10447
   9     398.1        0.0001        0.0002        1.7342        1.7344       1.734285       0.08270
   8     437.6        0.0001        0.0002        1.4160        1.4162       1.416111       0.06803
   7     480.5        0.0001        0.0002        1.1167        1.1169       1.116852       0.05877
   6     533.0        0.0000        0.0001        0.8082        0.8084       0.808318       0.04963
   5     589.8        0.0000        0.0001        0.5430        0.5431       0.543053       0.03937
   4     651.6        0.0001        0.0001        0.3334        0.3335       0.333403       0.02867
   3     718.7        0.0001        0.0001        0.1831        0.1832       0.183128       0.01889
   2     792.3        0.0001        0.0000        0.0858        0.0858       0.085741       0.01117
   1     891.5        0.0002        0.0000        0.0236        0.0237       0.023449       0.00530
   0    1013.0        0.0008        0.0000        0.0026        0.0026       0.001817       0.00150



 Wavenumbers:  4000. -  4650. cm-1, ATM      1
 LEVEL PRESSURE   UPWARD FLUX   DIFDOWN FLUX  DIRDOWN FLUX  DOWNWARD FLUX   NET FLUX    HEATING RATE
          mb          W/m2          W/m2          W/m2        W/m2          W/m2       degree/day
  51    .06700        1.2168        0.0000        6.9421        6.9421       5.725273       0.00000
  50    .07753        1.2168        0.0000        6.9421        6.9421       5.725272       0.00079
  49    .09103        1.2168        0.0000        6.9421        6.9421       5.725271       0.00078
  48    0.1069        1.2168        0.0000        6.9421        6.9421       5.725270       0.00076
  47    0.1255        1.2168        0.0000        6.9421        6.9421       5.725268       0.00074
  46    0.1487        1.2168        0.0000        6.9421        6.9421       5.725266       0.00075
  45    0.1794        1.2168        0.0000        6.9421        6.9421       5.725263       0.00077
  44    0.2165        1.2168        0.0000        6.9421        6.9421       5.725260       0.00076
  43    0.2613        1.2168        0.0000        6.9420        6.9420       5.725256       0.00074
  42    0.3336        1.2168        0.0000        6.9420        6.9420       5.725249       0.00077
  41    0.4307        1.2168        0.0000        6.9420        6.9420       5.725240       0.00077
  40    0.5894        1.2168        0.0000        6.9420        6.9420       5.725225       0.00079
  39     1.339        1.2168        0.0000        6.9419        6.9419       5.725137       0.00100
  38     1.782        1.2168        0.0000        6.9418        6.9419       5.725067       0.00132
  37     2.292        1.2168        0.0000        6.9418        6.9418       5.724974       0.00155
  36     2.964        1.2168        0.0000        6.9416        6.9416       5.724834       0.00175
  35     3.853        1.2168        0.0000        6.9414        6.9414       5.724627       0.00196
  34     5.035        1.2168        0.0000        6.9411        6.9411       5.724323       0.00218
  33     6.613        1.2168        0.0000        6.9406        6.9406       5.723875       0.00240
  32     8.786        1.2168        0.0000        6.9399        6.9400       5.723214       0.00256
  31     11.80        1.2168        0.0000        6.9389        6.9389       5.722179       0.00290
  30     15.07        1.2167        0.0001        6.9377        6.9377       5.720968       0.00313
  29     18.79        1.2167        0.0001        6.9362        6.9362       5.719509       0.00331
  28     23.16        1.2167        0.0001        6.9343        6.9344       5.717705       0.00349
  27     28.12        1.2167        0.0001        6.9321        6.9322       5.715531       0.00370
  26     33.73        1.2167        0.0001        6.9294        6.9296       5.712863       0.00401
  25     40.54        1.2167        0.0002        6.9258        6.9259       5.709267       0.00446
  24     48.69        1.2167        0.0002        6.9210        6.9212       5.704507       0.00493
  23     57.69        1.2166        0.0002        6.9153        6.9156       5.698908       0.00525
  22     68.43        1.2166        0.0003        6.9083        6.9086       5.691950       0.00547
  21     81.20        1.2166        0.0003        6.8997        6.9000       5.683443       0.00562
  20     96.49        1.2166        0.0004        6.8894        6.8898       5.673170       0.00567
  19     114.6        1.2166        0.0004        6.8765        6.8770       5.660374       0.00597
  18     136.5        1.2166        0.0005        6.8610        6.8616       5.644958       0.00593
  17     162.9        1.2166        0.0006        6.8418        6.8425       5.625823       0.00612
  16     196.4        1.2167        0.0007        6.8152        6.8159       5.599149       0.00671
  15     218.7        1.2169        0.0008        6.7956        6.7965       5.579598       0.00742
  14     243.0        1.2171        0.0009        6.7711        6.7720       5.554981       0.00854
  13     269.0        1.2174        0.0010        6.7373        6.7383       5.520919       0.01105
  12     297.5        1.2180        0.0011        6.6915        6.6926       5.474595       0.01374
  11     328.5        1.2188        0.0012        6.6274        6.6286       5.409762       0.01763
  10     361.9        1.2199        0.0013        6.5417        6.5430       5.323086       0.02193
   9     398.1        1.2214        0.0014        6.4364        6.4378       5.216487       0.02484
   8     437.6        1.2233        0.0015        6.3156        6.3172       5.093914       0.02621
   7     480.5        1.2259        0.0017        6.1787        6.1803       4.954495       0.02738
   6     533.0        1.2300        0.0018        5.9993        6.0011       4.771131       0.02950
   5     589.8        1.2359        0.0019        5.7808        5.7827       4.546834       0.03329
   4     651.6        1.2444        0.0021        5.5217        5.5238       4.279393       0.03657
   3     718.7        1.2560        0.0022        5.2538        5.2560       3.999998       0.03511
   2     792.3        1.2709        0.0023        5.0054        5.0078       3.736864       0.03018
   1     891.5        1.2963        0.0025        4.7184        4.7209       3.424643       0.02657
   0    1013.0        1.3414        0.0027        4.3959        4.3986       3.057171       0.02552



 Wavenumbers:  4650. -  5150. cm-1, ATM      1
 LEVEL PRESSURE   UPWARD FLUX   DIFDOWN FLUX  DIRDOWN FLUX  DOWNWARD FLUX   NET FLUX    HEATING RATE
          mb          W/m2          W/m2          W/m2        W/m2          W/m2       degree/day
  51    .06700        0.8201        0.0000        6.5710        6.5710       5.750899       0.00000
  50    .07753        0.8201        0.0000        6.5708        6.5708       5.750663       0.18888
  49    .09103        0.8201        0.0000        6.5705        6.5705       5.750369       0.18363
  48    0.1069        0.8201        0.0000        6.5701        6.5701       5.750035       0.17807
  47    0.1255        0.8201        0.0000        6.5697        6.5697       5.749654       0.17239
  46    0.1487        0.8201        0.0000        6.5693        6.5693       5.749181       0.17269
  45    0.1794        0.8201        0.0000        6.5686        6.5686       5.748544       0.17474
  44    0.2165        0.8201        0.0000        6.5679        6.5679       5.747806       0.16788
  43    0.2613        0.8201        0.0000        6.5670        6.5670       5.746953       0.16079
  42    0.3336        0.8201        0.0000        6.5657        6.5657       5.745590       0.15895
  41    0.4307        0.8201        0.0000        6.5640        6.5640       5.743868       0.14971
  40    0.5894        0.8201        0.0000        6.5613        6.5613       5.741252       0.13913
  39     1.339        0.8201        0.0000        6.5516        6.5516       5.731474       0.11008
  38     1.782        0.8201        0.0000        6.5473        6.5473       5.727258       0.08026
  37     2.292        0.8201        0.0000        6.5434        6.5435       5.723371       0.06438
  36     2.964        0.8201        0.0000        6.5395        6.5395       5.719417       0.04964
  35     3.853        0.8201        0.0000        6.5355        6.5356       5.715475       0.03741
  34     5.035        0.8201        0.0000        6.5315        6.5315       5.711474       0.02858
  33     6.613        0.8201        0.0000        6.5271        6.5271       5.707081       0.02348
  32     8.786        0.8201        0.0001        6.5216        6.5216       5.701588       0.02133
  31     11.80        0.8200        0.0001        6.5135        6.5136       5.693512       0.02261
  30     15.07        0.8200        0.0001        6.5041        6.5042       5.684147       0.02418
  29     18.79        0.8200        0.0001        6.4925        6.4926       5.672635       0.02610
  28     23.16        0.8200        0.0001        6.4779        6.4780       5.658049       0.02821
  27     28.12        0.8200        0.0002        6.4599        6.4601       5.640080       0.03054
  26     33.73        0.8200        0.0002        6.4384        6.4386       5.618658       0.03221
  25     40.54        0.8199        0.0002        6.4113        6.4115       5.591544       0.03364
  24     48.69        0.8199        0.0003        6.3776        6.3779       5.557922       0.03479
  23     57.69        0.8199        0.0003        6.3404        6.3408       5.520848       0.03475
  22     68.43        0.8199        0.0004        6.2972        6.2976       5.477680       0.03394
  21     81.20        0.8199        0.0005        6.2483        6.2488       5.428892       0.03224
  20     96.49        0.8199        0.0005        6.1949        6.1955       5.375555       0.02944
  19     114.6        0.8199        0.0006        6.1383        6.1389       5.318971       0.02642
  18     136.5        0.8200        0.0007        6.0792        6.0799       5.259930       0.02270
  17     162.9        0.8201        0.0009        6.0163        6.0172       5.197081       0.02009
  16     196.4        0.8202        0.0010        5.9402        5.9413       5.121037       0.01914
  15     218.7        0.8204        0.0012        5.8902        5.8913       5.070929       0.01902
  14     243.0        0.8206        0.0013        5.8331        5.8344       5.013761       0.01983
  13     269.0        0.8210        0.0014        5.7646        5.7660       4.944988       0.02231
  12     297.5        0.8216        0.0015        5.6801        5.6817       4.860094       0.02518
  11     328.5        0.8224        0.0017        5.5785        5.5801       4.757766       0.02782
  10     361.9        0.8235        0.0018        5.4562        5.4580       4.634577       0.03117
   9     398.1        0.8250        0.0020        5.3121        5.3141       4.489084       0.03390
   8     437.6        0.8270        0.0021        5.1449        5.1470       4.319935       0.03617
   7     480.5        0.8298        0.0022        4.9518        4.9540       4.124174       0.03845
   6     533.0        0.8343        0.0024        4.7081        4.7104       3.876167       0.03990
   5     589.8        0.8404        0.0025        4.4530        4.4556       3.615136       0.03875
   4     651.6        0.8490        0.0026        4.1916        4.1942       3.345253       0.03691
   3     718.7        0.8605        0.0028        3.9358        3.9386       3.078160       0.03357
   2     792.3        0.8753        0.0029        3.6927        3.6956       2.820310       0.02957
   1     891.5        0.9004        0.0030        3.4025        3.4055       2.505084       0.02682
   0    1013.0        0.9433        0.0032        3.0901        3.0933       2.149992       0.02466



 Wavenumbers:  5150. -  6150. cm-1, ATM      1
 LEVEL PRESSURE   UPWARD FLUX   DIFDOWN FLUX  DIRDOWN FLUX  DOWNWARD FLUX   NET FLUX    HEATING RATE
          mb          W/m2          W/m2          W/m2        W/m2          W/m2       degree/day
  51    .06700        2.2014        0.0000       16.4735       16.4735      14.272070       0.00000
  50    .07753        2.2014        0.0000       16.4735       16.4735      14.272039       0.02487
  49    .09103        2.2014        0.0000       16.4734       16.4734      14.271999       0.02532
  48    0.1069        2.2014        0.0000       16.4734       16.4734      14.271950       0.02575
  47    0.1255        2.2014        0.0000       16.4733       16.4733      14.271893       0.02616
  46    0.1487        2.2014        0.0000       16.4733       16.4733      14.271817       0.02756
  45    0.1794        2.2014        0.0000       16.4731       16.4731      14.271710       0.02945
  44    0.2165        2.2014        0.0000       16.4730       16.4730      14.271578       0.03001
  43    0.2613        2.2014        0.0000       16.4728       16.4728      14.271417       0.03041
  42    0.3336        2.2014        0.0000       16.4726       16.4726      14.271141       0.03211
  41    0.4307        2.2014        0.0000       16.4722       16.4722      14.270763       0.03285
  40    0.5894        2.2014        0.0000       16.4715       16.4716      14.270131       0.03361
  39     1.339        2.2014        0.0000       16.4684       16.4685      14.267054       0.03464
  38     1.782        2.2014        0.0000       16.4666       16.4666      14.265246       0.03443
  37     2.292        2.2014        0.0001       16.4645       16.4646      14.263171       0.03437
  36     2.964        2.2014        0.0001       16.4618       16.4619      14.260477       0.03382
  35     3.853        2.2014        0.0001       16.4582       16.4583      14.256973       0.03325
  34     5.035        2.2013        0.0001       16.4536       16.4537      14.252417       0.03255
  33     6.613        2.2013        0.0002       16.4476       16.4478      14.246503       0.03161
  32     8.786        2.2013        0.0002       16.4399       16.4401      14.238857       0.02969
  31     11.80        2.2012        0.0003       16.4294       16.4297      14.228544       0.02887
  30     15.07        2.2011        0.0004       16.4189       16.4193      14.218193       0.02673
  29     18.79        2.2011        0.0005       16.4079       16.4084      14.207365       0.02455
  28     23.16        2.2010        0.0006       16.3961       16.3967      14.195746       0.02247
  27     28.12        2.2009        0.0007       16.3838       16.3845      14.183610       0.02063
  26     33.73        2.2008        0.0009       16.3712       16.3721      14.171295       0.01852
  25     40.54        2.2007        0.0011       16.3576       16.3587      14.157976       0.01652
  24     48.69        2.2006        0.0013       16.3430       16.3443      14.143686       0.01479
  23     57.69        2.2005        0.0015       16.3288       16.3303      14.129867       0.01295
  22     68.43        2.2003        0.0018       16.3140       16.3158      14.115507       0.01129
  21     81.20        2.2002        0.0021       16.2982       16.3003      14.100134       0.01016
  20     96.49        2.2000        0.0025       16.2806       16.2831      14.083138       0.00938
  19     114.6        2.1997        0.0030       16.2603       16.2633      14.063546       0.00915
  18     136.5        2.1995        0.0035       16.2334       16.2370      14.037505       0.01001
  17     162.9        2.1992        0.0042       16.1859       16.1901      13.990877       0.01490
  16     196.4        2.1988        0.0050       16.0716       16.0766      13.877822       0.02846
  15     218.7        2.1986        0.0056       15.9294       15.9350      13.736423       0.05368
  14     243.0        2.1984        0.0061       15.6626       15.6688      13.470388       0.09227
  13     269.0        2.1982        0.0066       15.2015       15.2081      13.009909       0.14938
  12     297.5        2.1981        0.0071       14.6588       14.6659      12.467796       0.16078
  11     328.5        2.1982        0.0076       13.9891       13.9967      11.798500       0.18198
  10     361.9        2.1984        0.0080       13.2132       13.2212      11.022776       0.19627
   9     398.1        2.1989        0.0084       12.4174       12.4257      10.226877       0.18543
   8     437.6        2.1997        0.0087       11.6248       11.6335       9.433846       0.16955
   7     480.5        2.2011        0.0090       10.8667       10.8757       8.674577       0.14912
   6     533.0        2.2037        0.0093       10.1490       10.1584       7.954689       0.11581
   5     589.8        2.2078        0.0098        9.6012        9.6110       7.403124       0.08187
   4     651.6        2.2144        0.0103        9.1683        9.1786       6.964179       0.06003
   3     718.7        2.2239        0.0109        8.7949        8.8058       6.581879       0.04804
   2     792.3        2.2370        0.0116        8.4404        8.4521       6.215031       0.04207
   1     891.5        2.2614        0.0126        8.0115        8.0241       5.762635       0.03850
   0    1013.0        2.3118        0.0136        7.5684        7.5819       5.270177       0.03419



 Wavenumbers:  6150. -  7700. cm-1, ATM      1
 LEVEL PRESSURE   UPWARD FLUX   DIFDOWN FLUX  DIRDOWN FLUX  DOWNWARD FLUX   NET FLUX    HEATING RATE
          mb          W/m2          W/m2          W/m2        W/m2          W/m2       degree/day
  51    .06700        3.2796        0.0000       30.4684       30.4684      27.188786       0.00000
  50    .07753        3.2796        0.0000       30.4683       30.4683      27.188738       0.03860
  49    .09103        3.2796        0.0000       30.4683       30.4683      27.188676       0.03884
  48    0.1069        3.2796        0.0000       30.4682       30.4682      27.188603       0.03907
  47    0.1255        3.2796        0.0000       30.4681       30.4681      27.188516       0.03926
  46    0.1487        3.2796        0.0000       30.4680       30.4680      27.188404       0.04094
  45    0.1794        3.2796        0.0000       30.4678       30.4678      27.188246       0.04330
  44    0.2165        3.2796        0.0000       30.4676       30.4676      27.188054       0.04369
  43    0.2613        3.2796        0.0000       30.4674       30.4674      27.187821       0.04393
  42    0.3336        3.2796        0.0000       30.4670       30.4670      27.187426       0.04603
  41    0.4307        3.2796        0.0000       30.4664       30.4664      27.186889       0.04672
  40    0.5894        3.2795        0.0001       30.4655       30.4655      27.185994       0.04757
  39     1.339        3.2795        0.0001       30.4610       30.4611      27.181665       0.04873
  38     1.782        3.2794        0.0002       30.4584       30.4585      27.179123       0.04841
  37     2.292        3.2794        0.0002       30.4553       30.4556      27.176200       0.04840
  36     2.964        3.2793        0.0003       30.4514       30.4517      27.172397       0.04774
  35     3.853        3.2792        0.0004       30.4462       30.4467      27.167431       0.04713
  34     5.035        3.2791        0.0005       30.4395       30.4400      27.160934       0.04641
  33     6.613        3.2789        0.0007       30.4307       30.4314      27.152429       0.04547
  32     8.786        3.2787        0.0010       30.4191       30.4200      27.141289       0.04326
  31     11.80        3.2784        0.0013       30.4031       30.4044      27.125970       0.04289
  30     15.07        3.2781        0.0017       30.3867       30.3884      27.110285       0.04049
  29     18.79        3.2777        0.0021       30.3691       30.3712      27.093445       0.03818
  28     23.16        3.2773        0.0025       30.3496       30.3522      27.074861       0.03593
  27     28.12        3.2768        0.0031       30.3286       30.3317      27.054868       0.03399
  26     33.73        3.2763        0.0037       30.3065       30.3101      27.033881       0.03155
  25     40.54        3.2756        0.0044       30.2817       30.2861      27.010493       0.02902
  24     48.69        3.2748        0.0053       30.2541       30.2594      26.984636       0.02676
  23     57.69        3.2739        0.0063       30.2265       30.2328      26.958871       0.02415
  22     68.43        3.2729        0.0074       30.1968       30.2042      26.931367       0.02162
  21     81.20        3.2716        0.0088       30.1641       30.1730      26.901377       0.01982
  20     96.49        3.2701        0.0105       30.1275       30.1380      26.867935       0.01846
  19     114.6        3.2683        0.0125       30.0853       30.0978      26.829477       0.01796
  18     136.5        3.2662        0.0148       30.0312       30.0459      26.779740       0.01913
  17     162.9        3.2637        0.0175       29.9429       29.9604      26.696727       0.02653
  16     196.4        3.2605        0.0211       29.7622       29.7833      26.522800       0.04378
  15     218.7        3.2584        0.0234       29.5677       29.5911      26.332669       0.07219
  14     243.0        3.2562        0.0257       29.2057       29.2315      25.975287       0.12395
  13     269.0        3.2539        0.0280       28.4886       28.5166      25.262715       0.23116
  12     297.5        3.2517        0.0302       27.5307       27.5609      24.309179       0.28281
  11     328.5        3.2497        0.0322       26.4109       26.4431      23.193420       0.30337
  10     361.9        3.2480        0.0342       25.0850       25.1192      21.871206       0.33453
   9     398.1        3.2468        0.0358       23.6233       23.6591      20.412253       0.33990
   8     437.6        3.2466        0.0372       22.0962       22.1334      18.886822       0.32615
   7     480.5        3.2480        0.0383       20.5083       20.5466      17.298621       0.31192
   6     533.0        3.2524        0.0394       18.8057       18.8451      15.592646       0.27444
   5     589.8        3.2614        0.0405       17.2778       17.3182      14.056827       0.22797
   4     651.6        3.2773        0.0415       15.8974       15.9389      12.661569       0.19081
   3     718.7        3.3018        0.0427       14.7088       14.7515      11.449748       0.15229
   2     792.3        3.3363        0.0442       13.7149       13.7591      10.422752       0.11778
   1     891.5        3.4012        0.0462       12.6393       12.6855       9.284313       0.09688
   0    1013.0        3.5320        0.0484       11.5406       11.5889       8.056929       0.08522



 Wavenumbers:  7700. -  8050. cm-1, ATM      1
 LEVEL PRESSURE   UPWARD FLUX   DIFDOWN FLUX  DIRDOWN FLUX  DOWNWARD FLUX   NET FLUX    HEATING RATE
          mb          W/m2          W/m2          W/m2        W/m2          W/m2       degree/day
  51    .06700        1.6723        0.0000        7.2006        7.2006       5.528333       0.00000
  50    .07753        1.6723        0.0000        7.2006        7.2006       5.528314       0.01507
  49    .09103        1.6723        0.0000        7.2005        7.2005       5.528290       0.01477
  48    0.1069        1.6723        0.0000        7.2005        7.2005       5.528263       0.01446
  47    0.1255        1.6723        0.0000        7.2005        7.2005       5.528232       0.01415
  46    0.1487        1.6723        0.0000        7.2004        7.2005       5.528193       0.01435
  45    0.1794        1.6723        0.0000        7.2004        7.2004       5.528139       0.01477
  44    0.2165        1.6723        0.0000        7.2003        7.2003       5.528075       0.01449
  43    0.2613        1.6723        0.0000        7.2003        7.2003       5.528000       0.01422
  42    0.3336        1.6723        0.0000        7.2001        7.2001       5.527875       0.01455
  41    0.4307        1.6723        0.0000        7.2000        7.2000       5.527710       0.01439
  40    0.5894        1.6723        0.0000        7.1997        7.1997       5.527439       0.01437
  39     1.339        1.6723        0.0001        7.1984        7.1985       5.526161       0.01439
  38     1.782        1.6724        0.0001        7.1977        7.1978       5.525411       0.01429
  37     2.292        1.6724        0.0001        7.1968        7.1969       5.524543       0.01438
  36     2.964        1.6724        0.0001        7.1957        7.1958       5.523403       0.01431
  35     3.853        1.6725        0.0002        7.1942        7.1944       5.521898       0.01428
  34     5.035        1.6726        0.0002        7.1922        7.1925       5.519901       0.01427
  33     6.613        1.6727        0.0003        7.1896        7.1899       5.517235       0.01425
  32     8.786        1.6728        0.0004        7.1860        7.1864       5.513648       0.01393
  31     11.80        1.6730        0.0005        7.1810        7.1815       5.508529       0.01433
  30     15.07        1.6732        0.0007        7.1755        7.1762       5.503049       0.01415
  29     18.79        1.6734        0.0008        7.1694        7.1703       5.496878       0.01399
  28     23.16        1.6737        0.0010        7.1623        7.1634       5.489698       0.01388
  27     28.12        1.6740        0.0013        7.1542        7.1555       5.481524       0.01390
  26     33.73        1.6743        0.0015        7.1452        7.1467       5.472424       0.01368
  25     40.54        1.6747        0.0018        7.1344        7.1362       5.461497       0.01356
  24     48.69        1.6753        0.0022        7.1215        7.1237       5.448421       0.01353
  23     57.69        1.6758        0.0026        7.1074        7.1100       5.434181       0.01335
  22     68.43        1.6765        0.0030        7.0909        7.0939       5.417388       0.01320
  21     81.20        1.6773        0.0036        7.0713        7.0749       5.397614       0.01307
  20     96.49        1.6783        0.0042        7.0484        7.0527       5.374374       0.01283
  19     114.6        1.6795        0.0050        7.0217        7.0267       5.347222       0.01268
  18     136.5        1.6809        0.0060        6.9906        6.9965       5.315634       0.01215
  17     162.9        1.6826        0.0071        6.9544        6.9615       5.278811       0.01177
  16     196.4        1.6849        0.0085        6.9087        6.9172       5.232274       0.01171
  15     218.7        1.6865        0.0094        6.8794        6.8888       5.202351       0.01136
  14     243.0        1.6882        0.0104        6.8481        6.8585       5.170345       0.01110
  13     269.0        1.6901        0.0115        6.8147        6.8263       5.136153       0.01109
  12     297.5        1.6922        0.0127        6.7792        6.7919       5.099673       0.01082
  11     328.5        1.6946        0.0139        6.7412        6.7552       5.060559       0.01063
  10     361.9        1.6973        0.0153        6.7005        6.7158       5.018542       0.01063
   9     398.1        1.7004        0.0168        6.6569        6.6736       4.973230       0.01056
   8     437.6        1.7039        0.0183        6.6098        6.6281       4.924188       0.01049
   7     480.5        1.7080        0.0200        6.5585        6.5784       4.870425       0.01056
   6     533.0        1.7136        0.0220        6.4938        6.5158       4.802220       0.01097
   5     589.8        1.7203        0.0241        6.4219        6.4460       4.725724       0.01135
   4     651.6        1.7285        0.0264        6.3413        6.3677       4.639236       0.01183
   3     718.7        1.7383        0.0289        6.2518        6.2807       4.542419       0.01217
   2     792.3        1.7499        0.0314        6.1541        6.1855       4.435680       0.01224
   1     891.5        1.7674        0.0348        6.0183        6.0531       4.285730       0.01276
   0    1013.0        1.7924        0.0387        5.8447        5.8835       4.091104       0.01351



 Wavenumbers:  8050. - 12850. cm-1, ATM      1
 LEVEL PRESSURE   UPWARD FLUX   DIFDOWN FLUX  DIRDOWN FLUX  DOWNWARD FLUX   NET FLUX    HEATING RATE
          mb          W/m2          W/m2          W/m2        W/m2          W/m2       degree/day
  51    .06700       21.9749        0.0000      100.8135      100.8135      78.838642       0.00000
  50    .07753       21.9749        0.0000      100.8135      100.8135      78.838642       0.00000
  49    .09103       21.9748        0.0001      100.8134      100.8135      78.838642       0.00000
  48    0.1069       21.9748        0.0001      100.8134      100.8134      78.838642       0.00000
  47    0.1255       21.9748        0.0001      100.8133      100.8134      78.838642      -0.00000
  46    0.1487       21.9747        0.0002      100.8132      100.8134      78.838642       0.00000
  45    0.1794       21.9747        0.0002      100.8131      100.8133      78.838642       0.00000
  44    0.2165       21.9746        0.0003      100.8129      100.8132      78.838642      -0.00000
  43    0.2613       21.9745        0.0004      100.8127      100.8132      78.838642       0.00000
  42    0.3336       21.9744        0.0006      100.8125      100.8130      78.838642      -0.00000
  41    0.4307       21.9742        0.0008      100.8121      100.8129      78.838642       0.00000
  40    0.5894       21.9739        0.0011      100.8115      100.8126      78.838642       0.00000
  39     1.339       21.9726        0.0028      100.8085      100.8113      78.838642      -0.00000
  38     1.782       21.9718        0.0037      100.8068      100.8105      78.838642       0.00000
  37     2.292       21.9709        0.0048      100.8047      100.8096      78.838642       0.00000
  36     2.964       21.9698        0.0063      100.8021      100.8084      78.838642       0.00000
  35     3.853       21.9682        0.0082      100.7986      100.8068      78.838642      -0.00000
  34     5.035       21.9661        0.0108      100.7940      100.8047      78.838642       0.00000
  33     6.613       21.9633        0.0142      100.7878      100.8020      78.838642      -0.00000
  32     8.786       21.9596        0.0188      100.7794      100.7982      78.838642       0.00000
  31     11.80       21.9542        0.0254      100.7674      100.7928      78.838642      -0.00000
  30     15.07       21.9484        0.0325      100.7546      100.7871      78.838642      -0.00000
  29     18.79       21.9419        0.0405      100.7400      100.7805      78.838642       0.00000
  28     23.16       21.9343        0.0499      100.7230      100.7729      78.838642       0.00000
  27     28.12       21.9255        0.0607      100.7035      100.7642      78.838642       0.00000
  26     33.73       21.9157        0.0727      100.6817      100.7544      78.838642       0.00000
  25     40.54       21.9039        0.0873      100.6552      100.7425      78.838642       0.00000
  24     48.69       21.8895        0.1048      100.6234      100.7282      78.838642       0.00000
  23     57.69       21.8738        0.1242      100.5883      100.7124      78.838642       0.00000
  22     68.43       21.8550        0.1472      100.5464      100.6937      78.838642       0.00000
  21     81.20       21.8326        0.1747      100.4965      100.6712      78.838642       0.00000
  20     96.49       21.8058        0.2075      100.4370      100.6445      78.838642      -0.00000
  19     114.6       21.7741        0.2466      100.3592      100.6058      78.831723       0.00323
  18     136.5       21.7363        0.2929      100.2652      100.5581      78.821754       0.00383
  17     162.9       21.6913        0.3481      100.1447      100.4928      78.801487       0.00648
  16     196.4       21.6328        0.4199       99.9602      100.3800      78.747178       0.01367
  15     218.7       21.5944        0.4670       99.8052      100.2722      78.677832       0.02633
  14     243.0       21.5527        0.5182       99.5751      100.0933      78.540610       0.04759
  13     269.0       21.5078        0.5733       99.1920       99.7653      78.257521       0.09183
  12     297.5       21.4600        0.6325       98.6682       99.3006      77.840631       0.12364
  11     328.5       21.4096        0.6958       97.9756       98.6714      77.261819       0.15738
  10     361.9       21.3573        0.7631       97.0510       97.8141      76.456846       0.20367
   9     398.1       21.3039        0.8342       95.8662       96.7003      75.396477       0.24704
   8     437.6       21.2511        0.9085       94.3791       95.2877      74.036559       0.29076
   7     480.5       21.2024        0.9853       92.4868       93.4721      72.269673       0.34701
   6     533.0       21.1558        1.0758       89.9534       91.0292      69.873432       0.38548
   5     589.8       21.1248        1.1691       87.1579       88.3270      67.202214       0.39650
   4     651.6       21.1198        1.2647       84.1209       85.3855      64.265720       0.40157
   3     718.7       21.1469        1.3634       81.0039       82.3673      61.220328       0.38272
   2     792.3       21.2117        1.4656       77.9559       79.4215      58.209749       0.34528
   1     891.5       21.3744        1.5973       74.1995       75.7969      54.422522       0.32227
   0    1013.0       21.7646        1.7434       69.9262       71.6696      49.905047       0.31367



 Wavenumbers: 12850. - 16000. cm-1, ATM      1
 LEVEL PRESSURE   UPWARD FLUX   DIFDOWN FLUX  DIRDOWN FLUX  DOWNWARD FLUX   NET FLUX    HEATING RATE
          mb          W/m2          W/m2          W/m2        W/m2          W/m2       degree/day
  51    .06700       31.2916        0.0000       63.1686       63.1686      31.876957       0.00000
  50    .07753       31.2916        0.0001       63.1677       63.1678      31.876178       0.62412
  49    .09103       31.2916        0.0001       63.1666       63.1668      31.875208       0.60643
  48    0.1069       31.2915        0.0002       63.1654       63.1656      31.874104       0.58792
  47    0.1255       31.2915        0.0003       63.1640       63.1643      31.872848       0.56933
  46    0.1487       31.2914        0.0004       63.1623       63.1627      31.871282       0.57071
  45    0.1794       31.2914        0.0006       63.1600       63.1605      31.869183       0.57615
  44    0.2165       31.2913        0.0008       63.1573       63.1581      31.866758       0.55184
  43    0.2613       31.2912        0.0010       63.1542       63.1552      31.863961       0.52714
  42    0.3336       31.2911        0.0014       63.1493       63.1506      31.859509       0.51911
  41    0.4307       31.2910        0.0018       63.1431       63.1450      31.853945       0.48371
  40    0.5894       31.2909        0.0026       63.1338       63.1365      31.845530       0.44749
  39     1.339       31.2916        0.0064       63.0956       63.1020      31.810381       0.39572
  38     1.782       31.2929        0.0087       63.0740       63.0827      31.789816       0.39152
  37     2.292       31.2951        0.0112       63.0477       63.0589      31.763808       0.43076
  36     2.964       31.2992        0.0146       63.0095       63.0242      31.724936       0.48797
  35     3.853       31.3063        0.0191       62.9533       62.9723      31.666005       0.55926
  34     5.035       31.3175        0.0250       62.8725       62.8975      31.580051       0.61402
  33     6.613       31.3332        0.0329       62.7621       62.7950      31.461803       0.63215
  32     8.786       31.3534        0.0435       62.6182       62.6618      31.308332       0.59602
  31     11.80       31.3792        0.0587       62.4284       62.4870      31.107876       0.56122
  30     15.07       31.4030        0.0749       62.2426       62.3175      30.914556       0.49911
  29     18.79       31.4264        0.0932       62.0493       62.1425      30.716084       0.45000
  28     23.16       31.4499        0.1145       61.8424       61.9570      30.507111       0.40409
  27     28.12       31.4720        0.1388       61.6278       61.7667      30.294610       0.36124
  26     33.73       31.4903        0.1660       61.4177       61.5837      30.093402       0.30252
  25     40.54       31.5046        0.1987       61.1983       61.3971      29.892412       0.24935
  24     48.69       31.5145        0.2382       60.9680       61.2062      29.691612       0.20780
  23     57.69       31.5182        0.2814       60.7478       61.0292      29.510978       0.16932
  22     68.43       31.5148        0.3328       60.5202       60.8530      29.338195       0.13583
  21     81.20       31.5001        0.3941       60.2938       60.6879      29.187770       0.09940
  20     96.49       31.4728        0.4670       60.0643       60.5313      29.058507       0.07134
  19     114.6       31.4409        0.5540       59.8078       60.3618      28.920918       0.06424
  18     136.5       31.3987        0.6570       59.5158       60.1727      28.774078       0.05646
  17     162.9       31.3442        0.7793       59.1772       59.9564      28.612213       0.05174
  16     196.4       31.2649        0.9374       58.7606       59.6980      28.433105       0.04508
  15     218.7       31.2097        1.0409       58.4952       59.5361      28.326413       0.04051
  14     243.0       31.1482        1.1532       58.2096       59.3627      28.214504       0.03881
  13     269.0       31.0805        1.2746       57.9019       59.1765      28.096058       0.03842
  12     297.5       31.0063        1.4054       57.5695       58.9749      27.968638       0.03779
  11     328.5       30.9264        1.5464       57.2057       58.7521      27.825709       0.03886
  10     361.9       30.8412        1.6977       56.8055       58.5032      27.662067       0.04140
   9     398.1       30.7510        1.8599       56.3628       58.2227      27.471679       0.04436
   8     437.6       30.6573        2.0332       55.8671       57.9003      27.243059       0.04888
   7     480.5       30.5623        2.2178       55.3008       57.5186      26.956235       0.05633
   6     533.0       30.4548        2.4430       54.5566       56.9997      26.544872       0.06618
   5     589.8       30.3516        2.6827       53.7106       56.3933      26.041745       0.07468
   4     651.6       30.2568        2.9361       52.7651       55.7012      25.444383       0.08169
   3     718.7       30.1728        3.2033       51.7416       54.9449      24.772094       0.08449
   2     792.3       30.1030        3.4842       50.6609       54.1451      24.042142       0.08372
   1     891.5       30.0489        3.8546       49.2152       53.0698      23.020925       0.08690
   0    1013.0       30.0673        4.2839       47.4673       51.7512      21.683898       0.09284



 Wavenumbers: 16000. - 22650. cm-1, ATM      1
 LEVEL PRESSURE   UPWARD FLUX   DIFDOWN FLUX  DIRDOWN FLUX  DOWNWARD FLUX   NET FLUX    HEATING RATE
          mb          W/m2          W/m2          W/m2        W/m2          W/m2       degree/day
  51    .06700       73.5275        0.0000      100.7153      100.7153      27.187831       0.00000
  50    .07753       73.5273        0.0003      100.7147      100.7151      27.187715       0.09310
  49    .09103       73.5272        0.0007      100.7140      100.7147      27.187546       0.10560
  48    0.1069       73.5270        0.0012      100.7131      100.7143      27.187320       0.12042
  47    0.1255       73.5268        0.0017      100.7121      100.7138      27.187017       0.13726
  46    0.1487       73.5266        0.0024      100.7108      100.7132      27.186571       0.16265
  45    0.1794       73.5263        0.0033      100.7089      100.7122      27.185873       0.19151
  44    0.2165       73.5261        0.0044      100.7066      100.7110      27.184927       0.21523
  43    0.2613       73.5258        0.0057      100.7037      100.7094      27.183643       0.24196
  42    0.3336       73.5254        0.0079      100.6987      100.7066      27.181203       0.28454
  41    0.4307       73.5250        0.0107      100.6918      100.7025      27.177524       0.31985
  40    0.5894       73.5246        0.0154      100.6797      100.6951      27.170509       0.37307
  39     1.339       73.5283        0.0374      100.6095      100.6469      27.118689       0.58340
  38     1.782       73.5343        0.0504      100.5585      100.6088      27.074558       0.84018
  37     2.292       73.5449        0.0654      100.4903      100.5556      27.010699       1.05767
  36     2.964       73.5645        0.0850      100.3868      100.4718      26.907297       1.29801
  35     3.853       73.5982        0.1109      100.2306      100.3415      26.743345       1.55593
  34     5.035       73.6508        0.1453      100.0045      100.1498      26.499015       1.74539
  33     6.613       73.7250        0.1911       99.6939       99.8850      26.160005       1.81235
  32     8.786       73.8210        0.2527       99.2881       99.5408      25.719810       1.70956
  31     11.80       73.9431        0.3406       98.7496       99.0902      25.147065       1.60351
  30     15.07       74.0565        0.4345       98.2198       98.6544      24.597820       1.41804
  29     18.79       74.1688        0.5403       97.6651       98.2055      24.036662       1.27232
  28     23.16       74.2816        0.6634       97.0671       97.7306      23.448978       1.13639
  27     28.12       74.3891        0.8036       96.4406       97.2442      22.855040       1.00966
  26     33.73       74.4788        0.9600       95.8179       96.7779      22.299098       0.83587
  25     40.54       74.5516        1.1483       95.1548       96.3031      21.751550       0.67930
  24     48.69       74.6049        1.3744       94.4420       95.8163      21.211443       0.55893
  23     57.69       74.6303        1.6217       93.7416       95.3633      20.732976       0.44849
  22     68.43       74.6249        1.9150       92.9954       94.9103      20.285431       0.35183
  21     81.20       74.5696        2.2630       92.2231       94.4861      19.916534       0.24376
  20     96.49       74.4587        2.6757       91.4110       94.0867      19.628059       0.15922
  19     114.6       74.3049        3.1624       90.5070       93.6694      19.364552       0.12304
  18     136.5       74.1082        3.7343       89.4803       93.2146      19.106338       0.09929
  17     162.9       73.8619        4.4084       88.3022       92.7107      18.848805       0.08232
  16     196.4       73.5147        5.2724       86.8607       92.1331      18.618323       0.05802
  15     218.7       73.2775        5.8335       85.9492       91.7828      18.505287       0.04292
  14     243.0       73.0162        6.4378       84.9790       91.4169      18.400681       0.03628
  13     269.0       72.7297        7.0862       83.9495       91.0357      18.306029       0.03070
  12     297.5       72.4174        7.7795       82.8594       90.6389      18.221498       0.02507
  11     328.5       72.0804        8.5200       81.6991       90.2191      18.138727       0.02251
  10     361.9       71.7186        9.3074       80.4685       89.7759      18.057294       0.02060
   9     398.1       71.3312       10.1436       79.1638       89.3074      17.976119       0.01891
   8     437.6       70.9186       11.0288       77.7820       88.8108      17.892133       0.01796
   7     480.5       70.4809       11.9632       76.3203       88.2835      17.802609       0.01758
   6     533.0       69.9493       13.0933       74.5463       87.6396      17.690298       0.01807
   5     589.8       69.3866       14.2868       72.6626       86.9494      17.562805       0.01892
   4     651.6       68.7946       15.5416       70.6679       86.2096      17.414934       0.02022
   3     718.7       68.1739       16.8556       68.5668       85.4224      17.248537       0.02091
   2     792.3       67.5268       18.2233       66.3673       84.5906      17.063791       0.02119
   1     891.5       66.6850       20.0060       63.4752       83.4812      16.796171       0.02277
   0    1013.0       65.7250       22.0511       60.1135       82.1647      16.439696       0.02475



 Wavenumbers: 22650. - 29000. cm-1, ATM      1
 LEVEL PRESSURE   UPWARD FLUX   DIFDOWN FLUX  DIRDOWN FLUX  DOWNWARD FLUX   NET FLUX    HEATING RATE
          mb          W/m2          W/m2          W/m2        W/m2          W/m2       degree/day
  51    .06700       32.0560        0.0000       38.0063       38.0063       5.950306       0.00000
  50    .07753       32.0558        0.0004       38.0057       38.0061       5.950306      -0.00000
  49    .09103       32.0556        0.0009       38.0050       38.0059       5.950306       0.00000
  48    0.1069       32.0553        0.0014       38.0042       38.0056       5.950306      -0.00000
  47    0.1255       32.0551        0.0020       38.0033       38.0054       5.950306       0.00000
  46    0.1487       32.0547        0.0028       38.0022       38.0050       5.950306       0.00000
  45    0.1794       32.0542        0.0039       38.0006       38.0045       5.950306      -0.00000
  44    0.2165       32.0536        0.0052       37.9987       38.0039       5.950306       0.00000
  43    0.2613       32.0529        0.0067       37.9965       38.0032       5.950306      -0.00000
  42    0.3336       32.0518        0.0092       37.9928       38.0021       5.950306       0.00000
  41    0.4307       32.0502        0.0125       37.9880       38.0005       5.950306       0.00000
  40    0.5894       32.0477        0.0180       37.9800       37.9980       5.950306      -0.00000
  39     1.339       32.0359        0.0437       37.9425       37.9862       5.950306       0.00000
  38     1.782       32.0290        0.0588       37.9204       37.9793       5.950306       0.00000
  37     2.292       32.0209        0.0763       37.8949       37.9712       5.950306      -0.00000
  36     2.964       32.0104        0.0993       37.8614       37.9607       5.950306       0.00000
  35     3.853       31.9965        0.1296       37.8172       37.9468       5.950306       0.00000
  34     5.035       31.9780        0.1697       37.7586       37.9283       5.950306      -0.00000
  33     6.613       31.9534        0.2234       37.6803       37.9037       5.950306       0.00000
  32     8.786       31.9202        0.2955       37.5750       37.8705       5.950306       0.00000
  31     11.80       31.8729        0.3983       37.4249       37.8232       5.950306       0.00000
  30     15.07       31.8222        0.5084       37.2642       37.7725       5.950306      -0.00000
  29     18.79       31.7651        0.6322       37.0833       37.7155       5.950306       0.00000
  28     23.16       31.6988        0.7761       36.8730       37.6491       5.950306       0.00000
  27     28.12       31.6232        0.9397       36.6338       37.5735       5.950306      -0.00000
  26     33.73       31.5391        1.1217       36.3677       37.4894       5.950306       0.00000
  25     40.54       31.4381        1.3398       36.0486       37.3884       5.950306      -0.00000
  24     48.69       31.3172        1.6003       35.6672       37.2675       5.950306       0.00000
  23     57.69       31.1857        1.8833       35.2527       37.1360       5.950306       0.00000
  22     68.43       31.0307        2.2161       34.7649       36.9810       5.950306      -0.00000
  21     81.20       30.8483        2.6064       34.1922       36.7986       5.950306       0.00000
  20     96.49       30.6343        3.0628       33.5217       36.5846       5.950306       0.00000
  19     114.6       30.3848        3.5927       32.7424       36.3351       5.950306      -0.00000
  18     136.5       30.0954        4.2041       31.8416       36.0457       5.950306       0.00000
  17     162.9       29.7597        4.9092       30.8008       35.7100       5.950306      -0.00000
  16     196.4       29.3380        5.7876       29.5007       35.2883       5.950306       0.00000
  15     218.7       29.0693        6.3428       28.6767       35.0196       5.950306      -0.00000
  14     243.0       28.7843        6.9278       27.8068       34.7346       5.950306       0.00000
  13     269.0       28.4835        7.5405       26.8934       34.4338       5.950306      -0.00000
  12     297.5       28.1676        8.1786       25.9394       34.1179       5.950306       0.00000
  11     328.5       27.8364        8.8415       24.9452       33.7867       5.950306      -0.00000
  10     361.9       27.4911        9.5252       23.9162       33.4414       5.950306      -0.00000
   9     398.1       27.1319       10.2279       22.8544       33.0823       5.950306       0.00000
   8     437.6       26.7601       10.9456       21.7648       32.7104       5.950306      -0.00000
   7     480.5       26.3768       11.6744       20.6527       32.3271       5.950306       0.00000
   6     533.0       25.9250       12.5177       19.3576       31.8753       5.950306      -0.00000
   5     589.8       25.4612       13.3639       18.0476       31.4115       5.950306      -0.00000
   4     651.6       24.9878       14.2055       16.7326       30.9381       5.950306       0.00000
   3     718.7       24.5069       15.0347       15.4225       30.4572       5.950306       0.00000
   2     792.3       24.0219       15.8419       14.1303       29.9722       5.950306      -0.00000
   1     891.5       23.4117       16.8106       12.5514       29.3620       5.950306       0.00000
   0    1013.0       22.7377       17.8115       10.8765       28.6881       5.950306       0.00000



 Wavenumbers: 29000. - 38000. cm-1, ATM      1
 LEVEL PRESSURE   UPWARD FLUX   DIFDOWN FLUX  DIRDOWN FLUX  DOWNWARD FLUX   NET FLUX    HEATING RATE
          mb          W/m2          W/m2          W/m2        W/m2          W/m2       degree/day
  51    .06700        4.7045        0.0000       13.4026       13.4026       8.698127       0.00000
  50    .07753        4.7043        0.0003       13.3983       13.3986       8.694329       3.04421
  49    .09103        4.7040        0.0007       13.3921       13.3928       8.688810       3.44947
  48    0.1069        4.7037        0.0011       13.3840       13.3851       8.681434       3.92653
  47    0.1255        4.7033        0.0016       13.3733       13.3749       8.671590       4.46291
  46    0.1487        4.7029        0.0022       13.3579       13.3600       8.657148       5.26406
  45    0.1794        4.7023        0.0030       13.3340       13.3371       8.634750       6.14888
  44    0.2165        4.7016        0.0040       13.3024       13.3064       8.604733       6.82832
  43    0.2613        4.7009        0.0051       13.2604       13.2655       8.564681       7.54960
  42    0.3336        4.6996        0.0070       13.1833       13.1903       8.490680       8.62781
  41    0.4307        4.6981        0.0095       13.0729       13.0824       8.384316       9.24810
  40    0.5894        4.6956        0.0133       12.8796       12.8929       8.197289       9.94587
  39     1.339        4.6870        0.0295       11.9165       11.9460       7.259072      10.56262
  38     1.782        4.6835        0.0378       11.4399       11.4777       6.794194       8.85053
  37     2.292        4.6808        0.0466       10.9796       11.0262       6.345407       7.43309
  36     2.964        4.6791        0.0574       10.4786       10.5361       5.857005       6.13092
  35     3.853        4.6792        0.0708        9.9429       10.0137       5.334502       4.95865
  34     5.035        4.6819        0.0875        9.4007        9.4882       4.806287       3.77335
  33     6.613        4.6873        0.1087        8.8752        8.9839       4.296603       2.72477
  32     8.786        4.6948        0.1360        8.3786        8.5145       3.819784       1.85179
  31     11.80        4.7037        0.1734        7.8897        8.0631       3.359321       1.28915
  30     15.07        4.7112        0.2120        7.5108        7.7228       3.011560       0.89785
  29     18.79        4.7180        0.2540        7.1776        7.4317       2.713675       0.67540
  28     23.16        4.7238        0.3014        6.8664        7.1678       2.443983       0.52150
  27     28.12        4.7280        0.3537        6.5780        6.9317       2.203674       0.40851
  26     33.73        4.7283        0.4107        6.3195        6.7301       2.001835       0.30347
  25     40.54        4.7233        0.4778        6.0663        6.5441       1.820824       0.22456
  24     48.69        4.7124        0.5565        5.8128        6.3693       1.656955       0.16958
  23     57.69        4.6958        0.6404        5.5777        6.2181       1.522315       0.12620
  22     68.43        4.6710        0.7375        5.3379        6.0753       1.404306       0.09277
  21     81.20        4.6340        0.8500        5.0965        5.9465       1.312520       0.06065
  20     96.49        4.5834        0.9799        4.8476        5.8276       1.244221       0.03770
  19     114.6        4.5221        1.1270        4.5799        5.7069       1.184817       0.02774
  18     136.5        4.4511        1.2912        4.2891        5.5803       1.129189       0.02139
  17     162.9        4.3699        1.4729        3.9732        5.4461       1.076215       0.01693
  16     196.4        4.2672        1.6902        3.6080        5.2982       1.030992       0.01138
  15     218.7        4.2024        1.8222        3.3898        5.2119       1.009489       0.00816
  14     243.0        4.1350        1.9564        3.1686        5.1250       0.990004       0.00676
  13     269.0        4.0651        2.0919        2.9461        5.0380       0.972836       0.00557
  12     297.5        3.9932        2.2273        2.7239        4.9512       0.958002       0.00440
  11     328.5        3.9201        2.3613        2.5029        4.8642       0.944087       0.00378
  10     361.9        3.8462        2.4927        2.2846        4.7773       0.931112       0.00328
   9     398.1        3.7718        2.6201        2.0708        4.6909       0.919069       0.00281
   8     437.6        3.6974        2.7425        1.8626        4.6051       0.907700       0.00243
   7     480.5        3.6233        2.8583        1.6621        4.5205       0.897128       0.00208
   6     533.0        3.5395        2.9817        1.4437        4.4254       0.885854       0.00181
   5     589.8        3.4573        3.0932        1.2393        4.3325       0.875190       0.00158
   4     651.6        3.3771        3.1917        1.0504        4.2421       0.864991       0.00139
   3     718.7        3.2992        3.2760        0.8784        4.1544       0.855220       0.00123
   2     792.3        3.2238        3.3454        0.7243        4.0697       0.845859       0.00107
   1     891.5        3.1328        3.4106        0.5568        3.9674       0.834573       0.00096
   0    1013.0        3.0367        3.4547        0.4044        3.8591       0.822452       0.00084



 Wavenumbers: 38000. - 50000. cm-1, ATM      1
 LEVEL PRESSURE   UPWARD FLUX   DIFDOWN FLUX  DIRDOWN FLUX  DOWNWARD FLUX   NET FLUX    HEATING RATE
          mb          W/m2          W/m2          W/m2        W/m2          W/m2       degree/day
  51    .06700        0.0051        0.0000        0.8267        0.8267       0.821528       0.00000
  50    .07753        0.0051        0.0001        0.8242        0.8243       0.819196       1.86936
  49    .09103        0.0050        0.0002        0.8207        0.8209       0.815872       2.07705
  48    0.1069        0.0049        0.0002        0.8162        0.8164       0.811514       2.31984
  47    0.1255        0.0048        0.0004        0.8103        0.8106       0.805801       2.59006
  46    0.1487        0.0047        0.0005        0.8018        0.8023       0.797567       3.00143
  45    0.1794        0.0045        0.0007        0.7889        0.7896       0.785013       3.44648
  44    0.2165        0.0044        0.0009        0.7720        0.7729       0.768507       3.75474
  43    0.2613        0.0042        0.0011        0.7500        0.7511       0.746955       4.06246
  42    0.3336        0.0039        0.0015        0.7106        0.7121       0.708267       4.51071
  41    0.4307        0.0035        0.0019        0.6566        0.6584       0.654972       4.63387
  40    0.5894        0.0029        0.0024        0.5680        0.5704       0.567464       4.65357
  39     1.339        0.0015        0.0030        0.2422        0.2452       0.243720       3.64476
  38     1.782        0.0010        0.0026        0.1493        0.1519       0.150889       1.76735
  37     2.292        0.0007        0.0022        0.0924        0.0946       0.093932       0.94336
  36     2.964        0.0005        0.0018        0.0539        0.0557       0.055224       0.48589
  35     3.853        0.0003        0.0013        0.0295        0.0308       0.030502       0.23462
  34     5.035        0.0002        0.0010        0.0154        0.0164       0.016181       0.10230
  33     6.613        0.0001        0.0007        0.0073        0.0080       0.007912       0.04420
  32     8.786        0.0000        0.0004        0.0030        0.0034       0.003390       0.01756
  31     11.80        0.0000        0.0003        0.0010        0.0012       0.001199       0.00613
  30     15.07        0.0000        0.0001        0.0003        0.0005       0.000463       0.00190
  29     18.79        0.0000        0.0001        0.0001        0.0002       0.000182       0.00064
  28     23.16        0.0000        0.0000        0.0000        0.0001       0.000071       0.00022
  27     28.12        0.0000        0.0000        0.0000        0.0000       0.000028       0.00007
  26     33.73        0.0000        0.0000        0.0000        0.0000       0.000011       0.00002
  25     40.54        0.0000        0.0000        0.0000        0.0000       0.000005       0.00001
  24     48.69        0.0000        0.0000        0.0000        0.0000       0.000002       0.00000
  23     57.69        0.0000        0.0000        0.0000        0.0000       0.000001       0.00000
  22     68.43        0.0000        0.0000        0.0000        0.0000       0.000000       0.00000
  21     81.20        0.0000        0.0000        0.0000        0.0000       0.000000       0.00000
  20     96.49        0.0000        0.0000        0.0000        0.0000       0.000000       0.00000
  19     114.6        0.0000        0.0000        0.0000        0.0000       0.000000       0.00000
  18     136.5        0.0000        0.0000        0.0000        0.0000       0.000000       0.00000
  17     162.9        0.0000        0.0000        0.0000        0.0000       0.000000       0.00000
  16     196.4        0.0000        0.0000        0.0000        0.0000       0.000000       0.00000
  15     218.7        0.0000        0.0000        0.0000        0.0000       0.000000       0.00000
  14     243.0        0.0000        0.0000        0.0000        0.0000       0.000000       0.00000
  13     269.0        0.0000        0.0000        0.0000        0.0000       0.000000       0.00000
  12     297.5        0.0000        0.0000        0.0000        0.0000       0.000000       0.00000
  11     328.5        0.0000        0.0000        0.0000        0.0000       0.000000       0.00000
  10     361.9        0.0000        0.0000        0.0000        0.0000       0.000000       0.00000
   9     398.1        0.0000        0.0000        0.0000        0.0000       0.000000       0.00000
   8     437.6        0.0000        0.0000        0.0000        0.0000       0.000000       0.00000
   7     480.5        0.0000        0.0000        0.0000        0.0000       0.000000       0.00000
   6     533.0        0.0000        0.0000        0.0000        0.0000       0.000000       0.00000
   5     589.8        0.0000        0.0000        0.0000        0.0000       0.000000       0.00000
   4     651.6        0.0000        0.0000        0.0000        0.0000       0.000000       0.00000
   3     718.7        0.0000        0.0000        0.0000        0.0000       0.000000       0.00000
   2     792.3        0.0000        0.0000        0.0000        0.0000       0.000000       0.00000
   1     891.5        0.0000        0.0000        0.0000        0.0000       0.000000       0.00000
   0    1013.0        0.0000        0.0000        0.0000        0.0000       0.000000       0.00000



 Wavenumbers:   820. -  2600. cm-1, ATM      1
 LEVEL PRESSURE   UPWARD FLUX   DIFDOWN FLUX  DIRDOWN FLUX  DOWNWARD FLUX   NET FLUX    HEATING RATE
          mb          W/m2          W/m2          W/m2        W/m2          W/m2       degree/day
  51    .06700        0.2208        0.0000        3.8670        3.8670       3.646265       0.00000
  50    .07753        0.2208        0.0000        3.8643        3.8643       3.643554       2.17255
  49    .09103        0.2208        0.0000        3.8635        3.8635       3.642752       0.50114
  48    0.1069        0.2208        0.0000        3.8626        3.8626       3.641872       0.46882
  47    0.1255        0.2208        0.0000        3.8617        3.8617       3.640923       0.43017
  46    0.1487        0.2208        0.0000        3.8606        3.8606       3.639829       0.39866
  45    0.1794        0.2208        0.0000        3.8593        3.8593       3.638516       0.36037
  44    0.2165        0.2208        0.0000        3.8579        3.8579       3.637166       0.30724
  43    0.2613        0.2208        0.0000        3.8565        3.8565       3.635739       0.26893
  42    0.3336        0.2208        0.0000        3.8543        3.8543       3.633565       0.25349
  41    0.4307        0.2208        0.0000        3.8515        3.8515       3.630760       0.24386
  40    0.5894        0.2208        0.0000        3.8469        3.8469       3.626163       0.24446
  39     1.339        0.2208        0.0000        3.8261        3.8261       3.605393       0.23384
  38     1.782        0.2208        0.0000        3.8147        3.8147       3.593913       0.21855
  37     2.292        0.2208        0.0000        3.8020        3.8020       3.581211       0.21038
  36     2.964        0.2208        0.0000        3.7863        3.7863       3.565497       0.19725
  35     3.853        0.2208        0.0000        3.7668        3.7668       3.546062       0.18445
  34     5.035        0.2208        0.0000        3.7427        3.7427       3.521897       0.17262
  33     6.613        0.2208        0.0000        3.7125        3.7125       3.491793       0.16094
  32     8.786        0.2208        0.0000        3.6764        3.6764       3.455686       0.14023
  31     11.80        0.2208        0.0000        3.6360        3.6360       3.415259       0.11318
  30     15.07        0.2208        0.0000        3.6058        3.6058       3.385040       0.07802
  29     18.79        0.2208        0.0000        3.5823        3.5823       3.361502       0.05337
  28     23.16        0.2208        0.0000        3.5615        3.5615       3.340780       0.04007
  27     28.12        0.2208        0.0000        3.5408        3.5408       3.320053       0.03523
  26     33.73        0.2208        0.0000        3.5187        3.5187       3.297911       0.03329
  25     40.54        0.2208        0.0000        3.4928        3.4928       3.271990       0.03216
  24     48.69        0.2208        0.0000        3.4625        3.4625       3.241693       0.03135
  23     57.69        0.2208        0.0000        3.4306        3.4306       3.209826       0.02987
  22     68.43        0.2208        0.0000        3.3949        3.3949       3.174133       0.02806
  21     81.20        0.2208        0.0000        3.3554        3.3554       3.134612       0.02611
  20     96.49        0.2208        0.0000        3.3118        3.3118       3.090966       0.02409
  19     114.6        0.2208        0.0000        3.2633        3.2633       3.042509       0.02263
  18     136.5        0.2208        0.0000        3.2073        3.2073       2.986443       0.02156
  17     162.9        0.2209        0.0000        3.1336        3.1336       2.912780       0.02355
  16     196.4        0.2209        0.0000        3.0272        3.0272       2.806293       0.02680
  15     218.7        0.2210        0.0000        2.9614        2.9614       2.740426       0.02501
  14     243.0        0.2210        0.0000        2.8816        2.8816       2.660544       0.02771
  13     269.0        0.2211        0.0000        2.7682        2.7682       2.547037       0.03682
  12     297.5        0.2213        0.0000        2.6087        2.6087       2.387375       0.04735
  11     328.5        0.2216        0.0000        2.4029        2.4030       2.181346       0.05602
  10     361.9        0.2221        0.0000        2.1932        2.1932       1.971099       0.05319
   9     398.1        0.2228        0.0000        2.0306        2.0306       1.807867       0.03803
   8     437.6        0.2237        0.0000        1.9138        1.9138       1.690116       0.02518
   7     480.5        0.2251        0.0000        1.8074        1.8074       1.582343       0.02117
   6     533.0        0.2273        0.0000        1.6785        1.6785       1.451196       0.02110
   5     589.8        0.2305        0.0000        1.5480        1.5480       1.317520       0.01984
   4     651.6        0.2353        0.0000        1.4235        1.4235       1.188215       0.01768
   3     718.7        0.2416        0.0000        1.3136        1.3137       1.072109       0.01459
   2     792.3        0.2493        0.0000        1.2161        1.2161       0.966784       0.01208
   1     891.5        0.2623        0.0000        1.0942        1.0942       0.831912       0.01148
   0    1013.0        0.2856        0.0000        0.9364        0.9365       0.650842       0.01257

  Modules and versions used in this calculation:

       rrtmg_sw.1col.f90:  $Revision$                    rrtmg_sw_init.f90:  $Revision$        
     rrtmgsw_cldprop.f90:  $Revision$                  rrtmgsw_cldprmc.f90:  NOT USED          
     rrtmg_sw_reftra.f90:  $Revision$                  rrtmg_sw_spcvrt.f90:  NOT USED          
     rrtmg_sw_spcvmc.f90:  NOT USED                    rrtmgsw_setcoef.f90:  NOT USED          
     rrtmg_sw_taumol.f90:  $Revision$                  rrtmg_sw_vrtqdr.f90:  NOT USED          
                rrtatm.f:  NOT USED                             util_xxx.f:  NOT USED          
                 extra.f:  NOT USED                       rrtmg_sw_k_g.f90:  $Revision$        

