

 Wavenumbers:   820. - 50000. cm-1, ATM      1
 LEVEL PRESSURE   UPWARD FLUX   DIFDOWN FLUX  DIRDOWN FLUX  DOWNWARD FLUX   NET FLUX    HEATING RATE
          mb          W/m2          W/m2          W/m2        W/m2          W/m2       degree/day
  51    .06700      176.9374        0.0000      397.8738      397.8738     220.936401       0.00000
  50    .07753      176.9368        0.0012      397.8579      397.8590     220.922259      11.33459
  49    .09103      176.9360        0.0026      397.8421      397.8448     220.908754       8.44091
  48    0.1069      176.9351        0.0043      397.8235      397.8277     220.892608       8.59490
  47    0.1255      176.9342        0.0062      397.8004      397.8066     220.872391       9.16539
  46    0.1487      176.9330        0.0086      397.7686      397.7772     220.844216      10.26999
  45    0.1794      176.9314        0.0119      397.7218      397.7337     220.802311      11.50394
  44    0.2165      176.9296        0.0158      397.6620      397.6777     220.748133      12.32444
  43    0.2613      176.9275        0.0203      397.5851      397.6055     220.677917      13.23558
  42    0.3336      176.9243        0.0279      397.4480      397.4758     220.551481      14.74116
  41    0.4307      176.9203        0.0377      397.2566      397.2943     220.373985      15.43288
  40    0.5894      176.9144        0.0536      396.9314      396.9849     220.070518      16.13796
  39     1.339      176.8970        0.1244      395.4391      395.5635     218.666557      15.80605
  38     1.782      176.8937        0.1641      394.7467      394.9107     218.016986      12.36679
  37     2.292      176.8962        0.2092      394.0796      394.2888     217.392663      10.34041
  36     2.964      176.9085        0.2678      393.3289      393.5967     216.688239       8.84265
  35     3.853      176.9374        0.3444      392.4671      392.8116     215.874199       7.72540
  34     5.035      176.9882        0.4452      391.4880      391.9332     214.945022       6.63765
  33     6.613      177.0631        0.5787      390.3807      390.9594     213.896258       5.60669
  32     8.786      177.1592        0.7572      389.1276      389.8848     212.725599       4.54642
  31     11.80      177.2758        1.0106      387.6286      388.6392     211.363399       3.81373
  30     15.07      177.3764        1.2803      386.2469      387.5272     210.150786       3.13073
  29     18.79      177.4683        1.5826      384.8548      386.4374     208.969093       2.67926
  28     23.16      177.5505        1.9327      383.3877      385.3205     207.769964       2.31873
  27     28.12      177.6151        2.3299      381.8669      384.1968     206.581668       2.02002
  26     33.73      177.6443        2.7710      380.3469      383.1179     205.473555       1.66608
  25     40.54      177.6296        3.2999      378.7027      382.0026     204.373057       1.36529
  24     48.69      177.5640        3.9318      376.9026      380.8344     203.270414       1.14106
  23     57.69      177.4463        4.6193      375.0929      379.7122     202.265902       0.94158
  22     68.43      177.2571        5.4296      373.1124      378.5420     201.284882       0.77121
  21     81.20      176.9641        6.3845      370.9771      377.3616     200.397518       0.58636
  20     96.49      176.5541        7.5077      368.6480      376.1557     199.601585       0.43930
  19     114.6      176.0471        8.8191      366.0187      374.8378     198.790694       0.37863
  18     136.5      175.4346       10.3416      363.0275      373.3691     197.934542       0.32921
  17     162.9      174.7004       12.1108      359.5580      371.6688     196.968358       0.30883
  16     196.4      173.7269       14.3404      355.1482      369.4886     195.761762       0.30371
  15     218.7      173.0856       15.7658      352.2149      367.9808     194.895207       0.32900
  14     243.0      172.3938       17.2815      348.8513      366.1328     193.739031       0.40100
  13     269.0      171.6512       18.8857      344.6897      363.5754     191.924144       0.58874
  12     297.5      170.8587       20.5759      339.8024      360.3783     189.519676       0.71314
  11     328.5      170.0191       22.3537      334.2937      356.6474     186.628339       0.78615
  10     361.9      169.1354       24.2137      328.1992      352.4129     183.277506       0.84779
   9     398.1      168.2087       26.1555      321.5314      347.6870     179.478248       0.88514
   8     437.6      167.2443       28.1735      314.3089      342.4824     175.238098       0.90657
   7     480.5      166.2490       30.2637      306.4671      336.7308     170.481766       0.93413
   6     533.0      165.0815       32.7372      297.0871      329.8243     164.742837       0.92321
   5     589.8      163.8978       35.2889      287.4653      322.7542     158.856469       0.87373
   4     651.6      162.7199       37.9075      277.6457      315.5533     152.833409       0.82367
   3     718.7      161.5596       40.5856      267.9489      308.5345     146.974912       0.73625
   2     792.3      160.4312       43.3076      258.4961      301.8036     141.372395       0.64255
   1     891.5      159.1157       46.7590      246.7249      293.4839     134.368159       0.59603
   0    1013.0      157.9657       50.5927      233.3755      283.9682     126.002515       0.58087



 Wavenumbers:  2600. -  3250. cm-1, ATM      1
 LEVEL PRESSURE   UPWARD FLUX   DIFDOWN FLUX  DIRDOWN FLUX  DOWNWARD FLUX   NET FLUX    HEATING RATE
          mb          W/m2          W/m2          W/m2        W/m2          W/m2       degree/day
  51    .06700        0.3059        0.0000        3.5066        3.5066       3.200746       0.00000
  50    .07753        0.3059        0.0000        3.5066        3.5066       3.200738       0.00640
  49    .09103        0.3059        0.0000        3.5066        3.5066       3.200728       0.00627
  48    0.1069        0.3059        0.0000        3.5066        3.5066       3.200716       0.00613
  47    0.1255        0.3059        0.0000        3.5066        3.5066       3.200703       0.00599
  46    0.1487        0.3059        0.0000        3.5066        3.5066       3.200687       0.00607
  45    0.1794        0.3059        0.0000        3.5065        3.5065       3.200664       0.00624
  44    0.2165        0.3059        0.0000        3.5065        3.5065       3.200637       0.00611
  43    0.2613        0.3059        0.0000        3.5065        3.5065       3.200605       0.00598
  42    0.3336        0.3059        0.0000        3.5064        3.5064       3.200552       0.00615
  41    0.4307        0.3059        0.0000        3.5064        3.5064       3.200481       0.00618
  40    0.5894        0.3059        0.0000        3.5062        3.5062       3.200362       0.00633
  39     1.339        0.3059        0.0000        3.5055        3.5055       3.199663       0.00787
  38     1.782        0.3059        0.0000        3.5050        3.5050       3.199133       0.01011
  37     2.292        0.3059        0.0000        3.5043        3.5043       3.198440       0.01147
  36     2.964        0.3059        0.0000        3.5033        3.5033       3.197449       0.01245
  35     3.853        0.3059        0.0000        3.5019        3.5019       3.196072       0.01307
  34     5.035        0.3059        0.0000        3.5001        3.5001       3.194211       0.01329
  33     6.613        0.3059        0.0000        3.4977        3.4977       3.191801       0.01288
  32     8.786        0.3059        0.0000        3.4947        3.4947       3.188830       0.01154
  31     11.80        0.3059        0.0000        3.4911        3.4911       3.185195       0.01018
  30     15.07        0.3059        0.0000        3.4878        3.4878       3.181974       0.00832
  29     18.79        0.3059        0.0000        3.4848        3.4848       3.178910       0.00695
  28     23.16        0.3059        0.0000        3.4816        3.4816       3.175690       0.00623
  27     28.12        0.3059        0.0000        3.4779        3.4779       3.172072       0.00615
  26     33.73        0.3059        0.0000        3.4735        3.4735       3.167605       0.00672
  25     40.54        0.3059        0.0000        3.4671        3.4671       3.161278       0.00785
  24     48.69        0.3059        0.0000        3.4582        3.4583       3.152382       0.00921
  23     57.69        0.3059        0.0000        3.4472        3.4472       3.141333       0.01036
  22     68.43        0.3059        0.0000        3.4329        3.4329       3.127071       0.01121
  21     81.20        0.3059        0.0000        3.4152        3.4152       3.109339       0.01172
  20     96.49        0.3059        0.0000        3.3940        3.3941       3.088189       0.01167
  19     114.6        0.3059        0.0000        3.3696        3.3696       3.063690       0.01144
  18     136.5        0.3059        0.0001        3.3428        3.3428       3.036918       0.01029
  17     162.9        0.3060        0.0001        3.3145        3.3146       3.008604       0.00905
  16     196.4        0.3060        0.0001        3.2829        3.2830       2.976939       0.00797
  15     218.7        0.3061        0.0001        3.2638        3.2639       2.957832       0.00725
  14     243.0        0.3062        0.0001        3.2422        3.2423       2.936150       0.00752
  13     269.0        0.3063        0.0001        3.2143        3.2144       2.908119       0.00909
  12     297.5        0.3066        0.0001        3.1784        3.1785       2.871935       0.01073
  11     328.5        0.3069        0.0001        3.1305        3.1306       2.823682       0.01312
  10     361.9        0.3074        0.0001        3.0661        3.0662       2.758799       0.01642
   9     398.1        0.3081        0.0001        2.9821        2.9823       2.674202       0.01971
   8     437.6        0.3090        0.0001        2.8751        2.8752       2.566186       0.02309
   7     480.5        0.3104        0.0002        2.7413        2.7414       2.431009       0.02655
   6     533.0        0.3127        0.0002        2.5707        2.5709       2.258198       0.02780
   5     589.8        0.3159        0.0002        2.3942        2.3944       2.078478       0.02668
   4     651.6        0.3206        0.0002        2.2148        2.2150       1.894404       0.02517
   3     718.7        0.3268        0.0002        2.0406        2.0408       1.713947       0.02268
   2     792.3        0.3349        0.0002        1.8738        1.8740       1.539160       0.02005
   1     891.5        0.3485        0.0002        1.6744        1.6746       1.326110       0.01813
   0    1013.0        0.3725        0.0002        1.4603        1.4605       1.087974       0.01654



 Wavenumbers:  3250. -  4000. cm-1, ATM      1
 LEVEL PRESSURE   UPWARD FLUX   DIFDOWN FLUX  DIRDOWN FLUX  DOWNWARD FLUX   NET FLUX    HEATING RATE
          mb          W/m2          W/m2          W/m2        W/m2          W/m2       degree/day
  51    .06700        0.0057        0.0000        5.9117        5.9117       5.905915       0.00000
  50    .07753        0.0057        0.0000        5.9075        5.9075       5.901799       3.29895
  49    .09103        0.0057        0.0000        5.9052        5.9052       5.899440       1.47451
  48    0.1069        0.0057        0.0000        5.9034        5.9034       5.897654       0.95054
  47    0.1255        0.0057        0.0000        5.9017        5.9017       5.895976       0.76080
  46    0.1487        0.0057        0.0000        5.8999        5.8999       5.894176       0.65600
  45    0.1794        0.0057        0.0000        5.8979        5.8979       5.892137       0.55999
  44    0.2165        0.0057        0.0000        5.8959        5.8959       5.890144       0.45340
  43    0.2613        0.0057        0.0000        5.8939        5.8939       5.888133       0.37890
  42    0.3336        0.0057        0.0000        5.8910        5.8910       5.885229       0.33865
  41    0.4307        0.0057        0.0000        5.8875        5.8875       5.881719       0.30516
  40    0.5894        0.0057        0.0000        5.8821        5.8821       5.876375       0.28420
  39     1.339        0.0057        0.0000        5.8627        5.8627       5.856962       0.21856
  38     1.782        0.0057        0.0000        5.8547        5.8547       5.848930       0.15290
  37     2.292        0.0057        0.0000        5.8469        5.8469       5.841185       0.12829
  36     2.964        0.0057        0.0000        5.8379        5.8379       5.832139       0.11355
  35     3.853        0.0057        0.0000        5.8265        5.8265       5.820789       0.10772
  34     5.035        0.0057        0.0000        5.8115        5.8115       5.805793       0.10712
  33     6.613        0.0057        0.0000        5.7911        5.7911       5.785358       0.10924
  32     8.786        0.0057        0.0000        5.7626        5.7626       5.756909       0.11049
  31     11.80        0.0057        0.0000        5.7207        5.7207       5.715027       0.11726
  30     15.07        0.0057        0.0000        5.6753        5.6753       5.669560       0.11739
  29     18.79        0.0057        0.0000        5.6247        5.6247       5.619027       0.11457
  28     23.16        0.0057        0.0000        5.5689        5.5689       5.563211       0.10793
  27     28.12        0.0057        0.0000        5.5107        5.5107       5.505049       0.09887
  26     33.73        0.0057        0.0000        5.4527        5.4527       5.447019       0.08725
  25     40.54        0.0057        0.0001        5.3899        5.3900       5.384278       0.07784
  24     48.69        0.0057        0.0001        5.3202        5.3203       5.314639       0.07207
  23     57.69        0.0057        0.0001        5.2467        5.2468       5.241158       0.06888
  22     68.43        0.0056        0.0001        5.1610        5.1611       5.155437       0.06739
  21     81.20        0.0056        0.0001        5.0617        5.0618       5.056212       0.06557
  20     96.49        0.0056        0.0001        4.9499        4.9500       4.944392       0.06172
  19     114.6        0.0056        0.0001        4.8241        4.8243       4.818672       0.05870
  18     136.5        0.0056        0.0002        4.6870        4.6872       4.681633       0.05269
  17     162.9        0.0055        0.0002        4.5256        4.5258       4.520284       0.05157
  16     196.4        0.0055        0.0002        4.2977        4.2979       4.292378       0.05737
  15     218.7        0.0055        0.0002        4.1207        4.1210       4.115477       0.06716
  14     243.0        0.0055        0.0002        3.9100        3.9103       3.904804       0.07307
  13     269.0        0.0054        0.0003        3.6203        3.6206       3.615112       0.09397
  12     297.5        0.0054        0.0003        3.2592        3.2595       3.254042       0.10709
  11     328.5        0.0054        0.0003        2.8450        2.8452       2.839784       0.11264
  10     361.9        0.0054        0.0002        2.4350        2.4352       2.429772       0.10374
   9     398.1        0.0055        0.0002        2.0682        2.0684       2.062973       0.08546
   8     437.6        0.0055        0.0002        1.7366        1.7368       1.731306       0.07091
   7     480.5        0.0057        0.0002        1.4270        1.4272       1.421553       0.06083
   6     533.0        0.0059        0.0002        1.1107        1.1109       1.104982       0.05093
   5     589.8        0.0064        0.0002        0.8304        0.8306       0.824148       0.04168
   4     651.6        0.0073        0.0001        0.5821        0.5822       0.574900       0.03409
   3     718.7        0.0088        0.0001        0.3887        0.3888       0.380092       0.02448
   2     792.3        0.0111        0.0001        0.2471        0.2472       0.236043       0.01652
   1     891.5        0.0168        0.0001        0.1204        0.1204       0.103597       0.01127
   0    1013.0        0.0341        0.0000        0.0360        0.0360       0.001879       0.00706



 Wavenumbers:  4000. -  4650. cm-1, ATM      1
 LEVEL PRESSURE   UPWARD FLUX   DIFDOWN FLUX  DIRDOWN FLUX  DOWNWARD FLUX   NET FLUX    HEATING RATE
          mb          W/m2          W/m2          W/m2        W/m2          W/m2       degree/day
  51    .06700        0.7077        0.0000        6.9421        6.9421       6.234329       0.00000
  50    .07753        0.7077        0.0000        6.9421        6.9421       6.234328       0.00080
  49    .09103        0.7077        0.0000        6.9421        6.9421       6.234327       0.00078
  48    0.1069        0.7077        0.0000        6.9421        6.9421       6.234325       0.00077
  47    0.1255        0.7077        0.0000        6.9421        6.9421       6.234324       0.00075
  46    0.1487        0.7077        0.0000        6.9421        6.9421       6.234322       0.00076
  45    0.1794        0.7077        0.0000        6.9421        6.9421       6.234319       0.00078
  44    0.2165        0.7077        0.0000        6.9421        6.9421       6.234315       0.00076
  43    0.2613        0.7077        0.0000        6.9421        6.9421       6.234311       0.00075
  42    0.3336        0.7077        0.0000        6.9420        6.9420       6.234305       0.00077
  41    0.4307        0.7077        0.0000        6.9420        6.9420       6.234296       0.00077
  40    0.5894        0.7077        0.0000        6.9420        6.9420       6.234281       0.00080
  39     1.339        0.7077        0.0000        6.9419        6.9419       6.234191       0.00101
  38     1.782        0.7077        0.0000        6.9418        6.9419       6.234122       0.00133
  37     2.292        0.7077        0.0000        6.9418        6.9418       6.234027       0.00156
  36     2.964        0.7077        0.0000        6.9416        6.9416       6.233887       0.00176
  35     3.853        0.7077        0.0000        6.9414        6.9414       6.233679       0.00197
  34     5.035        0.7077        0.0000        6.9411        6.9411       6.233373       0.00219
  33     6.613        0.7077        0.0000        6.9406        6.9406       6.232922       0.00241
  32     8.786        0.7077        0.0000        6.9399        6.9400       6.232258       0.00258
  31     11.80        0.7077        0.0000        6.9389        6.9389       6.231217       0.00291
  30     15.07        0.7077        0.0001        6.9376        6.9377       6.229999       0.00314
  29     18.79        0.7077        0.0001        6.9361        6.9362       6.228532       0.00333
  28     23.16        0.7077        0.0001        6.9343        6.9344       6.226717       0.00351
  27     28.12        0.7077        0.0001        6.9321        6.9322       6.224530       0.00372
  26     33.73        0.7076        0.0001        6.9294        6.9295       6.221846       0.00404
  25     40.54        0.7076        0.0001        6.9257        6.9258       6.218227       0.00449
  24     48.69        0.7076        0.0002        6.9209        6.9210       6.213436       0.00496
  23     57.69        0.7076        0.0002        6.9152        6.9154       6.207800       0.00528
  22     68.43        0.7076        0.0003        6.9081        6.9083       6.200794       0.00551
  21     81.20        0.7075        0.0003        6.8995        6.8998       6.192228       0.00566
  20     96.49        0.7075        0.0004        6.8890        6.8894       6.181883       0.00571
  19     114.6        0.7075        0.0004        6.8763        6.8767       6.169237       0.00591
  18     136.5        0.7075        0.0005        6.8610        6.8615       6.154046       0.00584
  17     162.9        0.7075        0.0006        6.8423        6.8429       6.135464       0.00594
  16     196.4        0.7075        0.0007        6.8168        6.8175       6.110012       0.00641
  15     218.7        0.7076        0.0008        6.7987        6.7995       6.091903       0.00688
  14     243.0        0.7076        0.0009        6.7767        6.7775       6.069886       0.00764
  13     269.0        0.7078        0.0010        6.7477        6.7487       6.040888       0.00941
  12     297.5        0.7081        0.0011        6.7104        6.7115       6.003367       0.01113
  11     328.5        0.7085        0.0012        6.6612        6.6624       5.953896       0.01345
  10     361.9        0.7091        0.0013        6.5959        6.5972       5.888059       0.01666
   9     398.1        0.7099        0.0014        6.5128        6.5142       5.804275       0.01952
   8     437.6        0.7110        0.0015        6.4113        6.4128       5.701782       0.02191
   7     480.5        0.7124        0.0016        6.2916        6.2932       5.580827       0.02375
   6     533.0        0.7145        0.0018        6.1425        6.1443       5.429739       0.02431
   5     589.8        0.7175        0.0019        5.9761        5.9780       5.260462       0.02513
   4     651.6        0.7217        0.0021        5.7781        5.7801       5.058436       0.02763
   3     718.7        0.7273        0.0022        5.5575        5.5598       4.832470       0.02840
   2     792.3        0.7345        0.0024        5.3347        5.3371       4.602659       0.02636
   1     891.5        0.7466        0.0026        5.0633        5.0659       4.319262       0.02412
   0    1013.0        0.7678        0.0027        4.7653        4.7680       4.000193       0.02215



 Wavenumbers:  4650. -  5150. cm-1, ATM      1
 LEVEL PRESSURE   UPWARD FLUX   DIFDOWN FLUX  DIRDOWN FLUX  DOWNWARD FLUX   NET FLUX    HEATING RATE
          mb          W/m2          W/m2          W/m2        W/m2          W/m2       degree/day
  51    .06700        0.4912        0.0000        6.5710        6.5710       6.079757       0.00000
  50    .07753        0.4912        0.0000        6.5708        6.5708       6.079522       0.18825
  49    .09103        0.4912        0.0000        6.5705        6.5705       6.079229       0.18302
  48    0.1069        0.4912        0.0000        6.5701        6.5701       6.078896       0.17748
  47    0.1255        0.4912        0.0000        6.5698        6.5698       6.078517       0.17182
  46    0.1487        0.4912        0.0000        6.5693        6.5693       6.078045       0.17212
  45    0.1794        0.4912        0.0000        6.5686        6.5686       6.077410       0.17416
  44    0.2165        0.4912        0.0000        6.5679        6.5679       6.076675       0.16733
  43    0.2613        0.4912        0.0000        6.5671        6.5671       6.075824       0.16026
  42    0.3336        0.4912        0.0000        6.5657        6.5657       6.074466       0.15842
  41    0.4307        0.4912        0.0000        6.5640        6.5640       6.072749       0.14922
  40    0.5894        0.4912        0.0000        6.5614        6.5614       6.070142       0.13868
  39     1.339        0.4912        0.0000        6.5516        6.5516       6.060396       0.10972
  38     1.782        0.4912        0.0000        6.5474        6.5474       6.056193       0.08001
  37     2.292        0.4912        0.0000        6.5435        6.5435       6.052319       0.06417
  36     2.964        0.4912        0.0000        6.5396        6.5396       6.048377       0.04948
  35     3.853        0.4912        0.0000        6.5356        6.5357       6.044446       0.03730
  34     5.035        0.4912        0.0000        6.5316        6.5317       6.040456       0.02850
  33     6.613        0.4912        0.0000        6.5272        6.5273       6.036075       0.02342
  32     8.786        0.4912        0.0000        6.5217        6.5218       6.030596       0.02128
  31     11.80        0.4912        0.0001        6.5137        6.5137       6.022540       0.02255
  30     15.07        0.4912        0.0001        6.5043        6.5044       6.013198       0.02412
  29     18.79        0.4911        0.0001        6.4928        6.4929       6.001715       0.02603
  28     23.16        0.4911        0.0001        6.4782        6.4783       5.987165       0.02814
  27     28.12        0.4911        0.0002        6.4602        6.4604       5.969242       0.03047
  26     33.73        0.4911        0.0002        6.4388        6.4390       5.947872       0.03213
  25     40.54        0.4911        0.0002        6.4117        6.4119       5.920826       0.03355
  24     48.69        0.4911        0.0003        6.3781        6.3783       5.887287       0.03471
  23     57.69        0.4910        0.0003        6.3410        6.3413       5.850305       0.03467
  22     68.43        0.4910        0.0004        6.2979        6.2983       5.807243       0.03385
  21     81.20        0.4910        0.0004        6.2491        6.2496       5.758575       0.03216
  20     96.49        0.4910        0.0005        6.1958        6.1963       5.705368       0.02937
  19     114.6        0.4910        0.0006        6.1394        6.1400       5.648995       0.02632
  18     136.5        0.4910        0.0007        6.0804        6.0812       5.590170       0.02262
  17     162.9        0.4910        0.0009        6.0178        6.0187       5.527616       0.01999
  16     196.4        0.4911        0.0010        5.9423        5.9433       5.452202       0.01898
  15     218.7        0.4912        0.0011        5.8930        5.8941       5.402881       0.01873
  14     243.0        0.4914        0.0012        5.8375        5.8388       5.347407       0.01924
  13     269.0        0.4916        0.0014        5.7731        5.7745       5.282888       0.02093
  12     297.5        0.4919        0.0015        5.6966        5.6981       5.206195       0.02275
  11     328.5        0.4924        0.0016        5.6042        5.6058       5.113444       0.02522
  10     361.9        0.4930        0.0018        5.4959        5.4977       5.004701       0.02751
   9     398.1        0.4939        0.0019        5.3696        5.3716       4.877650       0.02960
   8     437.6        0.4951        0.0021        5.2245        5.2265       4.731419       0.03127
   7     480.5        0.4967        0.0022        5.0573        5.0595       4.562734       0.03313
   6     533.0        0.4993        0.0024        4.8446        4.8470       4.347670       0.03460
   5     589.8        0.5028        0.0025        4.6171        4.6196       4.116856       0.03426
   4     651.6        0.5075        0.0027        4.3807        4.3834       3.875839       0.03296
   3     718.7        0.5139        0.0028        4.1465        4.1493       3.635469       0.03021
   2     792.3        0.5220        0.0029        3.9215        3.9245       3.402457       0.02672
   1     891.5        0.5357        0.0031        3.6488        3.6519       3.116209       0.02436
   0    1013.0        0.5586        0.0033        3.3497        3.3530       2.794417       0.02234



 Wavenumbers:  5150. -  6150. cm-1, ATM      1
 LEVEL PRESSURE   UPWARD FLUX   DIFDOWN FLUX  DIRDOWN FLUX  DOWNWARD FLUX   NET FLUX    HEATING RATE
          mb          W/m2          W/m2          W/m2        W/m2          W/m2       degree/day
  51    .06700        1.3407        0.0000       16.4735       16.4735      15.132842       0.00000
  50    .07753        1.3407        0.0000       16.4735       16.4735      15.132824       0.01390
  49    .09103        1.3407        0.0000       16.4735       16.4735      15.132802       0.01414
  48    0.1069        1.3407        0.0000       16.4734       16.4734      15.132775       0.01439
  47    0.1255        1.3407        0.0000       16.4734       16.4734      15.132742       0.01461
  46    0.1487        1.3407        0.0000       16.4734       16.4734      15.132700       0.01539
  45    0.1794        1.3407        0.0000       16.4733       16.4733      15.132640       0.01645
  44    0.2165        1.3407        0.0000       16.4732       16.4732      15.132566       0.01677
  43    0.2613        1.3407        0.0000       16.4731       16.4731      15.132476       0.01700
  42    0.3336        1.3407        0.0000       16.4730       16.4730      15.132322       0.01795
  41    0.4307        1.3407        0.0000       16.4728       16.4728      15.132111       0.01838
  40    0.5894        1.3407        0.0000       16.4724       16.4724      15.131757       0.01883
  39     1.339        1.3406        0.0000       16.4706       16.4707      15.130023       0.01952
  38     1.782        1.3406        0.0000       16.4696       16.4696      15.128996       0.01955
  37     2.292        1.3406        0.0001       16.4684       16.4684      15.127810       0.01964
  36     2.964        1.3406        0.0001       16.4668       16.4669      15.126259       0.01947
  35     3.853        1.3406        0.0001       16.4647       16.4648      15.124223       0.01932
  34     5.035        1.3406        0.0001       16.4620       16.4621      15.121544       0.01914
  33     6.613        1.3405        0.0002       16.4584       16.4585      15.118012       0.01888
  32     8.786        1.3405        0.0002       16.4536       16.4538      15.113352       0.01810
  31     11.80        1.3404        0.0003       16.4470       16.4473      15.106886       0.01810
  30     15.07        1.3403        0.0004       16.4402       16.4406      15.100204       0.01725
  29     18.79        1.3403        0.0005       16.4328       16.4332      15.092966       0.01641
  28     23.16        1.3402        0.0006       16.4245       16.4251      15.084903       0.01559
  27     28.12        1.3401        0.0007       16.4155       16.4162      15.076159       0.01487
  26     33.73        1.3400        0.0009       16.4060       16.4069      15.066884       0.01394
  25     40.54        1.3399        0.0010       16.3952       16.3962      15.056389       0.01302
  24     48.69        1.3397        0.0012       16.3831       16.3844      15.044647       0.01215
  23     57.69        1.3396        0.0015       16.3709       16.3724      15.032804       0.01110
  22     68.43        1.3394        0.0017       16.3577       16.3595      15.020080       0.01000
  21     81.20        1.3392        0.0021       16.3432       16.3453      15.006114       0.00923
  20     96.49        1.3389        0.0025       16.3269       16.3294      14.990456       0.00864
  19     114.6        1.3386        0.0029       16.3081       16.3111      14.972433       0.00842
  18     136.5        1.3383        0.0035       16.2838       16.2872      14.948948       0.00903
  17     162.9        1.3379        0.0041       16.2431       16.2472      14.909282       0.01268
  16     196.4        1.3374        0.0050       16.1586       16.1635      14.826148       0.02093
  15     218.7        1.3371        0.0055       16.0647       16.0702      14.733161       0.03530
  14     243.0        1.3367        0.0060       15.8832       15.8893      14.552522       0.06265
  13     269.0        1.3364        0.0066       15.5215       15.5281      14.191699       0.11705
  12     297.5        1.3361        0.0071       15.0572       15.0644      13.728212       0.13747
  11     328.5        1.3359        0.0076       14.5309       14.5385      13.202605       0.14291
  10     361.9        1.3358        0.0081       13.8965       13.9046      12.568843       0.16035
   9     398.1        1.3358        0.0086       13.1875       13.1961      11.860280       0.16508
   8     437.6        1.3361        0.0090       12.4420       12.4509      11.114884       0.15937
   7     480.5        1.3367        0.0093       11.6685       11.6778      10.341098       0.15197
   6     533.0        1.3380        0.0097       10.8656       10.8753       9.537265       0.12931
   5     589.8        1.3404        0.0100       10.2053       10.2153       8.874936       0.09831
   4     651.6        1.3444        0.0105        9.6812        9.6917       8.347314       0.07215
   3     718.7        1.3504        0.0111        9.2817        9.2928       7.942407       0.05089
   2     792.3        1.3589        0.0118        8.9579        8.9696       7.610716       0.03804
   1     891.5        1.3749        0.0127        8.5765        8.5893       7.214377       0.03373
   0    1013.0        1.4070        0.0138        8.1279        8.1417       6.734743       0.03330



 Wavenumbers:  6150. -  7700. cm-1, ATM      1
 LEVEL PRESSURE   UPWARD FLUX   DIFDOWN FLUX  DIRDOWN FLUX  DOWNWARD FLUX   NET FLUX    HEATING RATE
          mb          W/m2          W/m2          W/m2        W/m2          W/m2       degree/day
  51    .06700        2.1633        0.0000       30.4684       30.4684      28.305050       0.00000
  50    .07753        2.1633        0.0000       30.4683       30.4683      28.305016       0.02723
  49    .09103        2.1633        0.0000       30.4683       30.4683      28.304972       0.02725
  48    0.1069        2.1633        0.0000       30.4682       30.4682      28.304921       0.02726
  47    0.1255        2.1633        0.0000       30.4682       30.4682      28.304861       0.02725
  46    0.1487        2.1633        0.0000       30.4681       30.4681      28.304784       0.02826
  45    0.1794        2.1633        0.0000       30.4680       30.4680      28.304675       0.02973
  44    0.2165        2.1633        0.0000       30.4678       30.4679      28.304544       0.02984
  43    0.2613        2.1633        0.0000       30.4677       30.4677      28.304386       0.02987
  42    0.3336        2.1633        0.0000       30.4674       30.4674      28.304118       0.03117
  41    0.4307        2.1633        0.0000       30.4670       30.4671      28.303756       0.03150
  40    0.5894        2.1633        0.0001       30.4664       30.4664      28.303155       0.03197
  39     1.339        2.1632        0.0001       30.4633       30.4635      28.300253       0.03266
  38     1.782        2.1632        0.0002       30.4615       30.4617      28.298546       0.03250
  37     2.292        2.1631        0.0002       30.4594       30.4597      28.296580       0.03257
  36     2.964        2.1630        0.0003       30.4567       30.4571      28.294012       0.03223
  35     3.853        2.1629        0.0004       30.4532       30.4536      28.290647       0.03194
  34     5.035        2.1628        0.0005       30.4485       30.4490      28.286220       0.03162
  33     6.613        2.1627        0.0007       30.4423       30.4431      28.280385       0.03119
  32     8.786        2.1625        0.0009       30.4342       30.4351      28.272671       0.02996
  31     11.80        2.1621        0.0013       30.4228       30.4241      28.261925       0.03008
  30     15.07        2.1618        0.0016       30.4109       30.4126      28.250755       0.02884
  29     18.79        2.1614        0.0020       30.3980       30.4000      28.238567       0.02763
  28     23.16        2.1610        0.0025       30.3834       30.3859      28.224872       0.02648
  27     28.12        2.1605        0.0030       30.3673       30.3704      28.209857       0.02552
  26     33.73        2.1599        0.0036       30.3501       30.3538      28.193828       0.02410
  25     40.54        2.1593        0.0044       30.3304       30.3348      28.175521       0.02271
  24     48.69        2.1584        0.0052       30.3080       30.3133      28.154833       0.02141
  23     57.69        2.1575        0.0062       30.2850       30.2912      28.133662       0.01984
  22     68.43        2.1565        0.0073       30.2597       30.2670      28.110548       0.01817
  21     81.20        2.1552        0.0087       30.2313       30.2400      28.084871       0.01697
  20     96.49        2.1536        0.0103       30.1992       30.2096      28.055930       0.01597
  19     114.6        2.1518        0.0123       30.1622       30.1745      28.022675       0.01553
  18     136.5        2.1497        0.0146       30.1156       30.1302      27.980536       0.01620
  17     162.9        2.1471        0.0173       30.0427       30.0600      27.912926       0.02161
  16     196.4        2.1438        0.0208       29.8985       29.9193      27.775512       0.03459
  15     218.7        2.1416        0.0231       29.7549       29.7780      27.636337       0.05284
  14     243.0        2.1393        0.0255       29.5077       29.5332      27.393839       0.08411
  13     269.0        2.1369        0.0279       29.0046       29.0326      26.895654       0.16161
  12     297.5        2.1345        0.0303       28.2445       28.2748      26.140269       0.22404
  11     328.5        2.1321        0.0326       27.3154       27.3479      25.215803       0.25136
  10     361.9        2.1299        0.0348       26.2638       26.2986      24.168658       0.26494
   9     398.1        2.1280        0.0369       25.0495       25.0864      22.958390       0.28197
   8     437.6        2.1266        0.0387       23.6877       23.7263      21.599757       0.29048
   7     480.5        2.1262        0.0402       22.2070       22.2471      20.120928       0.29044
   6     533.0        2.1276        0.0416       20.5388       20.5805      18.452862       0.26834
   5     589.8        2.1318        0.0430       18.9920       19.0350      16.903116       0.23003
   4     651.6        2.1405        0.0442       17.5736       17.6179      15.477398       0.19497
   3     718.7        2.1546        0.0456       16.3428       16.3884      14.233868       0.15628
   2     792.3        2.1750        0.0473       15.3006       15.3479      13.172927       0.12168
   1     891.5        2.2140        0.0495       14.1663       14.2159      12.001826       0.09966
   0    1013.0        2.2937        0.0519       12.9987       13.0506      10.756961       0.08644



 Wavenumbers:  7700. -  8050. cm-1, ATM      1
 LEVEL PRESSURE   UPWARD FLUX   DIFDOWN FLUX  DIRDOWN FLUX  DOWNWARD FLUX   NET FLUX    HEATING RATE
          mb          W/m2          W/m2          W/m2        W/m2          W/m2       degree/day
  51    .06700        1.0437        0.0000        7.2006        7.2006       6.156938       0.00000
  50    .07753        1.0437        0.0000        7.2006        7.2006       6.156920       0.01476
  49    .09103        1.0437        0.0000        7.2005        7.2005       6.156896       0.01447
  48    0.1069        1.0437        0.0000        7.2005        7.2005       6.156870       0.01416
  47    0.1255        1.0437        0.0000        7.2005        7.2005       6.156839       0.01386
  46    0.1487        1.0437        0.0000        7.2004        7.2005       6.156801       0.01406
  45    0.1794        1.0437        0.0000        7.2004        7.2004       6.156748       0.01447
  44    0.2165        1.0437        0.0000        7.2003        7.2003       6.156686       0.01419
  43    0.2613        1.0437        0.0000        7.2003        7.2003       6.156612       0.01393
  42    0.3336        1.0437        0.0000        7.2001        7.2001       6.156489       0.01425
  41    0.4307        1.0437        0.0000        7.2000        7.2000       6.156327       0.01409
  40    0.5894        1.0437        0.0000        7.1997        7.1997       6.156063       0.01408
  39     1.339        1.0437        0.0001        7.1984        7.1985       6.154811       0.01409
  38     1.782        1.0437        0.0001        7.1977        7.1978       6.154076       0.01400
  37     2.292        1.0437        0.0001        7.1968        7.1969       6.153225       0.01409
  36     2.964        1.0437        0.0001        7.1957        7.1958       6.152108       0.01401
  35     3.853        1.0437        0.0002        7.1942        7.1944       6.150635       0.01399
  34     5.035        1.0438        0.0002        7.1922        7.1924       6.148678       0.01398
  33     6.613        1.0438        0.0003        7.1896        7.1899       6.146067       0.01396
  32     8.786        1.0439        0.0004        7.1860        7.1864       6.142554       0.01364
  31     11.80        1.0439        0.0005        7.1810        7.1815       6.137541       0.01404
  30     15.07        1.0440        0.0006        7.1755        7.1762       6.132175       0.01386
  29     18.79        1.0441        0.0008        7.1694        7.1702       6.126133       0.01370
  28     23.16        1.0442        0.0010        7.1623        7.1633       6.119104       0.01359
  27     28.12        1.0443        0.0012        7.1542        7.1554       6.111104       0.01360
  26     33.73        1.0445        0.0014        7.1452        7.1467       6.102199       0.01339
  25     40.54        1.0446        0.0017        7.1344        7.1361       6.091508       0.01326
  24     48.69        1.0448        0.0021        7.1215        7.1236       6.078720       0.01323
  23     57.69        1.0451        0.0025        7.1074        7.1099       6.064797       0.01305
  22     68.43        1.0453        0.0029        7.0908        7.0937       6.048383       0.01290
  21     81.20        1.0457        0.0035        7.0713        7.0747       6.029064       0.01277
  20     96.49        1.0461        0.0041        7.0484        7.0524       6.006372       0.01252
  19     114.6        1.0466        0.0048        7.0216        7.0264       5.979878       0.01237
  18     136.5        1.0472        0.0057        6.9905        6.9962       5.949079       0.01184
  17     162.9        1.0479        0.0068        6.9543        6.9611       5.913209       0.01147
  16     196.4        1.0489        0.0082        6.9086        6.9168       5.867931       0.01140
  15     218.7        1.0495        0.0091        6.8793        6.8884       5.838857       0.01104
  14     243.0        1.0503        0.0100        6.8480        6.8581       5.807807       0.01077
  13     269.0        1.0511        0.0111        6.8147        6.8258       5.774723       0.01073
  12     297.5        1.0520        0.0122        6.7793        6.7915       5.739517       0.01044
  11     328.5        1.0531        0.0134        6.7416        6.7551       5.702027       0.01019
  10     361.9        1.0542        0.0147        6.7016        6.7163       5.662090       0.01010
   9     398.1        1.0556        0.0161        6.6589        6.6751       5.619441       0.00994
   8     437.6        1.0572        0.0176        6.6133        6.6309       5.573708       0.00978
   7     480.5        1.0590        0.0192        6.5642        6.5834       5.524353       0.00969
   6     533.0        1.0615        0.0212        6.5033        6.5244       5.462892       0.00989
   5     589.8        1.0645        0.0232        6.4367        6.4599       5.395355       0.01002
   4     651.6        1.0682        0.0255        6.3635        6.3889       5.320724       0.01021
   3     718.7        1.0726        0.0278        6.2834        6.3113       5.238698       0.01031
   2     792.3        1.0777        0.0303        6.1968        6.2271       5.149407       0.01024
   1     891.5        1.0855        0.0336        6.0778        6.1114       5.025892       0.01051
   0    1013.0        1.0965        0.0375        5.9285        5.9659       4.869449       0.01086



 Wavenumbers:  8050. - 12850. cm-1, ATM      1
 LEVEL PRESSURE   UPWARD FLUX   DIFDOWN FLUX  DIRDOWN FLUX  DOWNWARD FLUX   NET FLUX    HEATING RATE
          mb          W/m2          W/m2          W/m2        W/m2          W/m2       degree/day
  51    .06700       23.0965        0.0000      100.8135      100.8135      77.716975       0.00000
  50    .07753       23.0965        0.0000      100.8135      100.8135      77.716975       0.00000
  49    .09103       23.0965        0.0001      100.8134      100.8135      77.716975      -0.00000
  48    0.1069       23.0965        0.0001      100.8134      100.8134      77.716975       0.00000
  47    0.1255       23.0964        0.0001      100.8133      100.8134      77.716975       0.00000
  46    0.1487       23.0964        0.0002      100.8132      100.8134      77.716975       0.00000
  45    0.1794       23.0963        0.0002      100.8131      100.8133      77.716975      -0.00000
  44    0.2165       23.0963        0.0003      100.8129      100.8133      77.716975       0.00000
  43    0.2613       23.0962        0.0004      100.8127      100.8132      77.716975      -0.00000
  42    0.3336       23.0961        0.0006      100.8125      100.8130      77.716975       0.00000
  41    0.4307       23.0959        0.0008      100.8121      100.8129      77.716975      -0.00000
  40    0.5894       23.0956        0.0011      100.8115      100.8126      77.716975       0.00000
  39     1.339       23.0943        0.0028      100.8085      100.8113      77.716975      -0.00000
  38     1.782       23.0935        0.0037      100.8068      100.8105      77.716975       0.00000
  37     2.292       23.0926        0.0049      100.8047      100.8096      77.716975      -0.00000
  36     2.964       23.0914        0.0063      100.8021      100.8084      77.716975       0.00000
  35     3.853       23.0899        0.0082      100.7986      100.8069      77.716975       0.00000
  34     5.035       23.0878        0.0108      100.7940      100.8048      77.716975      -0.00000
  33     6.613       23.0850        0.0143      100.7878      100.8020      77.716975      -0.00000
  32     8.786       23.0813        0.0189      100.7794      100.7983      77.716975       0.00000
  31     11.80       23.0760        0.0255      100.7674      100.7929      77.716975       0.00000
  30     15.07       23.0702        0.0326      100.7546      100.7872      77.716975      -0.00000
  29     18.79       23.0637        0.0407      100.7400      100.7807      77.716975       0.00000
  28     23.16       23.0561        0.0501      100.7230      100.7731      77.716975       0.00000
  27     28.12       23.0474        0.0609      100.7035      100.7644      77.716975      -0.00000
  26     33.73       23.0377        0.0730      100.6817      100.7546      77.716975       0.00000
  25     40.54       23.0259        0.0876      100.6552      100.7428      77.716975      -0.00000
  24     48.69       23.0116        0.1052      100.6234      100.7286      77.716975       0.00000
  23     57.69       22.9959        0.1246      100.5883      100.7129      77.716975       0.00000
  22     68.43       22.9772        0.1478      100.5464      100.6942      77.716975       0.00000
  21     81.20       22.9549        0.1754      100.4965      100.6719      77.716975      -0.00000
  20     96.49       22.9283        0.2083      100.4370      100.6453      77.716975       0.00000
  19     114.6       22.8966        0.2475      100.3623      100.6098      77.713119       0.00180
  18     136.5       22.8590        0.2940      100.2726      100.5666      77.707541       0.00214
  17     162.9       22.8142        0.3495      100.1609      100.5103      77.696123       0.00365
  16     196.4       22.7559        0.4215       99.9994      100.4209      77.665018       0.00783
  15     218.7       22.7176        0.4689       99.8729      100.3417      77.624168       0.01551
  14     243.0       22.6759        0.5204       99.6954      100.2158      77.539837       0.02925
  13     269.0       22.6311        0.5760       99.4069       99.9829      77.351784       0.06100
  12     297.5       22.5833        0.6359       98.9996       99.6354      77.052118       0.08888
  11     328.5       22.5327        0.7001       98.4712       99.1713      76.638642       0.11242
  10     361.9       22.4799        0.7688       97.8011       98.5699      76.090013       0.13881
   9     398.1       22.4256        0.8419       96.9427       97.7846      75.359002       0.17031
   8     437.6       22.3714        0.9192       95.8428       96.7620      74.390524       0.20707
   7     480.5       22.3205        0.9998       94.4204       95.4202      73.099670       0.25352
   6     533.0       22.2699        1.0962       92.4491       93.5453      71.275473       0.29346
   5     589.8       22.2328        1.1964       90.1721       91.3686      69.135770       0.31760
   4     651.6       22.2187        1.3000       87.6384       88.9384      66.719712       0.33040
   3     718.7       22.2328        1.4079       85.0285       86.4364      64.203616       0.31620
   2     792.3       22.2798        1.5208       82.4378       83.9586      61.678799       0.28957
   1     891.5       22.4096        1.6681       79.1296       80.7977      58.388036       0.28003
   0    1013.0       22.7364        1.8338       75.2106       77.0444      54.308028       0.28330



 Wavenumbers: 12850. - 16000. cm-1, ATM      1
 LEVEL PRESSURE   UPWARD FLUX   DIFDOWN FLUX  DIRDOWN FLUX  DOWNWARD FLUX   NET FLUX    HEATING RATE
          mb          W/m2          W/m2          W/m2        W/m2          W/m2       degree/day
  51    .06700       32.8008        0.0000       63.1686       63.1686      30.367816       0.00000
  50    .07753       32.8007        0.0001       63.1677       63.1678      30.367037       0.62460
  49    .09103       32.8007        0.0001       63.1666       63.1668      30.366066       0.60697
  48    0.1069       32.8007        0.0002       63.1654       63.1656      30.364960       0.58854
  47    0.1255       32.8006        0.0003       63.1640       63.1643      30.363703       0.57003
  46    0.1487       32.8006        0.0004       63.1623       63.1627      30.362135       0.57154
  45    0.1794       32.8005        0.0006       63.1600       63.1606      30.360033       0.57713
  44    0.2165       32.8005        0.0008       63.1573       63.1581      30.357602       0.55294
  43    0.2613       32.8004        0.0010       63.1542       63.1552      30.354799       0.52838
  42    0.3336       32.8003        0.0014       63.1493       63.1507      30.350334       0.52057
  41    0.4307       32.8003        0.0019       63.1431       63.1450      30.344752       0.48535
  40    0.5894       32.8002        0.0027       63.1338       63.1365      30.336301       0.44940
  39     1.339       32.8012        0.0065       63.0956       63.1021      30.300887       0.39870
  38     1.782       32.8027        0.0088       63.0740       63.0828      30.280096       0.39583
  37     2.292       32.8053        0.0114       63.0477       63.0590      30.253760       0.43618
  36     2.964       32.8099        0.0148       63.0095       63.0243      30.214357       0.49462
  35     3.853       32.8180        0.0193       62.9533       62.9725      30.154585       0.56725
  34     5.035       32.8304        0.0253       62.8725       62.8978      30.067371       0.62301
  33     6.613       32.8479        0.0332       62.7621       62.7953      29.947371       0.64152
  32     8.786       32.8706        0.0440       62.6183       62.6622      29.791613       0.60491
  31     11.80       32.8995        0.0593       62.4284       62.4876      29.588160       0.56961
  30     15.07       32.9263        0.0757       62.2426       62.3183      29.391944       0.50659
  29     18.79       32.9530        0.0941       62.0493       62.1434      29.190490       0.45676
  28     23.16       32.9798        0.1157       61.8425       61.9581      28.978368       0.41018
  27     28.12       33.0054        0.1402       61.6278       61.7681      28.762655       0.36670
  26     33.73       33.0270        0.1677       61.4177       61.5854      28.558411       0.30709
  25     40.54       33.0447        0.2008       61.1983       61.3991      28.354399       0.25310
  24     48.69       33.0580        0.2406       60.9680       61.2086      28.150583       0.21092
  23     57.69       33.0649        0.2843       60.7478       61.0321      27.967236       0.17186
  22     68.43       33.0646        0.3363       60.5202       60.8565      27.791873       0.13786
  21     81.20       33.0527        0.3981       60.2938       60.6920      27.639276       0.10083
  20     96.49       33.0279        0.4718       60.0643       60.5361      27.508252       0.07232
  19     114.6       32.9980        0.5598       59.8078       60.3676      27.369590       0.06475
  18     136.5       32.9580        0.6638       59.5158       60.1797      27.221644       0.05689
  17     162.9       32.9061        0.7873       59.1774       59.9647      27.058646       0.05210
  16     196.4       32.8297        0.9471       58.7612       59.7083      26.878630       0.04531
  15     218.7       32.7763        1.0517       58.4962       59.5480      26.771682       0.04060
  14     243.0       32.7168        1.1652       58.2118       59.3770      26.660144       0.03869
  13     269.0       32.6511        1.2879       57.9070       59.1949      26.543826       0.03773
  12     297.5       32.5789        1.4202       57.5801       59.0003      26.421386       0.03631
  11     328.5       32.5008        1.5627       57.2262       58.7889      26.288043       0.03626
  10     361.9       32.4172        1.7156       56.8423       58.5579      26.140694       0.03728
   9     398.1       32.3281        1.8797       56.4242       58.3039      25.975787       0.03842
   8     437.6       32.2345        2.0552       55.9648       58.0199      25.785426       0.04070
   7     480.5       32.1378        2.2423       55.4538       57.6961      25.558243       0.04462
   6     533.0       32.0253        2.4710       54.7989       57.2699      25.244668       0.05044
   5     589.8       31.9134        2.7155       54.0619       56.7774      24.863935       0.05651
   4     651.6       31.8068        2.9755       53.2351       56.2107      24.403824       0.06292
   3     718.7       31.7073        3.2513       52.3328       55.5841      23.876816       0.06623
   2     792.3       31.6162        3.5425       51.3742       54.9167      23.300517       0.06610
   1     891.5       31.5228        3.9286       50.0960       54.0246      22.501809       0.06797
   0    1013.0       31.4718        4.3807       48.5609       52.9416      21.469801       0.07166



 Wavenumbers: 16000. - 22650. cm-1, ATM      1
 LEVEL PRESSURE   UPWARD FLUX   DIFDOWN FLUX  DIRDOWN FLUX  DOWNWARD FLUX   NET FLUX    HEATING RATE
          mb          W/m2          W/m2          W/m2        W/m2          W/m2       degree/day
  51    .06700       75.5337        0.0000      100.7153      100.7153      25.181563       0.00000
  50    .07753       75.5336        0.0003      100.7147      100.7151      25.181446       0.09398
  49    .09103       75.5335        0.0007      100.7140      100.7147      25.181275       0.10660
  48    0.1069       75.5333        0.0012      100.7131      100.7143      25.181047       0.12155
  47    0.1255       75.5331        0.0017      100.7121      100.7139      25.180741       0.13855
  46    0.1487       75.5329        0.0024      100.7108      100.7132      25.180291       0.16418
  45    0.1794       75.5327        0.0034      100.7089      100.7122      25.179586       0.19331
  44    0.2165       75.5324        0.0045      100.7066      100.7110      25.178631       0.21726
  43    0.2613       75.5321        0.0058      100.7037      100.7095      25.177336       0.24425
  42    0.3336       75.5318        0.0079      100.6987      100.7066      25.174872       0.28723
  41    0.4307       75.5314        0.0108      100.6918      100.7026      25.171159       0.32287
  40    0.5894       75.5312        0.0155      100.6797      100.6952      25.164077       0.37659
  39     1.339       75.5354        0.0377      100.6095      100.6472      25.111767       0.58891
  38     1.782       75.5419        0.0507      100.5585      100.6092      25.067219       0.84812
  37     2.292       75.5533        0.0658      100.4903      100.5560      25.002756       1.06768
  36     2.964       75.5739        0.0855      100.3868      100.4723      24.898374       1.31031
  35     3.853       75.6094        0.1116      100.2306      100.3422      24.732865       1.57071
  34     5.035       75.6645        0.1462      100.0045      100.1507      24.486209       1.76201
  33     6.613       75.7423        0.1923       99.6939       99.8862      24.143957       1.82968
  32     8.786       75.8429        0.2543       99.2881       99.5424      23.699529       1.72600
  31     11.80       75.9711        0.3427       98.7496       99.0923      23.121234       1.61904
  30     15.07       76.0905        0.4373       98.2198       98.6571      22.566624       1.43190
  29     18.79       76.2090        0.5438       97.6651       98.2089      21.999938       1.28485
  28     23.16       76.3284        0.6677       97.0671       97.7348      21.406415       1.14768
  27     28.12       76.4429        0.8088       96.4406       97.2494      20.806520       1.01978
  26     33.73       76.5392        0.9662       95.8179       96.7841      20.244951       0.84433
  25     40.54       76.6188        1.1557       95.1548       96.3106      19.691810       0.68623
  24     48.69       76.6792        1.3833       94.4420       95.8253      19.146134       0.56469
  23     57.69       76.7112        1.6323       93.7416       95.3739      18.662686       0.45316
  22     68.43       76.7125        1.9276       92.9954       94.9230      18.210440       0.35553
  21     81.20       76.6636        2.2781       92.2231       94.5012      17.837631       0.24635
  20     96.49       76.5586        2.6937       91.4110       94.1047      17.546071       0.16092
  19     114.6       76.4109        3.1838       90.5070       93.6908      17.279882       0.12429
  18     136.5       76.2210        3.7598       89.4803       93.2401      17.019017       0.10031
  17     162.9       75.9822        4.4388       88.3023       92.7410      16.758829       0.08317
  16     196.4       75.6439        5.3091       86.8608       92.1699      16.525994       0.05861
  15     218.7       75.4120        5.8744       85.9494       91.8239      16.411856       0.04333
  14     243.0       75.1564        6.4833       84.9794       91.4627      16.306345       0.03659
  13     269.0       74.8758        7.1366       83.9504       91.0870      16.211207       0.03086
  12     297.5       74.5697        7.8352       82.8612       90.6965      16.126816       0.02503
  11     328.5       74.2391        8.5815       81.7027       90.2842      16.045041       0.02223
  10     361.9       73.8841        9.3751       80.4749       89.8500      15.965846       0.02004
   9     398.1       73.5037       10.2180       79.1744       89.3923      15.888601       0.01800
   8     437.6       73.0982       11.1103       77.7989       88.9092      15.810982       0.01660
   7     480.5       72.6675       12.0523       76.3468       88.3992      15.731713       0.01557
   6     533.0       72.1436       13.1918       74.5887       87.7804      15.636815       0.01527
   5     589.8       71.5879       14.3955       72.7263       87.1218      15.533927       0.01527
   4     651.6       71.0017       15.6616       70.7596       86.4212      15.419477       0.01565
   3     718.7       70.3853       16.9880       68.6917       85.6797      15.294365       0.01572
   2     792.3       69.7406       18.3700       66.5293       84.8993      15.158700       0.01556
   1     891.5       68.8971       20.1730       63.6912       83.8642      14.967117       0.01630
   0    1013.0       67.9267       22.2451       60.3992       82.6443      14.717557       0.01733



 Wavenumbers: 22650. - 29000. cm-1, ATM      1
 LEVEL PRESSURE   UPWARD FLUX   DIFDOWN FLUX  DIRDOWN FLUX  DOWNWARD FLUX   NET FLUX    HEATING RATE
          mb          W/m2          W/m2          W/m2        W/m2          W/m2       degree/day
  51    .06700       34.3502        0.0000       38.0063       38.0063       3.656096       0.00000
  50    .07753       34.3500        0.0004       38.0057       38.0061       3.656096       0.00000
  49    .09103       34.3498        0.0009       38.0050       38.0059       3.656096       0.00000
  48    0.1069       34.3496        0.0014       38.0042       38.0057       3.656096       0.00000
  47    0.1255       34.3493        0.0021       38.0033       38.0054       3.656096       0.00000
  46    0.1487       34.3490        0.0029       38.0022       38.0050       3.656096      -0.00000
  45    0.1794       34.3485        0.0040       38.0006       38.0046       3.656096       0.00000
  44    0.2165       34.3479        0.0053       37.9987       38.0040       3.656096      -0.00000
  43    0.2613       34.3472        0.0068       37.9965       38.0033       3.656096       0.00000
  42    0.3336       34.3461        0.0094       37.9928       38.0022       3.656096       0.00000
  41    0.4307       34.3447        0.0128       37.9880       38.0008       3.656096      -0.00000
  40    0.5894       34.3423        0.0183       37.9800       37.9984       3.656096       0.00000
  39     1.339       34.3309        0.0446       37.9425       37.9870       3.656096      -0.00000
  38     1.782       34.3243        0.0600       37.9204       37.9804       3.656096       0.00000
  37     2.292       34.3166        0.0778       37.8949       37.9727       3.656096       0.00000
  36     2.964       34.3065        0.1012       37.8614       37.9626       3.656096      -0.00000
  35     3.853       34.2932        0.1320       37.8172       37.9493       3.656096       0.00000
  34     5.035       34.2755        0.1730       37.7586       37.9316       3.656096       0.00000
  33     6.613       34.2518        0.2276       37.6803       37.9079       3.656096       0.00000
  32     8.786       34.2201        0.3011       37.5750       37.8762       3.656096      -0.00000
  31     11.80       34.1747        0.4060       37.4249       37.8308       3.656096       0.00000
  30     15.07       34.1262        0.5181       37.2642       37.7823       3.656096       0.00000
  29     18.79       34.0715        0.6443       37.0833       37.7276       3.656096      -0.00000
  28     23.16       34.0080        0.7911       36.8730       37.6641       3.656096       0.00000
  27     28.12       33.9356        0.9579       36.6338       37.5917       3.656096       0.00000
  26     33.73       33.8551        1.1435       36.3677       37.5112       3.656096      -0.00000
  25     40.54       33.7585        1.3660       36.0486       37.4146       3.656096       0.00000
  24     48.69       33.6430        1.6318       35.6672       37.2991       3.656096      -0.00000
  23     57.69       33.5173        1.9206       35.2527       37.1734       3.656096       0.00000
  22     68.43       33.3692        2.2603       34.7649       37.0253       3.656096       0.00000
  21     81.20       33.1951        2.6590       34.1922       36.8512       3.656096       0.00000
  20     96.49       32.9910        3.1253       33.5218       36.6471       3.656096      -0.00000
  19     114.6       32.7533        3.6670       32.7424       36.4094       3.656096       0.00000
  18     136.5       32.4779        4.2924       31.8416       36.1340       3.656096       0.00000
  17     162.9       32.1589        5.0142       30.8008       35.8150       3.656096       0.00000
  16     196.4       31.7590        5.9144       29.5007       35.4151       3.656096      -0.00000
  15     218.7       31.5046        6.4840       28.6767       35.1607       3.656096      -0.00000
  14     243.0       31.2353        7.0846       27.8069       34.8914       3.656096       0.00000
  13     269.0       30.9516        7.7142       26.8935       34.6077       3.656096      -0.00000
  12     297.5       30.6542        8.3707       25.9396       34.3103       3.656096       0.00000
  11     328.5       30.3430        9.0535       24.9456       33.9991       3.656096       0.00000
  10     361.9       30.0195        9.7587       23.9169       33.6756       3.656096      -0.00000
   9     398.1       29.6839       10.4846       22.8554       33.3400       3.656096       0.00000
   8     437.6       29.3378       11.2269       21.7670       32.9939       3.656096       0.00000
   7     480.5       28.9819       11.9826       20.6555       32.6380       3.656096      -0.00000
   6     533.0       28.5648       12.8581       19.3628       32.2208       3.656096       0.00000
   5     589.8       28.1389       13.7390       18.0560       31.7950       3.656096       0.00000
   4     651.6       27.7067       14.6179       16.7450       31.3628       3.656096       0.00000
   3     718.7       27.2702       15.4890       15.4373       30.9263       3.656096      -0.00000
   2     792.3       26.8330       16.3416       14.1475       30.4891       3.656096      -0.00000
   1     891.5       26.2881       17.3725       12.5716       29.9442       3.656096       0.00000
   0    1013.0       25.6938       18.4498       10.9001       29.3499       3.656096       0.00000



 Wavenumbers: 29000. - 38000. cm-1, ATM      1
 LEVEL PRESSURE   UPWARD FLUX   DIFDOWN FLUX  DIRDOWN FLUX  DOWNWARD FLUX   NET FLUX    HEATING RATE
          mb          W/m2          W/m2          W/m2        W/m2          W/m2       degree/day
  51    .06700        4.8872        0.0000       13.4026       13.4026       8.515445       0.00000
  50    .07753        4.8869        0.0003       13.3983       13.3986       8.511646       3.04438
  49    .09103        4.8867        0.0007       13.3921       13.3928       8.506127       3.44966
  48    0.1069        4.8864        0.0011       13.3840       13.3851       8.498750       3.92676
  47    0.1255        4.8860        0.0016       13.3733       13.3749       8.488906       4.46317
  46    0.1487        4.8856        0.0022       13.3579       13.3600       8.474463       5.26437
  45    0.1794        4.8850        0.0030       13.3340       13.3371       8.452064       6.14925
  44    0.2165        4.8843        0.0040       13.3024       13.3064       8.422045       6.82875
  43    0.2613        4.8836        0.0052       13.2604       13.2656       8.381990       7.55009
  42    0.3336        4.8823        0.0070       13.1833       13.1903       8.307984       8.62840
  41    0.4307        4.8808        0.0095       13.0729       13.0824       8.201612       9.24878
  40    0.5894        4.8784        0.0134       12.8796       12.8930       8.014570       9.94668
  39     1.339        4.8699        0.0296       11.9165       11.9462       7.076237      10.56392
  38     1.782        4.8666        0.0379       11.4399       11.4779       6.611261       8.85239
  37     2.292        4.8641        0.0468       10.9796       11.0264       6.162335       7.43539
  36     2.964        4.8627        0.0577       10.4786       10.5364       5.673712       6.13369
  35     3.853        4.8633        0.0712        9.9429       10.0141       5.150864       4.96193
  34     5.035        4.8666        0.0880        9.4007        9.4887       4.622140       3.77698
  33     6.613        4.8728        0.1094        8.8752        8.9846       4.111756       2.72852
  32     8.786        4.8814        0.1369        8.3786        8.5155       3.634028       1.85532
  31     11.80        4.8919        0.1746        7.8897        8.0643       3.172375       1.29248
  30     15.07        4.9009        0.2136        7.5108        7.7244       2.823457       0.90084
  29     18.79        4.9093        0.2560        7.1776        7.4336       2.524371       0.67812
  28     23.16        4.9169        0.3038        6.8664        7.1703       2.253393       0.52398
  27     28.12        4.9229        0.3567        6.5780        6.9347       2.011750       0.41078
  26     33.73        4.9251        0.4142        6.3195        6.7337       1.808628       0.30540
  25     40.54        4.9221        0.4822        6.0663        6.5484       1.626316       0.22618
  24     48.69        4.9134        0.5617        5.8128        6.3746       1.461124       0.17095
  23     57.69        4.8991        0.6466        5.5777        6.2243       1.325273       0.12734
  22     68.43        4.8767        0.7449        5.3379        6.0828       1.206094       0.09369
  21     81.20        4.8421        0.8589        5.0965        5.9554       1.113313       0.06131
  20     96.49        4.7940        0.9906        4.8476        5.8382       1.044209       0.03814
  19     114.6        4.7356        1.1397        4.5799        5.7196       0.984047       0.02809
  18     136.5        4.6678        1.3064        4.2891        5.5955       0.927646       0.02169
  17     162.9        4.5904        1.4911        3.9732        5.4643       0.873867       0.01719
  16     196.4        4.4924        1.7123        3.6080        5.3203       0.827884       0.01157
  15     218.7        4.4307        1.8469        3.3898        5.2366       0.805988       0.00831
  14     243.0        4.3664        1.9840        3.1686        5.1525       0.786122       0.00689
  13     269.0        4.3000        2.1225        2.9461        5.0686       0.768597       0.00569
  12     297.5        4.2318        2.2613        2.7239        4.9853       0.753432       0.00450
  11     328.5        4.1627        2.3990        2.5029        4.9019       0.739184       0.00387
  10     361.9        4.0931        2.5343        2.2846        4.8189       0.725875       0.00337
   9     398.1        4.0233        2.6661        2.0708        4.7368       0.713500       0.00288
   8     437.6        3.9541        2.7927        1.8631        4.6559       0.701795       0.00250
   7     480.5        3.8854        2.9137        1.6626        4.5763       0.690884       0.00214
   6     533.0        3.8084        3.0431        1.4445        4.4876       0.679219       0.00188
   5     589.8        3.7335        3.1614        1.2402        4.4016       0.668153       0.00164
   4     651.6        3.6612        3.2672        1.0515        4.3188       0.657532       0.00145
   3     718.7        3.5920        3.3595        0.8798        4.2393       0.647321       0.00128
   2     792.3        3.5259        3.4376        0.7257        4.1633       0.637498       0.00113
   1     891.5        3.4476        3.5149        0.5584        4.0732       0.625598       0.00101
   0    1013.0        3.3671        3.5737        0.4061        3.9798       0.612734       0.00089



 Wavenumbers: 38000. - 50000. cm-1, ATM      1
 LEVEL PRESSURE   UPWARD FLUX   DIFDOWN FLUX  DIRDOWN FLUX  DOWNWARD FLUX   NET FLUX    HEATING RATE
          mb          W/m2          W/m2          W/m2        W/m2          W/m2       degree/day
  51    .06700        0.0051        0.0000        0.8267        0.8267       0.821528       0.00000
  50    .07753        0.0051        0.0001        0.8242        0.8243       0.819196       1.86936
  49    .09103        0.0050        0.0002        0.8207        0.8209       0.815872       2.07705
  48    0.1069        0.0049        0.0002        0.8162        0.8164       0.811514       2.31984
  47    0.1255        0.0048        0.0004        0.8103        0.8106       0.805801       2.59006
  46    0.1487        0.0047        0.0005        0.8018        0.8023       0.797567       3.00143
  45    0.1794        0.0045        0.0007        0.7889        0.7896       0.785013       3.44648
  44    0.2165        0.0044        0.0009        0.7720        0.7729       0.768507       3.75474
  43    0.2613        0.0042        0.0011        0.7500        0.7511       0.746955       4.06246
  42    0.3336        0.0039        0.0015        0.7106        0.7121       0.708267       4.51071
  41    0.4307        0.0035        0.0019        0.6566        0.6584       0.654972       4.63387
  40    0.5894        0.0029        0.0024        0.5680        0.5704       0.567464       4.65357
  39     1.339        0.0015        0.0030        0.2422        0.2452       0.243720       3.64476
  38     1.782        0.0010        0.0026        0.1493        0.1519       0.150889       1.76735
  37     2.292        0.0007        0.0022        0.0924        0.0946       0.093932       0.94336
  36     2.964        0.0005        0.0018        0.0539        0.0557       0.055224       0.48589
  35     3.853        0.0003        0.0013        0.0295        0.0308       0.030502       0.23462
  34     5.035        0.0002        0.0010        0.0154        0.0164       0.016181       0.10230
  33     6.613        0.0001        0.0007        0.0073        0.0080       0.007912       0.04420
  32     8.786        0.0000        0.0004        0.0030        0.0034       0.003390       0.01756
  31     11.80        0.0000        0.0003        0.0010        0.0012       0.001199       0.00613
  30     15.07        0.0000        0.0001        0.0003        0.0005       0.000463       0.00190
  29     18.79        0.0000        0.0001        0.0001        0.0002       0.000182       0.00064
  28     23.16        0.0000        0.0000        0.0000        0.0001       0.000071       0.00022
  27     28.12        0.0000        0.0000        0.0000        0.0000       0.000028       0.00007
  26     33.73        0.0000        0.0000        0.0000        0.0000       0.000011       0.00002
  25     40.54        0.0000        0.0000        0.0000        0.0000       0.000005       0.00001
  24     48.69        0.0000        0.0000        0.0000        0.0000       0.000002       0.00000
  23     57.69        0.0000        0.0000        0.0000        0.0000       0.000001       0.00000
  22     68.43        0.0000        0.0000        0.0000        0.0000       0.000000       0.00000
  21     81.20        0.0000        0.0000        0.0000        0.0000       0.000000       0.00000
  20     96.49        0.0000        0.0000        0.0000        0.0000       0.000000       0.00000
  19     114.6        0.0000        0.0000        0.0000        0.0000       0.000000       0.00000
  18     136.5        0.0000        0.0000        0.0000        0.0000       0.000000       0.00000
  17     162.9        0.0000        0.0000        0.0000        0.0000       0.000000       0.00000
  16     196.4        0.0000        0.0000        0.0000        0.0000       0.000000       0.00000
  15     218.7        0.0000        0.0000        0.0000        0.0000       0.000000       0.00000
  14     243.0        0.0000        0.0000        0.0000        0.0000       0.000000       0.00000
  13     269.0        0.0000        0.0000        0.0000        0.0000       0.000000       0.00000
  12     297.5        0.0000        0.0000        0.0000        0.0000       0.000000       0.00000
  11     328.5        0.0000        0.0000        0.0000        0.0000       0.000000       0.00000
  10     361.9        0.0000        0.0000        0.0000        0.0000       0.000000       0.00000
   9     398.1        0.0000        0.0000        0.0000        0.0000       0.000000       0.00000
   8     437.6        0.0000        0.0000        0.0000        0.0000       0.000000       0.00000
   7     480.5        0.0000        0.0000        0.0000        0.0000       0.000000       0.00000
   6     533.0        0.0000        0.0000        0.0000        0.0000       0.000000       0.00000
   5     589.8        0.0000        0.0000        0.0000        0.0000       0.000000       0.00000
   4     651.6        0.0000        0.0000        0.0000        0.0000       0.000000       0.00000
   3     718.7        0.0000        0.0000        0.0000        0.0000       0.000000       0.00000
   2     792.3        0.0000        0.0000        0.0000        0.0000       0.000000       0.00000
   1     891.5        0.0000        0.0000        0.0000        0.0000       0.000000       0.00000
   0    1013.0        0.0000        0.0000        0.0000        0.0000       0.000000       0.00000



 Wavenumbers:   820. -  2600. cm-1, ATM      1
 LEVEL PRESSURE   UPWARD FLUX   DIFDOWN FLUX  DIRDOWN FLUX  DOWNWARD FLUX   NET FLUX    HEATING RATE
          mb          W/m2          W/m2          W/m2        W/m2          W/m2       degree/day
  51    .06700        0.2056        0.0000        3.8670        3.8670       3.661402       0.00000
  50    .07753        0.2056        0.0000        3.8643        3.8643       3.658717       2.15199
  49    .09103        0.2056        0.0000        3.8636        3.8636       3.657949       0.48019
  48    0.1069        0.2056        0.0000        3.8627        3.8627       3.657108       0.44749
  47    0.1255        0.2056        0.0000        3.8618        3.8618       3.656207       0.40849
  46    0.1487        0.2056        0.0000        3.8608        3.8608       3.655176       0.37580
  45    0.1794        0.2056        0.0000        3.8596        3.8596       3.653952       0.33595
  44    0.2165        0.2056        0.0000        3.8583        3.8583       3.652711       0.28234
  43    0.2613        0.2056        0.0000        3.8570        3.8570       3.651418       0.24371
  42    0.3336        0.2056        0.0000        3.8551        3.8551       3.649472       0.22689
  41    0.4307        0.2056        0.0000        3.8526        3.8526       3.646979       0.21672
  40    0.5894        0.2056        0.0000        3.8485        3.8485       3.642902       0.21683
  39     1.339        0.2056        0.0000        3.8302        3.8302       3.624576       0.20632
  38     1.782        0.2056        0.0000        3.8201        3.8201       3.614455       0.19270
  37     2.292        0.2056        0.0000        3.8088        3.8088       3.603224       0.18601
  36     2.964        0.2056        0.0000        3.7949        3.7949       3.589270       0.17517
  35     3.853        0.2056        0.0000        3.7774        3.7774       3.571823       0.16557
  34     5.035        0.2056        0.0000        3.7554        3.7554       3.549776       0.15749
  33     6.613        0.2056        0.0000        3.7272        3.7272       3.521571       0.15078
  32     8.786        0.2056        0.0000        3.6924        3.6924       3.486799       0.13504
  31     11.80        0.2056        0.0000        3.6526        3.6527       3.447029       0.11134
  30     15.07        0.2056        0.0000        3.6230        3.6230       3.417361       0.07660
  29     18.79        0.2056        0.0000        3.6008        3.6008       3.395190       0.05027
  28     23.16        0.2056        0.0000        3.5826        3.5826       3.376985       0.03520
  27     28.12        0.2056        0.0000        3.5653        3.5653       3.359632       0.02950
  26     33.73        0.2056        0.0000        3.5469        3.5469       3.341230       0.02767
  25     40.54        0.2056        0.0000        3.5251        3.5251       3.319428       0.02705
  24     48.69        0.2056        0.0000        3.4992        3.4992       3.293558       0.02677
  23     57.69        0.2056        0.0000        3.4714        3.4714       3.265776       0.02604
  22     68.43        0.2057        0.0000        3.4395        3.4395       3.233846       0.02510
  21     81.20        0.2057        0.0000        3.4035        3.4035       3.197824       0.02380
  20     96.49        0.2057        0.0000        3.3631        3.3631       3.157389       0.02232
  19     114.6        0.2057        0.0000        3.3181        3.3181       3.112381       0.02102
  18     136.5        0.2057        0.0000        3.2670        3.2670       3.061266       0.01965
  17     162.9        0.2057        0.0000        3.2031        3.2032       2.997414       0.02041
  16     196.4        0.2058        0.0000        3.1128        3.1128       2.907019       0.02275
  15     218.7        0.2058        0.0000        3.0548        3.0548       2.848970       0.02204
  14     243.0        0.2059        0.0000        2.9839        2.9840       2.778073       0.02459
  13     269.0        0.2060        0.0000        2.8895        2.8895       2.683551       0.03066
  12     297.5        0.2061        0.0000        2.7724        2.7724       2.566291       0.03478
  11     328.5        0.2064        0.0000        2.6164        2.6165       2.410092       0.04247
  10     361.9        0.2067        0.0000        2.4248        2.4248       2.218061       0.04859
   9     398.1        0.2072        0.0000        2.2352        2.2352       2.028051       0.04427
   8     437.6        0.2078        0.0000        2.0820        2.0821       1.874233       0.03289
   7     480.5        0.2087        0.0000        1.9713        1.9713       1.762658       0.02191
   6     533.0        0.2100        0.0000        1.8669        1.8670       1.656958       0.01700
   5     589.8        0.2118        0.0000        1.7570        1.7571       1.545236       0.01658
   4     651.6        0.2144        0.0000        1.6421        1.6422       1.427751       0.01607
   3     718.7        0.2177        0.0000        1.5374        1.5375       1.319747       0.01357
   2     792.3        0.2218        0.0000        1.4491        1.4492       1.227416       0.01059
   1     891.5        0.2283        0.0000        1.3505        1.3506       1.122230       0.00895
   0    1013.0        0.2397        0.0000        1.2323        1.2324       0.992684       0.00900

  Modules and versions used in this calculation:

       rrtmg_sw.1col.f90:  $Revision$                    rrtmg_sw_init.f90:  $Revision$        
     rrtmgsw_cldprop.f90:  $Revision$                  rrtmgsw_cldprmc.f90:  NOT USED          
     rrtmg_sw_reftra.f90:  $Revision$                  rrtmg_sw_spcvrt.f90:  NOT USED          
     rrtmg_sw_spcvmc.f90:  NOT USED                    rrtmgsw_setcoef.f90:  NOT USED          
     rrtmg_sw_taumol.f90:  $Revision$                  rrtmg_sw_vrtqdr.f90:  NOT USED          
                rrtatm.f:  NOT USED                             util_xxx.f:  NOT USED          
                 extra.f:  NOT USED                       rrtmg_sw_k_g.f90:  $Revision$        

