

 Wavenumbers:   820. - 50000. cm-1, ATM      1
 LEVEL PRESSURE   UPWARD FLUX   DIFDOWN FLUX  DIRDOWN FLUX  DOWNWARD FLUX   NET FLUX    HEATING RATE
          mb          W/m2          W/m2          W/m2        W/m2          W/m2       degree/day
  51    .06700      174.9826        0.0000      397.8738      397.8738     222.891218       0.00000
  50    .07753      174.9819        0.0011      397.8578      397.8590     222.877021      11.37907
  49    .09103      174.9812        0.0026      397.8420      397.8446     222.863450       8.48257
  48    0.1069      174.9803        0.0042      397.8233      397.8275     222.847231       8.63359
  47    0.1255      174.9793        0.0061      397.8001      397.8062     222.826934       9.20140
  46    0.1487      174.9781        0.0085      397.7682      397.7767     222.798662      10.30570
  45    0.1794      174.9764        0.0118      397.7213      397.7331     222.756626      11.53966
  44    0.2165      174.9746        0.0156      397.6613      397.6769     222.702294      12.35958
  43    0.2613      174.9725        0.0201      397.5842      397.6044     222.631892      13.27061
  42    0.3336      174.9692        0.0276      397.4467      397.4743     222.505139      14.77812
  41    0.4307      174.9650        0.0374      397.2549      397.2923     222.327228      15.46897
  40    0.5894      174.9589        0.0531      396.9289      396.9820     222.023114      16.17236
  39     1.339      174.9400        0.1232      395.4336      395.5567     220.616710      15.83356
  38     1.782      174.9358        0.1624      394.7394      394.9018     219.966067      12.38719
  37     2.292      174.9368        0.2071      394.0705      394.2776     219.340752      10.35685
  36     2.964      174.9471        0.2650      393.3174      393.5825     218.635361       8.85479
  35     3.853      174.9729        0.3408      392.4528      392.7935     217.820634       7.73191
  34     5.035      175.0193        0.4404      391.4701      391.9106     216.891230       6.63928
  33     6.613      175.0881        0.5724      390.3587      390.9311     215.842984       5.60393
  32     8.786      175.1762        0.7489      389.1009      389.8497     214.673581       4.54154
  31     11.80      175.2819        0.9992      387.5962      388.5955     213.313572       3.80760
  30     15.07      175.3718        1.2658      386.2091      387.4749     212.103125       3.12514
  29     18.79      175.4523        1.5645      384.8113      386.3758     210.923514       2.67454
  28     23.16      175.5221        1.9105      383.3379      385.2484     209.726305       2.31502
  27     28.12      175.5735        2.3028      381.8104      384.1132     208.539713       2.01713
  26     33.73      175.5893        2.7385      380.2837      383.0222     207.432884       1.66415
  25     40.54      175.5602        3.2609      378.6324      381.8933     206.333045       1.36447
  24     48.69      175.4790        3.8849      376.8246      380.7095     205.230467       1.14100
  23     57.69      175.3457        4.5637      375.0074      379.5711     204.225454       0.94205
  22     68.43      175.1396        5.3636      373.0195      378.3832     203.243515       0.77194
  21     81.20      174.8289        6.3061      370.8769      377.1830     202.354106       0.58771
  20     96.49      174.4001        7.4143      368.5410      375.9553     201.555267       0.44090
  19     114.6      173.8722        8.7080      365.9007      374.6087     200.736488       0.38231
  18     136.5      173.2357       10.2094      362.8936      373.1030     199.867274       0.33423
  17     162.9      172.4735       11.9534      359.3906      371.3441     198.870528       0.31860
  16     196.4      171.4651       14.1501      354.8987      369.0488     197.583757       0.32390
  15     218.7      170.8014       15.5538      351.8845      367.4384     196.636982       0.35946
  14     243.0      170.0855       17.0458      348.3587      365.4045     195.318983       0.45713
  13     269.0      169.3174       18.6240      343.9114      362.5354     193.218023       0.68154
  12     297.5      168.4978       20.2860      338.7199      359.0059     190.508071       0.80374
  11     328.5      167.6297       22.0330      332.8674      354.9004     187.270696       0.88023
  10     361.9      166.7163       23.8596      326.3488      350.2085     183.492150       0.95601
   9     398.1      165.7589       25.7649      319.2642      345.0291     179.270241       0.98361
   8     437.6      164.7632       27.7435      311.6662      339.4097     174.646499       0.98858
   7     480.5      163.7377       29.7903      303.4385      333.2287     169.491038       1.01251
   6     533.0      162.5378       32.2105      293.6404      325.8509     163.313152       0.99383
   5     589.8      161.3266       34.7040      283.6508      318.3548     157.028158       0.93290
   4     651.6      160.1290       37.2584      273.4994      310.7578     150.628741       0.87514
   3     718.7      158.9586       39.8633      263.4572      303.3205     144.361907       0.78757
   2     792.3      157.8319       42.5048      253.6503      296.1551     138.323253       0.69257
   1     891.5      156.5463       45.8455      241.4833      287.3289     130.782611       0.64167
   0    1013.0      155.5050       49.5400      227.7787      277.3188     121.813775       0.62275



 Wavenumbers:  2600. -  3250. cm-1, ATM      1
 LEVEL PRESSURE   UPWARD FLUX   DIFDOWN FLUX  DIRDOWN FLUX  DOWNWARD FLUX   NET FLUX    HEATING RATE
          mb          W/m2          W/m2          W/m2        W/m2          W/m2       degree/day
  51    .06700        0.3238        0.0000        3.5066        3.5066       3.182813       0.00000
  50    .07753        0.3238        0.0000        3.5066        3.5066       3.182805       0.00640
  49    .09103        0.3238        0.0000        3.5066        3.5066       3.182795       0.00627
  48    0.1069        0.3238        0.0000        3.5066        3.5066       3.182783       0.00613
  47    0.1255        0.3238        0.0000        3.5066        3.5066       3.182770       0.00599
  46    0.1487        0.3238        0.0000        3.5066        3.5066       3.182753       0.00607
  45    0.1794        0.3238        0.0000        3.5065        3.5065       3.182731       0.00624
  44    0.2165        0.3238        0.0000        3.5065        3.5065       3.182704       0.00611
  43    0.2613        0.3238        0.0000        3.5065        3.5065       3.182672       0.00598
  42    0.3336        0.3238        0.0000        3.5064        3.5064       3.182619       0.00615
  41    0.4307        0.3238        0.0000        3.5064        3.5064       3.182548       0.00618
  40    0.5894        0.3238        0.0000        3.5062        3.5062       3.182429       0.00633
  39     1.339        0.3238        0.0000        3.5055        3.5055       3.181730       0.00787
  38     1.782        0.3238        0.0000        3.5050        3.5050       3.181200       0.01011
  37     2.292        0.3238        0.0000        3.5043        3.5043       3.180507       0.01147
  36     2.964        0.3238        0.0000        3.5033        3.5033       3.179516       0.01245
  35     3.853        0.3238        0.0000        3.5019        3.5019       3.178139       0.01307
  34     5.035        0.3238        0.0000        3.5001        3.5001       3.176278       0.01329
  33     6.613        0.3238        0.0000        3.4977        3.4977       3.173868       0.01288
  32     8.786        0.3238        0.0000        3.4947        3.4947       3.170897       0.01154
  31     11.80        0.3238        0.0000        3.4911        3.4911       3.167262       0.01018
  30     15.07        0.3238        0.0000        3.4878        3.4878       3.164041       0.00832
  29     18.79        0.3238        0.0000        3.4848        3.4848       3.160977       0.00695
  28     23.16        0.3238        0.0000        3.4816        3.4816       3.157757       0.00623
  27     28.12        0.3238        0.0000        3.4779        3.4779       3.154139       0.00615
  26     33.73        0.3238        0.0000        3.4735        3.4735       3.149672       0.00672
  25     40.54        0.3238        0.0000        3.4671        3.4671       3.143346       0.00785
  24     48.69        0.3238        0.0000        3.4582        3.4583       3.134450       0.00921
  23     57.69        0.3238        0.0000        3.4472        3.4472       3.123401       0.01036
  22     68.43        0.3238        0.0000        3.4329        3.4329       3.109140       0.01121
  21     81.20        0.3238        0.0000        3.4152        3.4152       3.091409       0.01172
  20     96.49        0.3238        0.0000        3.3940        3.3941       3.070261       0.01167
  19     114.6        0.3238        0.0000        3.3694        3.3694       3.045597       0.01152
  18     136.5        0.3239        0.0001        3.3424        3.3425       3.018646       0.01036
  17     162.9        0.3239        0.0001        3.3138        3.3139       2.990017       0.00915
  16     196.4        0.3239        0.0001        3.2815        3.2815       2.957586       0.00816
  15     218.7        0.3240        0.0001        3.2614        3.2615       2.937460       0.00764
  14     243.0        0.3241        0.0001        3.2376        3.2377       2.913544       0.00830
  13     269.0        0.3243        0.0001        3.2064        3.2065       2.882218       0.01016
  12     297.5        0.3245        0.0001        3.1653        3.1654       2.840846       0.01227
  11     328.5        0.3249        0.0001        3.1092        3.1093       2.784421       0.01534
  10     361.9        0.3255        0.0001        3.0330        3.0332       2.707691       0.01941
   9     398.1        0.3262        0.0001        2.9338        2.9339       2.607685       0.02330
   8     437.6        0.3273        0.0001        2.8088        2.8089       2.481608       0.02696
   7     480.5        0.3289        0.0002        2.6587        2.6589       2.329941       0.02979
   6     533.0        0.3315        0.0002        2.4727        2.4728       2.141295       0.03035
   5     589.8        0.3353        0.0002        2.2856        2.2858       1.950424       0.02833
   4     651.6        0.3407        0.0002        2.0975        2.0977       1.756992       0.02645
   3     718.7        0.3479        0.0002        1.9108        1.9109       1.562994       0.02438
   2     792.3        0.3573        0.0002        1.7347        1.7348       1.377540       0.02127
   1     891.5        0.3733        0.0002        1.5307        1.5309       1.157656       0.01871
   0    1013.0        0.4017        0.0002        1.3169        1.3171       0.915363       0.01682



 Wavenumbers:  3250. -  4000. cm-1, ATM      1
 LEVEL PRESSURE   UPWARD FLUX   DIFDOWN FLUX  DIRDOWN FLUX  DOWNWARD FLUX   NET FLUX    HEATING RATE
          mb          W/m2          W/m2          W/m2        W/m2          W/m2       degree/day
  51    .06700        0.0006        0.0000        5.9117        5.9117       5.911006       0.00000
  50    .07753        0.0006        0.0000        5.9075        5.9075       5.906861       3.32245
  49    .09103        0.0006        0.0000        5.9051        5.9051       5.904469       1.49498
  48    0.1069        0.0006        0.0000        5.9033        5.9033       5.902651       0.96787
  47    0.1255        0.0006        0.0000        5.9016        5.9016       5.900940       0.77533
  46    0.1487        0.0006        0.0000        5.8998        5.8998       5.899104       0.66935
  45    0.1794        0.0006        0.0000        5.8977        5.8977       5.897020       0.57207
  44    0.2165        0.0006        0.0000        5.8956        5.8956       5.894977       0.46475
  43    0.2613        0.0006        0.0000        5.8936        5.8936       5.892907       0.39018
  42    0.3336        0.0006        0.0000        5.8905        5.8905       5.889897       0.35098
  41    0.4307        0.0006        0.0000        5.8869        5.8869       5.886257       0.31652
  40    0.5894        0.0006        0.0000        5.8814        5.8814       5.880727       0.29404
  39     1.339        0.0006        0.0000        5.8615        5.8615       5.860823       0.22409
  38     1.782        0.0006        0.0000        5.8533        5.8533       5.852633       0.15591
  37     2.292        0.0006        0.0000        5.8454        5.8454       5.844717       0.13112
  36     2.964        0.0006        0.0000        5.8361        5.8361       5.835433       0.11654
  35     3.853        0.0006        0.0000        5.8244        5.8244       5.823749       0.11088
  34     5.035        0.0006        0.0000        5.8089        5.8090       5.808309       0.11030
  33     6.613        0.0006        0.0000        5.7880        5.7880       5.787332       0.11215
  32     8.786        0.0006        0.0000        5.7587        5.7588       5.758124       0.11343
  31     11.80        0.0006        0.0000        5.7159        5.7160       5.715320       0.11984
  30     15.07        0.0006        0.0000        5.6696        5.6696       5.669006       0.11957
  29     18.79        0.0006        0.0000        5.6184        5.6184       5.617822       0.11605
  28     23.16        0.0006        0.0000        5.5621        5.5622       5.561545       0.10882
  27     28.12        0.0006        0.0000        5.5037        5.5037       5.503098       0.09936
  26     33.73        0.0006        0.0000        5.4454        5.4454       5.444821       0.08762
  25     40.54        0.0006        0.0001        5.3821        5.3822       5.381579       0.07846
  24     48.69        0.0006        0.0001        5.3115        5.3116       5.310999       0.07304
  23     57.69        0.0006        0.0001        5.2366        5.2367       5.236112       0.07019
  22     68.43        0.0006        0.0001        5.1492        5.1493       5.148766       0.06867
  21     81.20        0.0005        0.0001        5.0481        5.0482       5.047654       0.06681
  20     96.49        0.0005        0.0001        4.9347        4.9348       4.934273       0.06258
  19     114.6        0.0005        0.0001        4.8056        4.8057       4.805224       0.06026
  18     136.5        0.0005        0.0002        4.6634        4.6635       4.663061       0.05466
  17     162.9        0.0005        0.0002        4.4909        4.4911       4.490627       0.05512
  16     196.4        0.0004        0.0002        4.2371        4.2373       4.236916       0.06386
  15     218.7        0.0004        0.0002        4.0506        4.0508       4.050414       0.07081
  14     243.0        0.0004        0.0002        3.8210        3.8212       3.820857       0.07962
  13     269.0        0.0003        0.0003        3.4946        3.4949       3.494545       0.10585
  12     297.5        0.0003        0.0003        3.0910        3.0913       3.090959       0.11970
  11     328.5        0.0003        0.0002        2.6495        2.6498       2.649450       0.12004
  10     361.9        0.0003        0.0002        2.2370        2.2372       2.236937       0.10437
   9     398.1        0.0003        0.0002        1.8743        1.8746       1.874276       0.08449
   8     437.6        0.0003        0.0002        1.5521        1.5523       1.552034       0.06890
   7     480.5        0.0003        0.0002        1.2485        1.2487       1.248448       0.05962
   6     533.0        0.0003        0.0002        0.9374        0.9376       0.937288       0.05006
   5     589.8        0.0003        0.0001        0.6623        0.6624       0.662096       0.04085
   4     651.6        0.0003        0.0001        0.4333        0.4334       0.433024       0.03133
   3     718.7        0.0004        0.0001        0.2641        0.2642       0.263733       0.02128
   2     792.3        0.0006        0.0001        0.1454        0.1454       0.144806       0.01364
   1     891.5        0.0011        0.0000        0.0536        0.0536       0.052504       0.00785
   0    1013.0        0.0030        0.0000        0.0098        0.0098       0.006796       0.00317



 Wavenumbers:  4000. -  4650. cm-1, ATM      1
 LEVEL PRESSURE   UPWARD FLUX   DIFDOWN FLUX  DIRDOWN FLUX  DOWNWARD FLUX   NET FLUX    HEATING RATE
          mb          W/m2          W/m2          W/m2        W/m2          W/m2       degree/day
  51    .06700        1.2727        0.0000        6.9421        6.9421       5.669338       0.00000
  50    .07753        1.2727        0.0000        6.9421        6.9421       5.669337       0.00080
  49    .09103        1.2727        0.0000        6.9421        6.9421       5.669336       0.00078
  48    0.1069        1.2727        0.0000        6.9421        6.9421       5.669335       0.00076
  47    0.1255        1.2727        0.0000        6.9421        6.9421       5.669333       0.00075
  46    0.1487        1.2727        0.0000        6.9421        6.9421       5.669331       0.00076
  45    0.1794        1.2727        0.0000        6.9421        6.9421       5.669328       0.00078
  44    0.2165        1.2727        0.0000        6.9421        6.9421       5.669325       0.00076
  43    0.2613        1.2727        0.0000        6.9420        6.9421       5.669321       0.00075
  42    0.3336        1.2727        0.0000        6.9420        6.9420       5.669314       0.00077
  41    0.4307        1.2727        0.0000        6.9420        6.9420       5.669305       0.00077
  40    0.5894        1.2727        0.0000        6.9420        6.9420       5.669290       0.00079
  39     1.339        1.2727        0.0000        6.9419        6.9419       5.669201       0.00100
  38     1.782        1.2727        0.0000        6.9418        6.9419       5.669132       0.00133
  37     2.292        1.2727        0.0000        6.9418        6.9418       5.669038       0.00155
  36     2.964        1.2727        0.0000        6.9416        6.9416       5.668898       0.00176
  35     3.853        1.2727        0.0000        6.9414        6.9414       5.668691       0.00197
  34     5.035        1.2727        0.0000        6.9411        6.9411       5.668386       0.00218
  33     6.613        1.2727        0.0000        6.9406        6.9406       5.667937       0.00240
  32     8.786        1.2727        0.0000        6.9399        6.9400       5.667275       0.00257
  31     11.80        1.2727        0.0000        6.9389        6.9389       5.666237       0.00290
  30     15.07        1.2727        0.0001        6.9376        6.9377       5.665024       0.00313
  29     18.79        1.2727        0.0001        6.9362        6.9362       5.663562       0.00332
  28     23.16        1.2727        0.0001        6.9343        6.9344       5.661753       0.00350
  27     28.12        1.2726        0.0001        6.9321        6.9322       5.659573       0.00371
  26     33.73        1.2726        0.0001        6.9294        6.9295       5.656899       0.00402
  25     40.54        1.2726        0.0002        6.9258        6.9259       5.653293       0.00447
  24     48.69        1.2726        0.0002        6.9209        6.9211       5.648520       0.00494
  23     57.69        1.2726        0.0002        6.9153        6.9155       5.642904       0.00526
  22     68.43        1.2726        0.0003        6.9082        6.9085       5.635923       0.00549
  21     81.20        1.2726        0.0003        6.8996        6.8999       5.627388       0.00564
  20     96.49        1.2726        0.0004        6.8893        6.8896       5.617079       0.00569
  19     114.6        1.2726        0.0004        6.8765        6.8769       5.604355       0.00594
  18     136.5        1.2726        0.0005        6.8611        6.8616       5.589047       0.00589
  17     162.9        1.2726        0.0006        6.8422        6.8428       5.570173       0.00603
  16     196.4        1.2728        0.0007        6.8161        6.8168       5.544075       0.00657
  15     218.7        1.2729        0.0008        6.7973        6.7981       5.525202       0.00717
  14     243.0        1.2731        0.0009        6.7740        6.7749       5.501756       0.00813
  13     269.0        1.2735        0.0010        6.7425        6.7435       5.469995       0.01030
  12     297.5        1.2741        0.0011        6.7008        6.7019       5.427829       0.01251
  11     328.5        1.2750        0.0012        6.6438        6.6450       5.370098       0.01570
  10     361.9        1.2761        0.0013        6.5677        6.5690       5.292840       0.01955
   9     398.1        1.2777        0.0014        6.4721        6.4735       5.195872       0.02259
   8     437.6        1.2797        0.0016        6.3591        6.3607       5.080994       0.02456
   7     480.5        1.2823        0.0017        6.2299        6.2316       4.949256       0.02587
   6     533.0        1.2865        0.0018        6.0667        6.0685       4.782042       0.02690
   5     589.8        1.2924        0.0020        5.8743        5.8763       4.583892       0.02941
   4     651.6        1.3007        0.0021        5.6426        5.6447       4.343981       0.03281
   3     718.7        1.3119        0.0023        5.3936        5.3959       4.083923       0.03268
   2     792.3        1.3263        0.0024        5.1542        5.1566       3.830273       0.02909
   1     891.5        1.3507        0.0026        4.8743        4.8769       3.526202       0.02588
   0    1013.0        1.3934        0.0028        4.5662        4.5690       3.175578       0.02435



 Wavenumbers:  4650. -  5150. cm-1, ATM      1
 LEVEL PRESSURE   UPWARD FLUX   DIFDOWN FLUX  DIRDOWN FLUX  DOWNWARD FLUX   NET FLUX    HEATING RATE
          mb          W/m2          W/m2          W/m2        W/m2          W/m2       degree/day
  51    .06700        0.8538        0.0000        6.5710        6.5710       5.717188       0.00000
  50    .07753        0.8538        0.0000        6.5708        6.5708       5.716952       0.18869
  49    .09103        0.8538        0.0000        6.5705        6.5705       5.716659       0.18344
  48    0.1069        0.8538        0.0000        6.5701        6.5701       5.716325       0.17789
  47    0.1255        0.8538        0.0000        6.5697        6.5698       5.715945       0.17222
  46    0.1487        0.8538        0.0000        6.5693        6.5693       5.715472       0.17251
  45    0.1794        0.8538        0.0000        6.5686        6.5686       5.714836       0.17457
  44    0.2165        0.8538        0.0000        6.5679        6.5679       5.714098       0.16771
  43    0.2613        0.8538        0.0000        6.5670        6.5671       5.713246       0.16062
  42    0.3336        0.8538        0.0000        6.5657        6.5657       5.711884       0.15878
  41    0.4307        0.8538        0.0000        6.5640        6.5640       5.710164       0.14956
  40    0.5894        0.8538        0.0000        6.5614        6.5614       5.707551       0.13899
  39     1.339        0.8538        0.0000        6.5516        6.5516       5.697783       0.10997
  38     1.782        0.8538        0.0000        6.5474        6.5474       5.693571       0.08018
  37     2.292        0.8538        0.0000        6.5435        6.5435       5.689688       0.06431
  36     2.964        0.8538        0.0000        6.5395        6.5395       5.685738       0.04959
  35     3.853        0.8538        0.0000        6.5356        6.5356       5.681800       0.03738
  34     5.035        0.8538        0.0000        6.5316        6.5316       5.677802       0.02856
  33     6.613        0.8538        0.0000        6.5271        6.5272       5.673413       0.02346
  32     8.786        0.8538        0.0001        6.5216        6.5217       5.667925       0.02131
  31     11.80        0.8538        0.0001        6.5135        6.5136       5.659857       0.02259
  30     15.07        0.8537        0.0001        6.5042        6.5042       5.650500       0.02416
  29     18.79        0.8537        0.0001        6.4926        6.4927       5.638998       0.02608
  28     23.16        0.8537        0.0001        6.4780        6.4781       5.624424       0.02818
  27     28.12        0.8537        0.0002        6.4600        6.4602       5.606471       0.03052
  26     33.73        0.8537        0.0002        6.4386        6.4387       5.585066       0.03218
  25     40.54        0.8537        0.0002        6.4114        6.4116       5.557974       0.03361
  24     48.69        0.8537        0.0003        6.3778        6.3780       5.524378       0.03477
  23     57.69        0.8536        0.0003        6.3407        6.3410       5.487332       0.03473
  22     68.43        0.8536        0.0004        6.2975        6.2978       5.444194       0.03391
  21     81.20        0.8537        0.0005        6.2486        6.2491       5.395439       0.03222
  20     96.49        0.8537        0.0005        6.1953        6.1958       5.342132       0.02942
  19     114.6        0.8537        0.0006        6.1387        6.1393       5.285596       0.02640
  18     136.5        0.8538        0.0007        6.0797        6.0804       5.226625       0.02268
  17     162.9        0.8539        0.0009        6.0169        6.0178       5.163850       0.02007
  16     196.4        0.8541        0.0010        5.9411        5.9422       5.088021       0.01909
  15     218.7        0.8543        0.0012        5.8914        5.8926       5.038234       0.01890
  14     243.0        0.8546        0.0013        5.8352        5.8364       4.981818       0.01957
  13     269.0        0.8550        0.0014        5.7686        5.7700       4.914975       0.02168
  12     297.5        0.8556        0.0015        5.6877        5.6892       4.833591       0.02414
  11     328.5        0.8565        0.0017        5.5905        5.5922       4.735707       0.02661
  10     361.9        0.8577        0.0018        5.4746        5.4764       4.618676       0.02961
   9     398.1        0.8593        0.0020        5.3392        5.3411       4.481813       0.03189
   8     437.6        0.8615        0.0021        5.1819        5.1840       4.322526       0.03406
   7     480.5        0.8644        0.0023        5.0005        5.0027       4.138278       0.03619
   6     533.0        0.8690        0.0024        4.7713        4.7737       3.904683       0.03758
   5     589.8        0.8754        0.0026        4.5277        4.5302       3.654891       0.03708
   4     651.6        0.8840        0.0027        4.2778        4.2805       3.396490       0.03534
   3     718.7        0.8956        0.0028        4.0319        4.0347       3.139122       0.03234
   2     792.3        0.9106        0.0030        3.7962        3.7992       2.888602       0.02873
   1     891.5        0.9360        0.0031        3.5121        3.5152       2.579270       0.02632
   0    1013.0        0.9785        0.0033        3.2055        3.2088       2.230328       0.02423



 Wavenumbers:  5150. -  6150. cm-1, ATM      1
 LEVEL PRESSURE   UPWARD FLUX   DIFDOWN FLUX  DIRDOWN FLUX  DOWNWARD FLUX   NET FLUX    HEATING RATE
          mb          W/m2          W/m2          W/m2        W/m2          W/m2       degree/day
  51    .06700        2.2635        0.0000       16.4735       16.4735      14.210006       0.00000
  50    .07753        2.2635        0.0000       16.4735       16.4735      14.209982       0.01939
  49    .09103        2.2635        0.0000       16.4735       16.4735      14.209951       0.01973
  48    0.1069        2.2635        0.0000       16.4734       16.4734      14.209913       0.02007
  47    0.1255        2.2635        0.0000       16.4734       16.4734      14.209868       0.02039
  46    0.1487        2.2635        0.0000       16.4733       16.4733      14.209809       0.02148
  45    0.1794        2.2635        0.0000       16.4732       16.4732      14.209725       0.02295
  44    0.2165        2.2635        0.0000       16.4731       16.4731      14.209623       0.02339
  43    0.2613        2.2635        0.0000       16.4730       16.4730      14.209497       0.02371
  42    0.3336        2.2635        0.0000       16.4728       16.4728      14.209282       0.02504
  41    0.4307        2.2635        0.0000       16.4725       16.4725      14.208987       0.02563
  40    0.5894        2.2635        0.0000       16.4720       16.4720      14.208494       0.02624
  39     1.339        2.2635        0.0000       16.4695       16.4696      14.206085       0.02712
  38     1.782        2.2635        0.0000       16.4681       16.4681      14.204664       0.02705
  37     2.292        2.2635        0.0001       16.4664       16.4665      14.203029       0.02709
  36     2.964        2.2634        0.0001       16.4643       16.4643      14.200898       0.02675
  35     3.853        2.2634        0.0001       16.4614       16.4615      14.198114       0.02642
  34     5.035        2.2634        0.0001       16.4577       16.4579      14.194473       0.02601
  33     6.613        2.2634        0.0002       16.4529       16.4531      14.189711       0.02546
  32     8.786        2.2633        0.0002       16.4466       16.4468      14.183492       0.02415
  31     11.80        2.2633        0.0003       16.4379       16.4383      14.174981       0.02383
  30     15.07        2.2632        0.0004       16.4292       16.4295      14.166335       0.02232
  29     18.79        2.2631        0.0005       16.4198       16.4203      14.157129       0.02087
  28     23.16        2.2631        0.0006       16.4095       16.4101      14.147048       0.01949
  27     28.12        2.2630        0.0007       16.3986       16.3993      14.136304       0.01826
  26     33.73        2.2629        0.0009       16.3872       16.3881      14.125211       0.01668
  25     40.54        2.2628        0.0011       16.3747       16.3757      14.112941       0.01522
  24     48.69        2.2627        0.0013       16.3609       16.3622      14.099507       0.01390
  23     57.69        2.2626        0.0015       16.3473       16.3488      14.086276       0.01240
  22     68.43        2.2624        0.0018       16.3330       16.3348      14.072333       0.01096
  21     81.20        2.2623        0.0021       16.3174       16.3196      14.057289       0.00994
  20     96.49        2.2621        0.0025       16.3002       16.3027      14.040622       0.00920
  19     114.6        2.2619        0.0030       16.2804       16.2834      14.021540       0.00891
  18     136.5        2.2617        0.0035       16.2547       16.2583      13.996621       0.00958
  17     162.9        2.2614        0.0042       16.2109       16.2151      13.953707       0.01372
  16     196.4        2.2611        0.0051       16.1129       16.1180      13.856937       0.02436
  15     218.7        2.2609        0.0056       15.9946       16.0002      13.739351       0.04464
  14     243.0        2.2607        0.0062       15.7663       15.7724      13.511776       0.07893
  13     269.0        2.2605        0.0067       15.3447       15.3514      13.090840       0.13655
  12     297.5        2.2605        0.0072       14.8388       14.8460      12.585531       0.14987
  11     328.5        2.2605        0.0077       14.2376       14.2453      11.984782       0.16334
  10     361.9        2.2608        0.0082       13.5178       13.5260      11.265193       0.18206
   9     398.1        2.2612        0.0086       12.7547       12.7633      10.502049       0.17780
   8     437.6        2.2621        0.0089       11.9765       11.9855       9.723381       0.16648
   7     480.5        2.2636        0.0093       11.2025       11.2118       8.948227       0.15224
   6     533.0        2.2663        0.0096       10.4413       10.4510       8.184649       0.12284
   5     589.8        2.2707        0.0100        9.8437        9.8537       7.583001       0.08930
   4     651.6        2.2777        0.0106        9.3781        9.3887       7.111016       0.06455
   3     718.7        2.2879        0.0112        9.0060        9.0172       6.729302       0.04797
   2     792.3        2.3021        0.0119        8.6724        8.6843       6.382203       0.03981
   1     891.5        2.3287        0.0129        8.2600        8.2729       5.944222       0.03727
   0    1013.0        2.3833        0.0140        7.8025        7.8165       5.433194       0.03548



 Wavenumbers:  6150. -  7700. cm-1, ATM      1
 LEVEL PRESSURE   UPWARD FLUX   DIFDOWN FLUX  DIRDOWN FLUX  DOWNWARD FLUX   NET FLUX    HEATING RATE
          mb          W/m2          W/m2          W/m2        W/m2          W/m2       degree/day
  51    .06700        3.4544        0.0000       30.4684       30.4684      27.013953       0.00000
  50    .07753        3.4544        0.0000       30.4683       30.4683      27.013912       0.03291
  49    .09103        3.4544        0.0000       30.4683       30.4683      27.013859       0.03304
  48    0.1069        3.4544        0.0000       30.4682       30.4682      27.013797       0.03316
  47    0.1255        3.4544        0.0000       30.4681       30.4681      27.013724       0.03326
  46    0.1487        3.4544        0.0000       30.4680       30.4681      27.013629       0.03460
  45    0.1794        3.4544        0.0000       30.4679       30.4679      27.013496       0.03652
  44    0.2165        3.4544        0.0000       30.4677       30.4677      27.013334       0.03677
  43    0.2613        3.4544        0.0000       30.4675       30.4675      27.013138       0.03690
  42    0.3336        3.4544        0.0000       30.4672       30.4672      27.012807       0.03861
  41    0.4307        3.4544        0.0000       30.4667       30.4668      27.012357       0.03912
  40    0.5894        3.4544        0.0001       30.4659       30.4660      27.011609       0.03978
  39     1.339        3.4543        0.0001       30.4622       30.4623      27.007993       0.04072
  38     1.782        3.4543        0.0002       30.4599       30.4601      27.005866       0.04048
  37     2.292        3.4542        0.0002       30.4574       30.4576      27.003419       0.04053
  36     2.964        3.4541        0.0003       30.4541       30.4544      27.000230       0.04004
  35     3.853        3.4541        0.0004       30.4497       30.4501      26.996058       0.03960
  34     5.035        3.4539        0.0005       30.4440       30.4445      26.990584       0.03910
  33     6.613        3.4538        0.0007       30.4364       30.4372      26.983394       0.03844
  32     8.786        3.4536        0.0010       30.4265       30.4275      26.973934       0.03674
  31     11.80        3.4533        0.0013       30.4128       30.4141      26.960841       0.03666
  30     15.07        3.4529        0.0017       30.3986       30.4003      26.947335       0.03487
  29     18.79        3.4526        0.0021       30.3832       30.3853      26.932718       0.03314
  28     23.16        3.4521        0.0025       30.3660       30.3686      26.916440       0.03148
  27     28.12        3.4517        0.0031       30.3473       30.3504      26.898725       0.03012
  26     33.73        3.4511        0.0037       30.3274       30.3311      26.880032       0.02810
  25     40.54        3.4504        0.0044       30.3049       30.3094      26.858924       0.02619
  24     48.69        3.4496        0.0053       30.2797       30.2850      26.835388       0.02436
  23     57.69        3.4487        0.0063       30.2541       30.2604      26.811682       0.02222
  22     68.43        3.4477        0.0075       30.2263       30.2337      26.786052       0.02015
  21     81.20        3.4464        0.0089       30.1954       30.2043      26.757867       0.01862
  20     96.49        3.4449        0.0105       30.1608       30.1713      26.726374       0.01738
  19     114.6        3.4432        0.0125       30.1208       30.1333      26.690094       0.01694
  18     136.5        3.4411        0.0148       30.0699       30.0848      26.643697       0.01784
  17     162.9        3.4385        0.0176       29.9885       30.0061      26.567552       0.02434
  16     196.4        3.4353        0.0212       29.8242       29.8454      26.410053       0.03964
  15     218.7        3.4332        0.0235       29.6556       29.6790      26.245790       0.06236
  14     243.0        3.4310        0.0259       29.3499       29.3758      25.944785       0.10440
  13     269.0        3.4288        0.0283       28.7283       28.7566      25.327838       0.20013
  12     297.5        3.4266        0.0306       27.8509       27.8814      24.454855       0.25892
  11     328.5        3.4245        0.0327       26.8210       26.8537      23.429233       0.27886
  10     361.9        3.4228        0.0348       25.6212       25.6560      22.233183       0.30261
   9     398.1        3.4216        0.0367       24.2569       24.2935      20.871919       0.31714
   8     437.6        3.4214        0.0383       22.7938       22.8321      19.410666       0.31242
   7     480.5        3.4229        0.0396       21.2447       21.2843      17.861419       0.30427
   6     533.0        3.4275        0.0409       19.5461       19.5870      16.159512       0.27378
   5     589.8        3.4368        0.0421       18.0062       18.0483      14.611492       0.22978
   4     651.6        3.4533        0.0433       16.6080       16.6513      13.197922       0.19331
   3     718.7        3.4788        0.0446       15.3996       15.4442      11.965409       0.15489
   2     792.3        3.5149        0.0462       14.3838       14.4300      10.915157       0.12045
   1     891.5        3.5825        0.0484       13.2843       13.3327       9.750233       0.09913
   0    1013.0        3.7190        0.0508       12.1516       12.2024       8.483446       0.08796



 Wavenumbers:  7700. -  8050. cm-1, ATM      1
 LEVEL PRESSURE   UPWARD FLUX   DIFDOWN FLUX  DIRDOWN FLUX  DOWNWARD FLUX   NET FLUX    HEATING RATE
          mb          W/m2          W/m2          W/m2        W/m2          W/m2       degree/day
  51    .06700        1.6891        0.0000        7.2006        7.2006       5.511516       0.00000
  50    .07753        1.6891        0.0000        7.2006        7.2006       5.511498       0.01509
  49    .09103        1.6891        0.0000        7.2005        7.2005       5.511474       0.01478
  48    0.1069        1.6891        0.0000        7.2005        7.2005       5.511447       0.01447
  47    0.1255        1.6891        0.0000        7.2005        7.2005       5.511415       0.01416
  46    0.1487        1.6891        0.0000        7.2004        7.2005       5.511376       0.01437
  45    0.1794        1.6891        0.0000        7.2004        7.2004       5.511322       0.01479
  44    0.2165        1.6891        0.0000        7.2003        7.2003       5.511258       0.01451
  43    0.2613        1.6891        0.0000        7.2003        7.2003       5.511183       0.01423
  42    0.3336        1.6891        0.0000        7.2001        7.2001       5.511058       0.01456
  41    0.4307        1.6891        0.0000        7.2000        7.2000       5.510892       0.01440
  40    0.5894        1.6891        0.0000        7.1997        7.1997       5.510622       0.01439
  39     1.339        1.6892        0.0001        7.1984        7.1985       5.509342       0.01440
  38     1.782        1.6892        0.0001        7.1977        7.1978       5.508591       0.01430
  37     2.292        1.6892        0.0001        7.1968        7.1969       5.507722       0.01440
  36     2.964        1.6893        0.0001        7.1957        7.1958       5.506581       0.01432
  35     3.853        1.6893        0.0002        7.1942        7.1944       5.505074       0.01430
  34     5.035        1.6894        0.0002        7.1922        7.1925       5.503074       0.01429
  33     6.613        1.6895        0.0003        7.1896        7.1899       5.500406       0.01427
  32     8.786        1.6896        0.0004        7.1860        7.1864       5.496815       0.01395
  31     11.80        1.6898        0.0005        7.1810        7.1815       5.491690       0.01435
  30     15.07        1.6900        0.0007        7.1755        7.1762       5.486203       0.01417
  29     18.79        1.6902        0.0008        7.1694        7.1703       5.480025       0.01401
  28     23.16        1.6905        0.0010        7.1623        7.1634       5.472836       0.01390
  27     28.12        1.6908        0.0013        7.1542        7.1555       5.464652       0.01391
  26     33.73        1.6912        0.0015        7.1452        7.1467       5.455541       0.01370
  25     40.54        1.6916        0.0018        7.1344        7.1362       5.444600       0.01357
  24     48.69        1.6921        0.0022        7.1215        7.1237       5.431509       0.01355
  23     57.69        1.6927        0.0026        7.1074        7.1100       5.417251       0.01336
  22     68.43        1.6934        0.0030        7.0908        7.0939       5.400437       0.01322
  21     81.20        1.6943        0.0036        7.0713        7.0749       5.380637       0.01308
  20     96.49        1.6953        0.0042        7.0484        7.0526       5.357367       0.01284
  19     114.6        1.6965        0.0050        7.0216        7.0267       5.330179       0.01269
  18     136.5        1.6980        0.0060        6.9905        6.9965       5.298549       0.01216
  17     162.9        1.6997        0.0071        6.9543        6.9614       5.261675       0.01179
  16     196.4        1.7021        0.0085        6.9087        6.9172       5.215073       0.01173
  15     218.7        1.7037        0.0094        6.8794        6.8888       5.185111       0.01138
  14     243.0        1.7054        0.0104        6.8481        6.8585       5.153073       0.01111
  13     269.0        1.7074        0.0115        6.8147        6.8263       5.118873       0.01109
  12     297.5        1.7096        0.0127        6.7793        6.7920       5.082412       0.01081
  11     328.5        1.7120        0.0140        6.7414        6.7554       5.043389       0.01061
  10     361.9        1.7147        0.0153        6.7011        6.7164       5.001658       0.01056
   9     398.1        1.7178        0.0168        6.6579        6.6747       4.956861       0.01044
   8     437.6        1.7213        0.0183        6.6115        6.6299       4.908519       0.01034
   7     480.5        1.7254        0.0200        6.5613        6.5813       4.855869       0.01034
   6     533.0        1.7309        0.0220        6.4985        6.5205       4.789579       0.01066
   5     589.8        1.7374        0.0242        6.4292        6.4534       4.715937       0.01093
   4     651.6        1.7453        0.0265        6.3522        6.3786       4.633393       0.01129
   3     718.7        1.7546        0.0289        6.2673        6.2962       4.541618       0.01153
   2     792.3        1.7655        0.0315        6.1749        6.2064       4.440979       0.01154
   1     891.5        1.7818        0.0349        6.0474        6.0823       4.300531       0.01195
   0    1013.0        1.8048        0.0389        5.8855        5.9244       4.119563       0.01257



 Wavenumbers:  8050. - 12850. cm-1, ATM      1
 LEVEL PRESSURE   UPWARD FLUX   DIFDOWN FLUX  DIRDOWN FLUX  DOWNWARD FLUX   NET FLUX    HEATING RATE
          mb          W/m2          W/m2          W/m2        W/m2          W/m2       degree/day
  51    .06700       22.7338        0.0000      100.8135      100.8135      78.079727       0.00000
  50    .07753       22.7338        0.0000      100.8135      100.8135      78.079727       0.00000
  49    .09103       22.7337        0.0001      100.8134      100.8135      78.079727       0.00000
  48    0.1069       22.7337        0.0001      100.8134      100.8134      78.079727       0.00000
  47    0.1255       22.7337        0.0001      100.8133      100.8134      78.079727      -0.00000
  46    0.1487       22.7336        0.0002      100.8132      100.8134      78.079727       0.00000
  45    0.1794       22.7336        0.0002      100.8131      100.8133      78.079727      -0.00000
  44    0.2165       22.7335        0.0003      100.8129      100.8132      78.079727      -0.00000
  43    0.2613       22.7334        0.0004      100.8127      100.8132      78.079727       0.00000
  42    0.3336       22.7333        0.0006      100.8125      100.8130      78.079727       0.00000
  41    0.4307       22.7331        0.0008      100.8121      100.8129      78.079727       0.00000
  40    0.5894       22.7329        0.0011      100.8115      100.8126      78.079727      -0.00000
  39     1.339       22.7315        0.0028      100.8085      100.8113      78.079727       0.00000
  38     1.782       22.7308        0.0037      100.8068      100.8105      78.079727       0.00000
  37     2.292       22.7299        0.0049      100.8047      100.8096      78.079727      -0.00000
  36     2.964       22.7287        0.0063      100.8021      100.8084      78.079727       0.00000
  35     3.853       22.7271        0.0082      100.7986      100.8069      78.079727       0.00000
  34     5.035       22.7251        0.0108      100.7940      100.8048      78.079727       0.00000
  33     6.613       22.7223        0.0142      100.7878      100.8020      78.079727      -0.00000
  32     8.786       22.7185        0.0189      100.7794      100.7983      78.079727       0.00000
  31     11.80       22.7132        0.0255      100.7674      100.7929      78.079727       0.00000
  30     15.07       22.7074        0.0326      100.7546      100.7872      78.079727       0.00000
  29     18.79       22.7009        0.0407      100.7400      100.7806      78.079727      -0.00000
  28     23.16       22.6933        0.0501      100.7230      100.7730      78.079727       0.00000
  27     28.12       22.6846        0.0608      100.7035      100.7643      78.079727      -0.00000
  26     33.73       22.6748        0.0729      100.6817      100.7546      78.079727       0.00000
  25     40.54       22.6630        0.0875      100.6552      100.7427      78.079727       0.00000
  24     48.69       22.6488        0.1051      100.6234      100.7285      78.079727      -0.00000
  23     57.69       22.6331        0.1245      100.5883      100.7128      78.079727       0.00000
  22     68.43       22.6143        0.1476      100.5464      100.6941      78.079727       0.00000
  21     81.20       22.5920        0.1752      100.4965      100.6717      78.079727      -0.00000
  20     96.49       22.5653        0.2081      100.4370      100.6451      78.079727       0.00000
  19     114.6       22.5337        0.2472      100.3608      100.6080      78.074337       0.00252
  18     136.5       22.4960        0.2937      100.2689      100.5626      78.066556       0.00299
  17     162.9       22.4512        0.3491      100.1527      100.5018      78.050683       0.00507
  16     196.4       22.3929        0.4211       99.9795      100.4006      78.007773       0.01080
  15     218.7       22.3545        0.4684       99.8384      100.3068      77.952260       0.02108
  14     243.0       22.3129        0.5198       99.6332      100.1530      77.840071       0.03891
  13     269.0       22.2681        0.5752       99.2932       99.8684      77.600245       0.07780
  12     297.5       22.2204        0.6347       98.8220       99.4567      77.236309       0.10794
  11     328.5       22.1700        0.6986       98.2091       98.9077      76.737692       0.13557
  10     361.9       22.1176        0.7666       97.4075       98.1741      76.056560       0.17233
   9     398.1       22.0640        0.8387       96.3734       97.2121      75.148172       0.21163
   8     437.6       22.0108        0.9145       95.0633       95.9778      73.966991       0.25254
   7     480.5       21.9615        0.9932       93.3838       94.3770      72.415478       0.30471
   6     533.0       21.9137        1.0865       91.0943       92.1808      70.267048       0.34561
   5     589.8       21.8810        1.1830       88.5169       89.6999      67.818900       0.36339
   4     651.6       21.8734        1.2823       85.7043       86.9866      65.113230       0.37001
   3     718.7       21.8968        1.3852       82.8160       84.2012      62.304450       0.35299
   2     792.3       21.9563        1.4924       79.9592       81.4516      59.495334       0.32217
   1     891.5       22.1093        1.6312       76.3763       78.0075      55.898262       0.30609
   0    1013.0       22.4801        1.7860       72.2372       74.0232      51.543087       0.30240



 Wavenumbers: 12850. - 16000. cm-1, ATM      1
 LEVEL PRESSURE   UPWARD FLUX   DIFDOWN FLUX  DIRDOWN FLUX  DOWNWARD FLUX   NET FLUX    HEATING RATE
          mb          W/m2          W/m2          W/m2        W/m2          W/m2       degree/day
  51    .06700       31.6856        0.0000       63.1686       63.1686      31.482996       0.00000
  50    .07753       31.6856        0.0001       63.1677       63.1678      31.482217       0.62429
  49    .09103       31.6855        0.0001       63.1666       63.1668      31.481247       0.60662
  48    0.1069       31.6855        0.0002       63.1654       63.1656      31.480142       0.58814
  47    0.1255       31.6854        0.0003       63.1640       63.1643      31.478885       0.56957
  46    0.1487       31.6854        0.0004       63.1623       63.1627      31.477319       0.57099
  45    0.1794       31.6853        0.0006       63.1600       63.1605      31.475219       0.57649
  44    0.2165       31.6853        0.0008       63.1573       63.1581      31.472791       0.55222
  43    0.2613       31.6852        0.0010       63.1542       63.1552      31.469992       0.52757
  42    0.3336       31.6851        0.0014       63.1493       63.1507      31.465536       0.51962
  41    0.4307       31.6850        0.0019       63.1431       63.1450      31.459966       0.48428
  40    0.5894       31.6849        0.0027       63.1338       63.1365      31.451539       0.44815
  39     1.339       31.6857        0.0065       63.0956       63.1020      31.416298       0.39675
  38     1.782       31.6871        0.0087       63.0740       63.0827      31.395655       0.39301
  37     2.292       31.6894        0.0113       63.0477       63.0589      31.369533       0.43264
  36     2.964       31.6937        0.0147       63.0095       63.0242      31.330477       0.49027
  35     3.853       31.7011        0.0191       62.9533       62.9724      31.271256       0.56203
  34     5.035       31.7127        0.0251       62.8725       62.8976      31.184866       0.61713
  33     6.613       31.7291        0.0330       62.7621       62.7951      31.066011       0.63540
  32     8.786       31.7502        0.0437       62.6183       62.6619      30.911750       0.59910
  31     11.80       31.7770        0.0589       62.4284       62.4872      30.710257       0.56412
  30     15.07       31.8018        0.0751       62.2426       62.3177      30.515935       0.50170
  29     18.79       31.8264        0.0935       62.0493       62.1428      30.316431       0.45234
  28     23.16       31.8509        0.1149       61.8425       61.9573      30.106369       0.40619
  27     28.12       31.8743        0.1392       61.6278       61.7671      29.892756       0.36313
  26     33.73       31.8937        0.1665       61.4177       61.5842      29.690497       0.30410
  25     40.54       31.9092        0.1993       61.1983       61.3977      29.488461       0.25065
  24     48.69       31.9203        0.2389       60.9680       61.2069      29.286616       0.20888
  23     57.69       31.9250        0.2823       60.7478       61.0301      29.105041       0.17020
  22     68.43       31.9227        0.3338       60.5202       60.8540      28.931362       0.13653
  21     81.20       31.9089        0.3953       60.2938       60.6891      28.780183       0.09990
  20     96.49       31.8824        0.4684       60.0643       60.5327      28.650306       0.07168
  19     114.6       31.8511        0.5557       59.8078       60.3635      28.512461       0.06436
  18     136.5       31.8094        0.6590       59.5158       60.1748      28.365353       0.05657
  17     162.9       31.7557        0.7816       59.1773       59.9589      28.203218       0.05182
  16     196.4       31.6772        0.9402       58.7609       59.7011      28.023908       0.04513
  15     218.7       31.6224        1.0440       58.4956       59.5397      27.917222       0.04050
  14     243.0       31.5616        1.1567       58.2106       59.3672      27.805642       0.03870
  13     269.0       31.4944        1.2784       57.9044       59.1828      27.688412       0.03803
  12     297.5       31.4207        1.4097       57.5747       58.9844      27.563677       0.03700
  11     328.5       31.3413        1.5511       57.2159       58.7670      27.425711       0.03751
  10     361.9       31.2563        1.7029       56.8238       58.5267      27.270375       0.03930
   9     398.1       31.1662        1.8656       56.3934       58.2590      27.092848       0.04136
   8     437.6       31.0719        2.0395       55.9157       57.9553      26.883424       0.04478
   7     480.5       30.9754        2.2249       55.3765       57.6014      26.626011       0.05055
   6     533.0       30.8646        2.4514       54.6761       57.1274      26.262805       0.05843
   5     589.8       30.7569        2.6929       53.8793       56.5722      25.815311       0.06642
   4     651.6       30.6563        2.9490       52.9852       55.9342      25.277853       0.07350
   3     718.7       30.5638        3.2197       52.0186       55.2384      24.674546       0.07582
   2     792.3       30.4821        3.5049       50.9966       54.5015      24.019416       0.07514
   1     891.5       30.4067        3.8818       49.6313       53.5132      23.106521       0.07768
   0    1013.0       30.3890        4.3205       47.9839       52.3044      21.915448       0.08270



 Wavenumbers: 16000. - 22650. cm-1, ATM      1
 LEVEL PRESSURE   UPWARD FLUX   DIFDOWN FLUX  DIRDOWN FLUX  DOWNWARD FLUX   NET FLUX    HEATING RATE
          mb          W/m2          W/m2          W/m2        W/m2          W/m2       degree/day
  51    .06700       73.6725        0.0000      100.7153      100.7153      27.042816       0.00000
  50    .07753       73.6724        0.0003      100.7147      100.7151      27.042700       0.09322
  49    .09103       73.6722        0.0007      100.7140      100.7147      27.042531       0.10573
  48    0.1069       73.6720        0.0012      100.7131      100.7143      27.042304       0.12057
  47    0.1255       73.6718        0.0017      100.7121      100.7138      27.042001       0.13743
  46    0.1487       73.6716        0.0024      100.7108      100.7132      27.041554       0.16285
  45    0.1794       73.6714        0.0033      100.7089      100.7122      27.040856       0.19174
  44    0.2165       73.6711        0.0044      100.7066      100.7110      27.039909       0.21549
  43    0.2613       73.6708        0.0057      100.7037      100.7094      27.038623       0.24226
  42    0.3336       73.6704        0.0079      100.6987      100.7066      27.036180       0.28489
  41    0.4307       73.6700        0.0107      100.6918      100.7025      27.032497       0.32024
  40    0.5894       73.6697        0.0154      100.6797      100.6951      27.025472       0.37353
  39     1.339       73.6734        0.0375      100.6095      100.6470      26.973588       0.58412
  38     1.782       73.6795        0.0504      100.5585      100.6089      26.929402       0.84122
  37     2.292       73.6902        0.0654      100.4903      100.5556      26.865464       1.05898
  36     2.964       73.7099        0.0850      100.3868      100.4718      26.761933       1.29963
  35     3.853       73.7438        0.1110      100.2306      100.3416      26.597777       1.55787
  34     5.035       73.7967        0.1454      100.0045      100.1498      26.353142       1.74757
  33     6.613       73.8714        0.1912       99.6939       99.8851      26.013706       1.81462
  32     8.786       73.9679        0.2528       99.2881       99.5409      25.572954       1.71172
  31     11.80       74.0908        0.3407       98.7496       99.0903      24.999479       1.60555
  30     15.07       74.2050        0.4347       98.2198       98.6545      24.449527       1.41987
  29     18.79       74.3180        0.5405       97.6651       98.2056      23.887640       1.27397
  28     23.16       74.4316        0.6636       97.0671       97.7308      23.299186       1.13788
  27     28.12       74.5400        0.8039       96.4406       97.2445      22.704461       1.01099
  26     33.73       74.6304        0.9603       95.8179       96.7782      22.147775       0.83699
  25     40.54       74.7040        1.1487       95.1548       96.3035      21.599486       0.68021
  24     48.69       74.7581        1.3748       94.4420       95.8168      21.058641       0.55969
  23     57.69       74.7843        1.6222       93.7416       95.3638      20.579514       0.44911
  22     68.43       74.7796        1.9156       92.9954       94.9110      20.131346       0.35232
  21     81.20       74.7250        2.2638       92.2231       94.4869      19.761929       0.24410
  20     96.49       74.6146        2.6767       91.4110       94.0877      19.473045       0.15944
  19     114.6       74.4613        3.1635       90.5070       93.6705      19.209239       0.12318
  18     136.5       74.2652        3.7356       89.4803       93.2159      18.950730       0.09940
  17     162.9       74.0194        4.4100       88.3022       92.7123      18.692909       0.08241
  16     196.4       73.6728        5.2743       86.8607       92.1350      18.462192       0.05807
  15     218.7       73.4359        5.8357       85.9493       91.7850      18.349071       0.04295
  14     243.0       73.1750        6.4402       84.9792       91.4194      18.244446       0.03629
  13     269.0       72.8889        7.0889       83.9499       91.0388      18.149943       0.03066
  12     297.5       72.5769        7.7824       82.8603       90.6427      18.065825       0.02495
  11     328.5       72.2401        8.5231       81.7009       90.2240      17.983879       0.02228
  10     361.9       71.8786        9.3108       80.4717       89.7825      17.903871       0.02024
   9     398.1       71.4914       10.1473       79.1691       89.3163      17.824942       0.01839
   8     437.6       71.0787       11.0327       77.7904       88.8231      17.744396       0.01722
   7     480.5       70.6407       11.9674       76.3335       88.3009      17.660212       0.01653
   6     533.0       70.1083       13.0977       74.5674       87.6651      17.556785       0.01664
   5     589.8       69.5440       14.2914       72.6943       86.9857      17.441677       0.01709
   4     651.6       68.9495       15.5466       70.7133       86.2600      17.310447       0.01795
   3     718.7       68.3251       16.8611       68.6285       85.4896      17.164468       0.01835
   2     792.3       67.6730       18.2298       66.4471       84.6769      17.003905       0.01841
   1     891.5       66.8221       20.0133       63.5824       83.5956      16.773534       0.01960
   0    1013.0       65.8457       22.0634       60.2515       82.3149      16.469161       0.02113



 Wavenumbers: 22650. - 29000. cm-1, ATM      1
 LEVEL PRESSURE   UPWARD FLUX   DIFDOWN FLUX  DIRDOWN FLUX  DOWNWARD FLUX   NET FLUX    HEATING RATE
          mb          W/m2          W/m2          W/m2        W/m2          W/m2       degree/day
  51    .06700       32.0553        0.0000       38.0063       38.0063       5.950960       0.00000
  50    .07753       32.0552        0.0004       38.0057       38.0061       5.950960      -0.00000
  49    .09103       32.0549        0.0009       38.0050       38.0059       5.950960       0.00000
  48    0.1069       32.0547        0.0014       38.0042       38.0056       5.950960       0.00000
  47    0.1255       32.0544        0.0020       38.0033       38.0054       5.950960       0.00000
  46    0.1487       32.0540        0.0028       38.0022       38.0050       5.950960      -0.00000
  45    0.1794       32.0535        0.0039       38.0006       38.0045       5.950960       0.00000
  44    0.2165       32.0529        0.0052       37.9987       38.0039       5.950960       0.00000
  43    0.2613       32.0523        0.0067       37.9965       38.0032       5.950960       0.00000
  42    0.3336       32.0511        0.0092       37.9928       38.0021       5.950960       0.00000
  41    0.4307       32.0496        0.0125       37.9880       38.0005       5.950960      -0.00000
  40    0.5894       32.0471        0.0180       37.9800       37.9980       5.950960       0.00000
  39     1.339       32.0352        0.0437       37.9425       37.9862       5.950960       0.00000
  38     1.782       32.0283        0.0588       37.9204       37.9793       5.950960       0.00000
  37     2.292       32.0203        0.0763       37.8949       37.9712       5.950960       0.00000
  36     2.964       32.0097        0.0993       37.8614       37.9607       5.950960       0.00000
  35     3.853       31.9958        0.1296       37.8172       37.9468       5.950960       0.00000
  34     5.035       31.9774        0.1697       37.7586       37.9283       5.950960       0.00000
  33     6.613       31.9527        0.2234       37.6803       37.9037       5.950960       0.00000
  32     8.786       31.9195        0.2955       37.5750       37.8705       5.950960      -0.00000
  31     11.80       31.8722        0.3983       37.4249       37.8232       5.950960       0.00000
  30     15.07       31.8215        0.5083       37.2642       37.7725       5.950960      -0.00000
  29     18.79       31.7645        0.6321       37.0833       37.7154       5.950960       0.00000
  28     23.16       31.6981        0.7761       36.8730       37.6491       5.950960       0.00000
  27     28.12       31.6225        0.9397       36.6338       37.5735       5.950960       0.00000
  26     33.73       31.5384        1.1217       36.3677       37.4894       5.950960       0.00000
  25     40.54       31.4374        1.3398       36.0486       37.3884       5.950960       0.00000
  24     48.69       31.3166        1.6003       35.6672       37.2675       5.950960      -0.00000
  23     57.69       31.1850        1.8833       35.2527       37.1360       5.950960       0.00000
  22     68.43       31.0300        2.2160       34.7649       36.9810       5.950960       0.00000
  21     81.20       30.8476        2.6064       34.1922       36.7986       5.950960       0.00000
  20     96.49       30.6336        3.0628       33.5217       36.5846       5.950960      -0.00000
  19     114.6       30.3841        3.5927       32.7424       36.3351       5.950960      -0.00000
  18     136.5       30.0948        4.2041       31.8416       36.0457       5.950960       0.00000
  17     162.9       29.7590        4.9091       30.8008       35.7099       5.950960       0.00000
  16     196.4       29.3373        5.7875       29.5007       35.2882       5.950960      -0.00000
  15     218.7       29.0686        6.3428       28.6767       35.0195       5.950960       0.00000
  14     243.0       28.7836        6.9277       27.8068       34.7345       5.950960      -0.00000
  13     269.0       28.4828        7.5404       26.8934       34.4338       5.950960       0.00000
  12     297.5       28.1670        8.1785       25.9395       34.1179       5.950960      -0.00000
  11     328.5       27.8357        8.8413       24.9454       33.7867       5.950960       0.00000
  10     361.9       27.4905        9.5249       23.9165       33.4414       5.950960       0.00000
   9     398.1       27.1314       10.2275       22.8549       33.0824       5.950960      -0.00000
   8     437.6       26.7597       10.9451       21.7656       32.7106       5.950960       0.00000
   7     480.5       26.3764       11.6737       20.6537       32.3274       5.950960      -0.00000
   6     533.0       25.9248       12.5167       19.3590       31.8757       5.950960       0.00000
   5     589.8       25.4612       13.3628       18.0494       31.4122       5.950960       0.00000
   4     651.6       24.9882       14.2037       16.7354       30.9391       5.950960      -0.00000
   3     718.7       24.5081       15.0314       15.4277       30.4591       5.950960       0.00000
   2     792.3       24.0238       15.8374       14.1374       29.9748       5.950960      -0.00000
   1     891.5       23.4137       16.8067       12.5579       29.3646       5.950960       0.00000
   0    1013.0       22.7411       17.8057       10.8864       28.6920       5.950960       0.00000



 Wavenumbers: 29000. - 38000. cm-1, ATM      1
 LEVEL PRESSURE   UPWARD FLUX   DIFDOWN FLUX  DIRDOWN FLUX  DOWNWARD FLUX   NET FLUX    HEATING RATE
          mb          W/m2          W/m2          W/m2        W/m2          W/m2       degree/day
  51    .06700        4.7044        0.0000       13.4026       13.4026       8.698229       0.00000
  50    .07753        4.7042        0.0003       13.3983       13.3986       8.694431       3.04421
  49    .09103        4.7039        0.0007       13.3921       13.3928       8.688912       3.44947
  48    0.1069        4.7036        0.0011       13.3840       13.3851       8.681536       3.92653
  47    0.1255        4.7032        0.0016       13.3733       13.3749       8.671691       4.46291
  46    0.1487        4.7028        0.0022       13.3579       13.3600       8.657250       5.26406
  45    0.1794        4.7022        0.0030       13.3340       13.3371       8.634852       6.14888
  44    0.2165        4.7015        0.0040       13.3024       13.3064       8.604835       6.82832
  43    0.2613        4.7008        0.0051       13.2604       13.2655       8.564783       7.54960
  42    0.3336        4.6995        0.0070       13.1833       13.1903       8.490782       8.62781
  41    0.4307        4.6979        0.0095       13.0729       13.0824       8.384418       9.24810
  40    0.5894        4.6955        0.0133       12.8796       12.8929       8.197391       9.94587
  39     1.339        4.6869        0.0295       11.9165       11.9460       7.259174      10.56262
  38     1.782        4.6834        0.0378       11.4399       11.4777       6.794296       8.85053
  37     2.292        4.6807        0.0466       10.9796       11.0262       6.345509       7.43308
  36     2.964        4.6790        0.0574       10.4786       10.5361       5.857107       6.13092
  35     3.853        4.6791        0.0708        9.9429       10.0137       5.334604       4.95865
  34     5.035        4.6818        0.0875        9.4007        9.4882       4.806389       3.77335
  33     6.613        4.6872        0.1087        8.8752        8.9839       4.296706       2.72477
  32     8.786        4.6947        0.1360        8.3786        8.5145       3.819888       1.85179
  31     11.80        4.7036        0.1734        7.8897        8.0630       3.359426       1.28915
  30     15.07        4.7111        0.2120        7.5108        7.7228       3.011666       0.89785
  29     18.79        4.7179        0.2540        7.1776        7.4317       2.713782       0.67539
  28     23.16        4.7237        0.3014        6.8664        7.1678       2.444090       0.52150
  27     28.12        4.7279        0.3537        6.5780        6.9317       2.203782       0.40851
  26     33.73        4.7282        0.4107        6.3195        6.7301       2.001944       0.30347
  25     40.54        4.7232        0.4778        6.0663        6.5441       1.820934       0.22456
  24     48.69        4.7123        0.5565        5.8128        6.3693       1.657066       0.16958
  23     57.69        4.6957        0.6404        5.5777        6.2181       1.522427       0.12620
  22     68.43        4.6709        0.7375        5.3379        6.0753       1.404419       0.09277
  21     81.20        4.6339        0.8500        5.0965        5.9465       1.312634       0.06065
  20     96.49        4.5832        0.9799        4.8476        5.8276       1.244335       0.03770
  19     114.6        4.5220        1.1270        4.5799        5.7069       1.184932       0.02774
  18     136.5        4.4509        1.2912        4.2891        5.5802       1.129304       0.02139
  17     162.9        4.3698        1.4729        3.9732        5.4461       1.076331       0.01693
  16     196.4        4.2671        1.6902        3.6080        5.2982       1.031108       0.01138
  15     218.7        4.2023        1.8221        3.3898        5.2119       1.009606       0.00816
  14     243.0        4.1349        1.9564        3.1686        5.1250       0.990121       0.00676
  13     269.0        4.0650        2.0919        2.9461        5.0379       0.972953       0.00557
  12     297.5        3.9931        2.2273        2.7239        4.9512       0.958119       0.00440
  11     328.5        3.9200        2.3613        2.5029        4.8642       0.944204       0.00378
  10     361.9        3.8460        2.4927        2.2846        4.7773       0.931228       0.00328
   9     398.1        3.7717        2.6201        2.0708        4.6908       0.919185       0.00281
   8     437.6        3.6974        2.7421        1.8631        4.6052       0.907817       0.00243
   7     480.5        3.6234        2.8580        1.6626        4.5206       0.897245       0.00208
   6     533.0        3.5397        2.9811        1.4445        4.4256       0.885971       0.00181
   5     589.8        3.4575        3.0927        1.2401        4.3328       0.875306       0.00158
   4     651.6        3.3773        3.1913        1.0510        4.2424       0.865104       0.00140
   3     718.7        3.2994        3.2757        0.8790        4.1547       0.855332       0.00123
   2     792.3        3.2240        3.3450        0.7250        4.0700       0.845970       0.00107
   1     891.5        3.1332        3.4103        0.5576        3.9679       0.834682       0.00096
   0    1013.0        3.0371        3.4544        0.4052        3.8597       0.822558       0.00084



 Wavenumbers: 38000. - 50000. cm-1, ATM      1
 LEVEL PRESSURE   UPWARD FLUX   DIFDOWN FLUX  DIRDOWN FLUX  DOWNWARD FLUX   NET FLUX    HEATING RATE
          mb          W/m2          W/m2          W/m2        W/m2          W/m2       degree/day
  51    .06700        0.0051        0.0000        0.8267        0.8267       0.821528       0.00000
  50    .07753        0.0051        0.0001        0.8242        0.8243       0.819196       1.86936
  49    .09103        0.0050        0.0002        0.8207        0.8209       0.815872       2.07705
  48    0.1069        0.0049        0.0002        0.8162        0.8164       0.811514       2.31984
  47    0.1255        0.0048        0.0004        0.8103        0.8106       0.805801       2.59006
  46    0.1487        0.0047        0.0005        0.8018        0.8023       0.797567       3.00143
  45    0.1794        0.0045        0.0007        0.7889        0.7896       0.785013       3.44648
  44    0.2165        0.0044        0.0009        0.7720        0.7729       0.768507       3.75474
  43    0.2613        0.0042        0.0011        0.7500        0.7511       0.746955       4.06246
  42    0.3336        0.0039        0.0015        0.7106        0.7121       0.708267       4.51071
  41    0.4307        0.0035        0.0019        0.6566        0.6584       0.654972       4.63387
  40    0.5894        0.0029        0.0024        0.5680        0.5704       0.567464       4.65357
  39     1.339        0.0015        0.0030        0.2422        0.2452       0.243720       3.64476
  38     1.782        0.0010        0.0026        0.1493        0.1519       0.150889       1.76735
  37     2.292        0.0007        0.0022        0.0924        0.0946       0.093932       0.94336
  36     2.964        0.0005        0.0018        0.0539        0.0557       0.055224       0.48589
  35     3.853        0.0003        0.0013        0.0295        0.0308       0.030502       0.23462
  34     5.035        0.0002        0.0010        0.0154        0.0164       0.016181       0.10230
  33     6.613        0.0001        0.0007        0.0073        0.0080       0.007912       0.04420
  32     8.786        0.0000        0.0004        0.0030        0.0034       0.003390       0.01756
  31     11.80        0.0000        0.0003        0.0010        0.0012       0.001199       0.00613
  30     15.07        0.0000        0.0001        0.0003        0.0005       0.000463       0.00190
  29     18.79        0.0000        0.0001        0.0001        0.0002       0.000182       0.00064
  28     23.16        0.0000        0.0000        0.0000        0.0001       0.000071       0.00022
  27     28.12        0.0000        0.0000        0.0000        0.0000       0.000028       0.00007
  26     33.73        0.0000        0.0000        0.0000        0.0000       0.000011       0.00002
  25     40.54        0.0000        0.0000        0.0000        0.0000       0.000005       0.00001
  24     48.69        0.0000        0.0000        0.0000        0.0000       0.000002       0.00000
  23     57.69        0.0000        0.0000        0.0000        0.0000       0.000001       0.00000
  22     68.43        0.0000        0.0000        0.0000        0.0000       0.000000       0.00000
  21     81.20        0.0000        0.0000        0.0000        0.0000       0.000000       0.00000
  20     96.49        0.0000        0.0000        0.0000        0.0000       0.000000       0.00000
  19     114.6        0.0000        0.0000        0.0000        0.0000       0.000000       0.00000
  18     136.5        0.0000        0.0000        0.0000        0.0000       0.000000       0.00000
  17     162.9        0.0000        0.0000        0.0000        0.0000       0.000000       0.00000
  16     196.4        0.0000        0.0000        0.0000        0.0000       0.000000       0.00000
  15     218.7        0.0000        0.0000        0.0000        0.0000       0.000000       0.00000
  14     243.0        0.0000        0.0000        0.0000        0.0000       0.000000       0.00000
  13     269.0        0.0000        0.0000        0.0000        0.0000       0.000000       0.00000
  12     297.5        0.0000        0.0000        0.0000        0.0000       0.000000       0.00000
  11     328.5        0.0000        0.0000        0.0000        0.0000       0.000000       0.00000
  10     361.9        0.0000        0.0000        0.0000        0.0000       0.000000       0.00000
   9     398.1        0.0000        0.0000        0.0000        0.0000       0.000000       0.00000
   8     437.6        0.0000        0.0000        0.0000        0.0000       0.000000       0.00000
   7     480.5        0.0000        0.0000        0.0000        0.0000       0.000000       0.00000
   6     533.0        0.0000        0.0000        0.0000        0.0000       0.000000       0.00000
   5     589.8        0.0000        0.0000        0.0000        0.0000       0.000000       0.00000
   4     651.6        0.0000        0.0000        0.0000        0.0000       0.000000       0.00000
   3     718.7        0.0000        0.0000        0.0000        0.0000       0.000000       0.00000
   2     792.3        0.0000        0.0000        0.0000        0.0000       0.000000       0.00000
   1     891.5        0.0000        0.0000        0.0000        0.0000       0.000000       0.00000
   0    1013.0        0.0000        0.0000        0.0000        0.0000       0.000000       0.00000



 Wavenumbers:   820. -  2600. cm-1, ATM      1
 LEVEL PRESSURE   UPWARD FLUX   DIFDOWN FLUX  DIRDOWN FLUX  DOWNWARD FLUX   NET FLUX    HEATING RATE
          mb          W/m2          W/m2          W/m2        W/m2          W/m2       degree/day
  51    .06700        0.2679        0.0000        3.8670        3.8670       3.599141       0.00000
  50    .07753        0.2679        0.0000        3.8643        3.8643       3.596443       2.16227
  49    .09103        0.2679        0.0000        3.8635        3.8635       3.595658       0.49067
  48    0.1069        0.2679        0.0000        3.8627        3.8627       3.594797       0.45816
  47    0.1255        0.2679        0.0000        3.8618        3.8618       3.593873       0.41934
  46    0.1487        0.2679        0.0000        3.8607        3.8607       3.592810       0.38724
  45    0.1794        0.2679        0.0000        3.8594        3.8594       3.591542       0.34817
  44    0.2165        0.2679        0.0000        3.8581        3.8581       3.590246       0.29480
  43    0.2613        0.2679        0.0000        3.8568        3.8568       3.588886       0.25633
  42    0.3336        0.2679        0.0000        3.8547        3.8547       3.586826       0.24020
  41    0.4307        0.2679        0.0000        3.8521        3.8521       3.584177       0.23031
  40    0.5894        0.2679        0.0000        3.8477        3.8477       3.579839       0.23068
  39     1.339        0.2679        0.0000        3.8282        3.8282       3.560286       0.22014
  38     1.782        0.2679        0.0000        3.8174        3.8174       3.549480       0.20572
  37     2.292        0.2679        0.0000        3.8054        3.8054       3.537507       0.19832
  36     2.964        0.2679        0.0000        3.7905        3.7905       3.522638       0.18665
  35     3.853        0.2679        0.0000        3.7721        3.7721       3.504183       0.17514
  34     5.035        0.2679        0.0000        3.7489        3.7489       3.481058       0.16519
  33     6.613        0.2679        0.0000        3.7198        3.7198       3.451900       0.15588
  32     8.786        0.2679        0.0000        3.6843        3.6843       3.416449       0.13768
  31     11.80        0.2679        0.0000        3.6442        3.6442       3.376337       0.11230
  30     15.07        0.2679        0.0000        3.6143        3.6143       3.346403       0.07728
  29     18.79        0.2679        0.0000        3.5914        3.5915       3.323561       0.05179
  28     23.16        0.2679        0.0000        3.5720        3.5720       3.304098       0.03763
  27     28.12        0.2679        0.0000        3.5529        3.5529       3.285037       0.03240
  26     33.73        0.2679        0.0000        3.5326        3.5326       3.264728       0.03054
  25     40.54        0.2679        0.0000        3.5087        3.5087       3.240815       0.02967
  24     48.69        0.2679        0.0000        3.4806        3.4806       3.212703       0.02909
  23     57.69        0.2679        0.0000        3.4507        3.4507       3.182825       0.02801
  22     68.43        0.2679        0.0000        3.4168        3.4168       3.148856       0.02670
  21     81.20        0.2679        0.0000        3.3789        3.3789       3.110991       0.02502
  20     96.49        0.2680        0.0000        3.3367        3.3367       3.068786       0.02329
  19     114.6        0.2680        0.0000        3.2899        3.2899       3.021975       0.02186
  18     136.5        0.2680        0.0000        3.2361        3.2361       2.968124       0.02071
  17     162.9        0.2680        0.0000        3.1668        3.1669       2.898828       0.02215
  16     196.4        0.2681        0.0000        3.0672        3.0673       2.799154       0.02509
  15     218.7        0.2682        0.0000        3.0044        3.0045       2.736300       0.02386
  14     243.0        0.2682        0.0000        2.9283        2.9284       2.660132       0.02642
  13     269.0        0.2684        0.0000        2.8246        2.8246       2.556225       0.03371
  12     297.5        0.2686        0.0000        2.6857        2.6858       2.417157       0.04125
  11     328.5        0.2689        0.0000        2.5001        2.5001       2.231169       0.05057
  10     361.9        0.2694        0.0000        2.2924        2.2924       2.022978       0.05267
   9     398.1        0.2702        0.0000        2.1138        2.1138       1.843658       0.04178
   8     437.6        0.2711        0.0000        1.9843        1.9843       1.713183       0.02790
   7     480.5        0.2725        0.0000        1.8822        1.8822       1.609692       0.02033
   6     533.0        0.2747        0.0000        1.7652        1.7652       1.490535       0.01917
   5     589.8        0.2778        0.0000        1.6420        1.6421       1.364272       0.01874
   4     651.6        0.2823        0.0000        1.5206        1.5206       1.238331       0.01722
   3     718.7        0.2882        0.0000        1.4142        1.4142       1.126048       0.01411
   2     792.3        0.2954        0.0000        1.3235        1.3235       1.028108       0.01123
   1     891.5        0.3074        0.0000        1.2153        1.2154       0.908032       0.01022
   0    1013.0        0.3284        0.0000        1.0766        1.0767       0.748292       0.01109

  Modules and versions used in this calculation:

       rrtmg_sw.1col.f90:  $Revision$                    rrtmg_sw_init.f90:  $Revision$        
     rrtmgsw_cldprop.f90:  $Revision$                  rrtmgsw_cldprmc.f90:  NOT USED          
     rrtmg_sw_reftra.f90:  $Revision$                  rrtmg_sw_spcvrt.f90:  NOT USED          
     rrtmg_sw_spcvmc.f90:  NOT USED                    rrtmgsw_setcoef.f90:  NOT USED          
     rrtmg_sw_taumol.f90:  $Revision$                  rrtmg_sw_vrtqdr.f90:  NOT USED          
                rrtatm.f:  NOT USED                             util_xxx.f:  NOT USED          
                 extra.f:  NOT USED                       rrtmg_sw_k_g.f90:  $Revision$        

