

 Wavenumbers:   820. - 50000. cm-1, ATM      1
 LEVEL PRESSURE   UPWARD FLUX   DIFDOWN FLUX  DIRDOWN FLUX  DOWNWARD FLUX   NET FLUX    HEATING RATE
          mb          W/m2          W/m2          W/m2        W/m2          W/m2       degree/day
  51    .06700      173.4873        0.0000      397.8738      397.8738     224.386441       0.00000
  50    .07753      173.4867        0.0012      397.8578      397.8589     224.372185      11.42628
  49    .09103      173.4860        0.0026      397.8419      397.8445     224.358545       8.52550
  48    0.1069      173.4851        0.0043      397.8231      397.8273     224.342251       8.67349
  47    0.1255      173.4841        0.0062      397.7998      397.8060     224.321872       9.23902
  46    0.1487      173.4829        0.0086      397.7678      397.7764     224.293496      10.34316
  45    0.1794      173.4813        0.0119      397.7208      397.7326     224.251320      11.57829
  44    0.2165      173.4795        0.0158      397.6606      397.6763     224.196819      12.39815
  43    0.2613      173.4775        0.0203      397.5833      397.6037     224.126209      13.30965
  42    0.3336      173.4742        0.0278      397.4455      397.4733     223.999106      14.81890
  41    0.4307      173.4702        0.0377      397.2532      397.2909     223.820715      15.51070
  40    0.5894      173.4642        0.0535      396.9265      396.9800     223.515822      16.21383
  39     1.339      173.4464        0.1243      395.4281      395.5524     222.106002      15.87202
  38     1.782      173.4428        0.1640      394.7323      394.8963     221.453417      12.42417
  37     2.292      173.4448        0.2091      394.0616      394.2707     220.825845      10.39422
  36     2.964      173.4564        0.2677      393.3062      393.5739     220.117476       8.89217
  35     3.853      173.4841        0.3442      392.4387      392.7829     219.298789       7.76949
  34     5.035      173.5333        0.4449      391.4527      391.8976     218.364269       6.67582
  33     6.613      173.6059        0.5783      390.3373      390.9156     217.309717       5.63764
  32     8.786      173.6989        0.7567      389.0750      389.8317     216.132817       4.57065
  31     11.80      173.8114        1.0098      387.5651      388.5749     214.763542       3.83354
  30     15.07      173.9081        1.2793      386.1731      387.4524     213.544287       3.14788
  29     18.79      173.9959        1.5813      384.7701      386.3514     212.355518       2.69531
  28     23.16      174.0737        1.9312      383.2911      385.2223     211.148560       2.33387
  27     28.12      174.1339        2.3280      381.7580      384.0860     209.952091       2.03392
  26     33.73      174.1588        2.7687      380.2256      382.9944     208.835615       1.67865
  25     40.54      174.1397        3.2972      378.5684      381.8656     207.725944       1.37667
  24     48.69      174.0697        3.9286      376.7541      380.6827     206.613044       1.15168
  23     57.69      173.9478        4.6155      374.9309      379.5464     205.598586       0.95090
  22     68.43      173.7546        5.4251      372.9374      378.3625     204.607918       0.77880
  21     81.20      173.4578        6.3791      370.7896      377.1687     203.710885       0.59275
  20     96.49      173.0444        7.5012      368.4480      375.9493     202.904845       0.44488
  19     114.6      172.5349        8.8114      365.7981      374.6095     202.074596       0.38767
  18     136.5      171.9196       10.3325      362.7767      373.1092     201.189640       0.34029
  17     162.9      171.1822       12.1000      359.2432      371.3432     200.161060       0.32878
  16     196.4      170.2048       14.3274      354.6757      369.0031     198.798247       0.34304
  15     218.7      169.5612       15.7512      351.5847      367.3360     197.774832       0.38855
  14     243.0      168.8669       17.2651      347.9170      365.1821     196.315255       0.50623
  13     269.0      168.1219       18.8671      343.2462      362.1134     193.991500       0.75382
  12     297.5      167.3270       20.5549      337.8193      358.3742     191.047143       0.87326
  11     328.5      166.4854       22.3298      331.6713      354.0011     187.515705       0.96019
  10     361.9      165.6004       24.1864      324.8089      348.9953     183.394887       1.04261
   9     398.1      164.6734       26.1239      317.4202      343.5441     178.870686       1.05404
   8     437.6      163.7101       28.1373      309.5302      337.6675     173.957386       1.05049
   7     480.5      162.7194       30.2209      301.0011      331.2221     168.502695       1.07128
   6     533.0      161.5618       32.6866      290.8950      323.5816     162.019752       1.04290
   5     589.8      160.3946       35.2285      280.6453      315.8738     155.479270       0.97082
   4     651.6      159.2405       37.8350      270.2167      308.0517     148.811222       0.91187
   3     718.7      158.1133       40.4963      259.8608      300.3572     142.243871       0.82533
   2     792.3      157.0298       43.1973      249.7720      292.9693     135.939510       0.72304
   1     891.5      155.7957       46.6164      237.3251      283.9416     128.145898       0.66320
   0    1013.0      154.7871       50.4036      223.3729      273.7765     118.989449       0.63578



 Wavenumbers:  2600. -  3250. cm-1, ATM      1
 LEVEL PRESSURE   UPWARD FLUX   DIFDOWN FLUX  DIRDOWN FLUX  DOWNWARD FLUX   NET FLUX    HEATING RATE
          mb          W/m2          W/m2          W/m2        W/m2          W/m2       degree/day
  51    .06700        0.2438        0.0000        3.5066        3.5066       3.262837       0.00000
  50    .07753        0.2438        0.0000        3.5066        3.5066       3.262829       0.00640
  49    .09103        0.2438        0.0000        3.5066        3.5066       3.262819       0.00627
  48    0.1069        0.2438        0.0000        3.5066        3.5066       3.262807       0.00613
  47    0.1255        0.2438        0.0000        3.5066        3.5066       3.262794       0.00599
  46    0.1487        0.2438        0.0000        3.5066        3.5066       3.262778       0.00607
  45    0.1794        0.2438        0.0000        3.5065        3.5065       3.262755       0.00624
  44    0.2165        0.2438        0.0000        3.5065        3.5065       3.262728       0.00611
  43    0.2613        0.2438        0.0000        3.5065        3.5065       3.262696       0.00598
  42    0.3336        0.2438        0.0000        3.5064        3.5064       3.262644       0.00615
  41    0.4307        0.2438        0.0000        3.5064        3.5064       3.262572       0.00618
  40    0.5894        0.2438        0.0000        3.5062        3.5062       3.262453       0.00633
  39     1.339        0.2438        0.0000        3.5055        3.5055       3.261755       0.00787
  38     1.782        0.2438        0.0000        3.5050        3.5050       3.261224       0.01011
  37     2.292        0.2438        0.0000        3.5043        3.5043       3.260531       0.01147
  36     2.964        0.2438        0.0000        3.5033        3.5033       3.259540       0.01245
  35     3.853        0.2438        0.0000        3.5019        3.5019       3.258163       0.01307
  34     5.035        0.2438        0.0000        3.5001        3.5001       3.256302       0.01329
  33     6.613        0.2438        0.0000        3.4977        3.4977       3.253892       0.01288
  32     8.786        0.2438        0.0000        3.4947        3.4947       3.250921       0.01154
  31     11.80        0.2438        0.0000        3.4911        3.4911       3.247286       0.01018
  30     15.07        0.2438        0.0000        3.4878        3.4878       3.244065       0.00832
  29     18.79        0.2438        0.0000        3.4848        3.4848       3.241002       0.00695
  28     23.16        0.2438        0.0000        3.4816        3.4816       3.237782       0.00623
  27     28.12        0.2438        0.0000        3.4779        3.4779       3.234164       0.00615
  26     33.73        0.2438        0.0000        3.4735        3.4735       3.229698       0.00672
  25     40.54        0.2438        0.0000        3.4671        3.4671       3.223372       0.00785
  24     48.69        0.2438        0.0000        3.4582        3.4583       3.214478       0.00920
  23     57.69        0.2438        0.0000        3.4472        3.4472       3.203430       0.01036
  22     68.43        0.2438        0.0000        3.4329        3.4329       3.189171       0.01121
  21     81.20        0.2438        0.0000        3.4152        3.4152       3.171443       0.01171
  20     96.49        0.2438        0.0000        3.3940        3.3941       3.150299       0.01167
  19     114.6        0.2438        0.0000        3.3692        3.3693       3.125475       0.01159
  18     136.5        0.2438        0.0001        3.3421        3.3422       3.098353       0.01043
  17     162.9        0.2438        0.0001        3.3132        3.3132       3.069420       0.00925
  16     196.4        0.2439        0.0001        3.2800        3.2801       3.036248       0.00835
  15     218.7        0.2439        0.0001        3.2590        3.2590       3.015132       0.00802
  14     243.0        0.2440        0.0001        3.2338        3.2339       2.989906       0.00875
  13     269.0        0.2441        0.0001        3.2000        3.2001       2.955953       0.01101
  12     297.5        0.2443        0.0001        3.1543        3.1544       2.910096       0.01360
  11     328.5        0.2446        0.0001        3.0909        3.0910       2.846428       0.01731
  10     361.9        0.2450        0.0001        3.0041        3.0042       2.759200       0.02207
   9     398.1        0.2456        0.0001        2.8915        2.8917       2.646021       0.02637
   8     437.6        0.2465        0.0001        2.7534        2.7535       2.507034       0.02972
   7     480.5        0.2478        0.0001        2.5905        2.5906       2.342825       0.03225
   6     533.0        0.2499        0.0002        2.3948        2.3949       2.145002       0.03182
   5     589.8        0.2529        0.0002        2.2016        2.2018       1.948829       0.02912
   4     651.6        0.2573        0.0002        2.0028        2.0029       1.745636       0.02779
   3     718.7        0.2632        0.0002        1.8056        1.8058       1.542594       0.02552
   2     792.3        0.2709        0.0002        1.6239        1.6241       1.353236       0.02172
   1     891.5        0.2840        0.0002        1.4192        1.4194       1.135318       0.01854
   0    1013.0        0.3077        0.0002        1.2061        1.2063       0.898567       0.01644



 Wavenumbers:  3250. -  4000. cm-1, ATM      1
 LEVEL PRESSURE   UPWARD FLUX   DIFDOWN FLUX  DIRDOWN FLUX  DOWNWARD FLUX   NET FLUX    HEATING RATE
          mb          W/m2          W/m2          W/m2        W/m2          W/m2       degree/day
  51    .06700        0.0005        0.0000        5.9117        5.9117       5.911156       0.00000
  50    .07753        0.0005        0.0000        5.9075        5.9075       5.906979       3.34774
  49    .09103        0.0005        0.0000        5.9051        5.9051       5.904554       1.51550
  48    0.1069        0.0005        0.0000        5.9032        5.9032       5.902704       0.98485
  47    0.1255        0.0005        0.0000        5.9015        5.9015       5.900963       0.78955
  46    0.1487        0.0005        0.0000        5.8996        5.8996       5.899092       0.68200
  45    0.1794        0.0005        0.0000        5.8975        5.8975       5.896964       0.58405
  44    0.2165        0.0005        0.0000        5.8954        5.8954       5.894872       0.47601
  43    0.2613        0.0005        0.0000        5.8932        5.8932       5.892742       0.40137
  42    0.3336        0.0005        0.0000        5.8901        5.8901       5.889636       0.36214
  41    0.4307        0.0005        0.0000        5.8864        5.8864       5.885866       0.32778
  40    0.5894        0.0005        0.0000        5.8806        5.8806       5.880148       0.30409
  39     1.339        0.0005        0.0000        5.8603        5.8603       5.859780       0.22931
  38     1.782        0.0005        0.0000        5.8519        5.8519       5.851432       0.15894
  37     2.292        0.0005        0.0000        5.8438        5.8438       5.843345       0.13393
  36     2.964        0.0005        0.0000        5.8343        5.8343       5.833823       0.11954
  35     3.853        0.0005        0.0000        5.8223        5.8223       5.821811       0.11399
  34     5.035        0.0005        0.0000        5.8064        5.8064       5.805931       0.11344
  33     6.613        0.0005        0.0000        5.7849        5.7849       5.784417       0.11501
  32     8.786        0.0005        0.0000        5.7550        5.7550       5.754542       0.11602
  31     11.80        0.0005        0.0000        5.7113        5.7113       5.710820       0.12241
  30     15.07        0.0005        0.0000        5.6642        5.6642       5.663729       0.12158
  29     18.79        0.0005        0.0000        5.6123        5.6124       5.611898       0.11752
  28     23.16        0.0005        0.0000        5.5556        5.5556       5.555167       0.10970
  27     28.12        0.0005        0.0000        5.4969        5.4969       5.496448       0.09982
  26     33.73        0.0005        0.0000        5.4383        5.4383       5.437888       0.08805
  25     40.54        0.0004        0.0001        5.3745        5.3745       5.374106       0.07913
  24     48.69        0.0004        0.0001        5.3028        5.3029       5.302458       0.07414
  23     57.69        0.0004        0.0001        5.2265        5.2266       5.226174       0.07150
  22     68.43        0.0004        0.0001        5.1376        5.1376       5.137241       0.06991
  21     81.20        0.0004        0.0001        5.0350        5.0351       5.034707       0.06775
  20     96.49        0.0004        0.0001        4.9197        4.9198       4.919474       0.06360
  19     114.6        0.0004        0.0001        4.7871        4.7873       4.786924       0.06189
  18     136.5        0.0003        0.0002        4.6400        4.6402       4.639842       0.05656
  17     162.9        0.0003        0.0002        4.4571        4.4573       4.456954       0.05846
  16     196.4        0.0003        0.0002        4.1805        4.1807       4.180400       0.06961
  15     218.7        0.0002        0.0002        3.9859        3.9862       3.985931       0.07383
  14     243.0        0.0002        0.0002        3.7419        3.7421       3.741871       0.08465
  13     269.0        0.0002        0.0002        3.3885        3.3888       3.388548       0.11462
  12     297.5        0.0002        0.0002        2.9556        2.9559       2.955701       0.12838
  11     328.5        0.0002        0.0002        2.5020        2.5022       2.502084       0.12334
  10     361.9        0.0001        0.0002        2.0891        2.0893       2.089180       0.10447
   9     398.1        0.0001        0.0002        1.7342        1.7344       1.734227       0.08270
   8     437.6        0.0001        0.0002        1.4160        1.4162       1.416051       0.06803
   7     480.5        0.0001        0.0002        1.1167        1.1169       1.116789       0.05877
   6     533.0        0.0001        0.0001        0.8082        0.8084       0.808249       0.04963
   5     589.8        0.0001        0.0001        0.5430        0.5431       0.542974       0.03938
   4     651.6        0.0002        0.0001        0.3334        0.3335       0.333302       0.02867
   3     718.7        0.0002        0.0001        0.1831        0.1832       0.182988       0.01889
   2     792.3        0.0003        0.0000        0.0858        0.0858       0.085523       0.01118
   1     891.5        0.0007        0.0000        0.0236        0.0237       0.022987       0.00532
   0    1013.0        0.0025        0.0000        0.0026        0.0026       0.000139       0.00159



 Wavenumbers:  4000. -  4650. cm-1, ATM      1
 LEVEL PRESSURE   UPWARD FLUX   DIFDOWN FLUX  DIRDOWN FLUX  DOWNWARD FLUX   NET FLUX    HEATING RATE
          mb          W/m2          W/m2          W/m2        W/m2          W/m2       degree/day
  51    .06700        0.6439        0.0000        6.9421        6.9421       6.298177       0.00000
  50    .07753        0.6439        0.0000        6.9421        6.9421       6.298176       0.00079
  49    .09103        0.6439        0.0000        6.9421        6.9421       6.298175       0.00078
  48    0.1069        0.6439        0.0000        6.9421        6.9421       6.298174       0.00076
  47    0.1255        0.6439        0.0000        6.9421        6.9421       6.298172       0.00074
  46    0.1487        0.6439        0.0000        6.9421        6.9421       6.298170       0.00075
  45    0.1794        0.6439        0.0000        6.9421        6.9421       6.298167       0.00077
  44    0.2165        0.6439        0.0000        6.9421        6.9421       6.298164       0.00076
  43    0.2613        0.6439        0.0000        6.9420        6.9420       6.298160       0.00074
  42    0.3336        0.6439        0.0000        6.9420        6.9420       6.298153       0.00077
  41    0.4307        0.6439        0.0000        6.9420        6.9420       6.298144       0.00077
  40    0.5894        0.6439        0.0000        6.9420        6.9420       6.298130       0.00079
  39     1.339        0.6439        0.0000        6.9419        6.9419       6.298041       0.00100
  38     1.782        0.6439        0.0000        6.9418        6.9419       6.297971       0.00132
  37     2.292        0.6439        0.0000        6.9418        6.9418       6.297878       0.00155
  36     2.964        0.6439        0.0000        6.9416        6.9416       6.297738       0.00175
  35     3.853        0.6439        0.0000        6.9414        6.9414       6.297532       0.00196
  34     5.035        0.6439        0.0000        6.9411        6.9411       6.297227       0.00218
  33     6.613        0.6439        0.0000        6.9406        6.9406       6.296779       0.00240
  32     8.786        0.6439        0.0000        6.9399        6.9400       6.296119       0.00256
  31     11.80        0.6439        0.0000        6.9389        6.9389       6.295084       0.00290
  30     15.07        0.6438        0.0001        6.9377        6.9377       6.293873       0.00312
  29     18.79        0.6438        0.0001        6.9362        6.9362       6.292415       0.00331
  28     23.16        0.6438        0.0001        6.9343        6.9344       6.290611       0.00349
  27     28.12        0.6438        0.0001        6.9321        6.9322       6.288438       0.00369
  26     33.73        0.6438        0.0001        6.9294        6.9296       6.285772       0.00401
  25     40.54        0.6438        0.0001        6.9258        6.9259       6.282178       0.00446
  24     48.69        0.6437        0.0002        6.9210        6.9212       6.277422       0.00492
  23     57.69        0.6437        0.0002        6.9153        6.9155       6.271828       0.00524
  22     68.43        0.6437        0.0003        6.9083        6.9086       6.264877       0.00546
  21     81.20        0.6437        0.0003        6.8997        6.9000       6.256381       0.00561
  20     96.49        0.6436        0.0004        6.8894        6.8898       6.246125       0.00566
  19     114.6        0.6436        0.0004        6.8765        6.8769       6.233354       0.00596
  18     136.5        0.6436        0.0005        6.8610        6.8615       6.217974       0.00591
  17     162.9        0.6435        0.0006        6.8418        6.8424       6.198896       0.00610
  16     196.4        0.6435        0.0007        6.8152        6.8159       6.172322       0.00669
  15     218.7        0.6436        0.0008        6.7956        6.7964       6.152858       0.00739
  14     243.0        0.6436        0.0009        6.7711        6.7720       6.128369       0.00849
  13     269.0        0.6438        0.0010        6.7373        6.7383       6.094510       0.01098
  12     297.5        0.6440        0.0011        6.6915        6.6925       6.048489       0.01365
  11     328.5        0.6444        0.0012        6.6274        6.6285       5.984094       0.01751
  10     361.9        0.6450        0.0013        6.5417        6.5429       5.897987       0.02179
   9     398.1        0.6457        0.0014        6.4364        6.4378       5.792122       0.02466
   8     437.6        0.6466        0.0015        6.3156        6.3171       5.670505       0.02600
   7     480.5        0.6479        0.0016        6.1787        6.1803       5.532362       0.02713
   6     533.0        0.6500        0.0017        5.9993        6.0010       5.351010       0.02917
   5     589.8        0.6531        0.0019        5.7808        5.7827       5.129572       0.03287
   4     651.6        0.6575        0.0020        5.5217        5.5237       4.866218       0.03601
   3     718.7        0.6635        0.0021        5.2538        5.2559       4.592360       0.03442
   2     792.3        0.6713        0.0022        5.0054        5.0077       4.336343       0.02936
   1     891.5        0.6846        0.0024        4.7184        4.7208       4.036208       0.02554
   0    1013.0        0.7083        0.0026        4.3959        4.3985       3.690152       0.02403



 Wavenumbers:  4650. -  5150. cm-1, ATM      1
 LEVEL PRESSURE   UPWARD FLUX   DIFDOWN FLUX  DIRDOWN FLUX  DOWNWARD FLUX   NET FLUX    HEATING RATE
          mb          W/m2          W/m2          W/m2        W/m2          W/m2       degree/day
  51    .06700        0.4497        0.0000        6.5710        6.5710       6.121267       0.00000
  50    .07753        0.4497        0.0000        6.5708        6.5708       6.121032       0.18888
  49    .09103        0.4497        0.0000        6.5705        6.5705       6.120738       0.18363
  48    0.1069        0.4497        0.0000        6.5701        6.5701       6.120403       0.17807
  47    0.1255        0.4497        0.0000        6.5697        6.5697       6.120023       0.17239
  46    0.1487        0.4497        0.0000        6.5693        6.5693       6.119549       0.17269
  45    0.1794        0.4497        0.0000        6.5686        6.5686       6.118913       0.17474
  44    0.2165        0.4497        0.0000        6.5679        6.5679       6.118175       0.16788
  43    0.2613        0.4497        0.0000        6.5670        6.5670       6.117322       0.16079
  42    0.3336        0.4497        0.0000        6.5657        6.5657       6.115959       0.15895
  41    0.4307        0.4497        0.0000        6.5640        6.5640       6.114237       0.14971
  40    0.5894        0.4497        0.0000        6.5613        6.5613       6.111620       0.13913
  39     1.339        0.4497        0.0000        6.5516        6.5516       6.101843       0.11008
  38     1.782        0.4497        0.0000        6.5473        6.5473       6.097627       0.08026
  37     2.292        0.4497        0.0000        6.5434        6.5435       6.093740       0.06437
  36     2.964        0.4497        0.0000        6.5395        6.5395       6.089786       0.04963
  35     3.853        0.4497        0.0000        6.5355        6.5356       6.085844       0.03741
  34     5.035        0.4497        0.0000        6.5315        6.5315       6.081843       0.02858
  33     6.613        0.4497        0.0000        6.5271        6.5271       6.077450       0.02348
  32     8.786        0.4497        0.0000        6.5216        6.5216       6.071958       0.02133
  31     11.80        0.4497        0.0001        6.5135        6.5136       6.063883       0.02261
  30     15.07        0.4497        0.0001        6.5041        6.5042       6.054519       0.02418
  29     18.79        0.4496        0.0001        6.4925        6.4926       6.043010       0.02610
  28     23.16        0.4496        0.0001        6.4779        6.4780       6.028426       0.02820
  27     28.12        0.4496        0.0002        6.4599        6.4601       6.010462       0.03054
  26     33.73        0.4496        0.0002        6.4384        6.4386       5.989044       0.03220
  25     40.54        0.4495        0.0002        6.4113        6.4115       5.961938       0.03363
  24     48.69        0.4495        0.0003        6.3776        6.3778       5.928326       0.03478
  23     57.69        0.4495        0.0003        6.3404        6.3408       5.891265       0.03474
  22     68.43        0.4495        0.0004        6.2972        6.2976       5.848116       0.03392
  21     81.20        0.4494        0.0004        6.2483        6.2488       5.799354       0.03222
  20     96.49        0.4494        0.0005        6.1949        6.1955       5.746052       0.02942
  19     114.6        0.4494        0.0006        6.1383        6.1389       5.689518       0.02640
  18     136.5        0.4493        0.0007        6.0792        6.0799       5.630544       0.02268
  17     162.9        0.4493        0.0009        6.0163        6.0171       5.567789       0.02006
  16     196.4        0.4494        0.0010        5.9402        5.9413       5.491891       0.01910
  15     218.7        0.4494        0.0011        5.8902        5.8913       5.441898       0.01898
  14     243.0        0.4495        0.0012        5.8331        5.8344       5.384882       0.01977
  13     269.0        0.4496        0.0014        5.7646        5.7659       5.316325       0.02224
  12     297.5        0.4499        0.0015        5.6801        5.6816       5.231743       0.02509
  11     328.5        0.4502        0.0016        5.5785        5.5801       5.129835       0.02771
  10     361.9        0.4508        0.0018        5.4562        5.4580       5.007210       0.03103
   9     398.1        0.4515        0.0019        5.3121        5.3140       4.862468       0.03372
   8     437.6        0.4526        0.0020        5.1449        5.1469       4.694313       0.03595
   7     480.5        0.4541        0.0022        4.9518        4.9539       4.499893       0.03818
   6     533.0        0.4564        0.0023        4.7081        4.7104       4.253979       0.03956
   5     589.8        0.4597        0.0024        4.4530        4.4555       3.995817       0.03832
   4     651.6        0.4642        0.0026        4.1916        4.1942       3.729906       0.03636
   3     718.7        0.4704        0.0027        3.9358        3.9385       3.468103       0.03290
   2     792.3        0.4784        0.0028        3.6927        3.6955       3.217064       0.02879
   1     891.5        0.4920        0.0029        3.4025        3.4054       2.913371       0.02584
   0    1013.0        0.5153        0.0031        3.0901        3.0931       2.577845       0.02330



 Wavenumbers:  5150. -  6150. cm-1, ATM      1
 LEVEL PRESSURE   UPWARD FLUX   DIFDOWN FLUX  DIRDOWN FLUX  DOWNWARD FLUX   NET FLUX    HEATING RATE
          mb          W/m2          W/m2          W/m2        W/m2          W/m2       degree/day
  51    .06700        1.2550        0.0000       16.4735       16.4735      15.218519       0.00000
  50    .07753        1.2550        0.0000       16.4735       16.4735      15.218488       0.02486
  49    .09103        1.2550        0.0000       16.4734       16.4734      15.218447       0.02531
  48    0.1069        1.2550        0.0000       16.4734       16.4734      15.218399       0.02575
  47    0.1255        1.2550        0.0000       16.4733       16.4733      15.218341       0.02616
  46    0.1487        1.2550        0.0000       16.4733       16.4733      15.218266       0.02756
  45    0.1794        1.2550        0.0000       16.4731       16.4731      15.218158       0.02944
  44    0.2165        1.2550        0.0000       16.4730       16.4730      15.218027       0.03000
  43    0.2613        1.2550        0.0000       16.4728       16.4728      15.217865       0.03041
  42    0.3336        1.2550        0.0000       16.4726       16.4726      15.217590       0.03211
  41    0.4307        1.2550        0.0000       16.4722       16.4722      15.217212       0.03285
  40    0.5894        1.2550        0.0000       16.4715       16.4716      15.216580       0.03361
  39     1.339        1.2550        0.0000       16.4684       16.4685      15.213503       0.03464
  38     1.782        1.2549        0.0000       16.4666       16.4666      15.211696       0.03442
  37     2.292        1.2549        0.0001       16.4645       16.4646      15.209621       0.03436
  36     2.964        1.2549        0.0001       16.4618       16.4618      15.206928       0.03381
  35     3.853        1.2549        0.0001       16.4582       16.4583      15.203425       0.03324
  34     5.035        1.2549        0.0001       16.4536       16.4537      15.198871       0.03254
  33     6.613        1.2548        0.0002       16.4476       16.4478      15.192959       0.03160
  32     8.786        1.2548        0.0002       16.4399       16.4401      15.185317       0.02968
  31     11.80        1.2547        0.0003       16.4294       16.4297      15.175010       0.02886
  30     15.07        1.2547        0.0004       16.4189       16.4193      15.164665       0.02671
  29     18.79        1.2546        0.0005       16.4079       16.4084      15.153846       0.02453
  28     23.16        1.2545        0.0006       16.3961       16.3967      15.142238       0.02245
  27     28.12        1.2544        0.0007       16.3838       16.3845      15.130114       0.02061
  26     33.73        1.2543        0.0009       16.3712       16.3721      15.117814       0.01849
  25     40.54        1.2541        0.0010       16.3576       16.3587      15.104517       0.01650
  24     48.69        1.2540        0.0012       16.3430       16.3442      15.090256       0.01476
  23     57.69        1.2538        0.0015       16.3288       16.3303      15.076472       0.01292
  22     68.43        1.2536        0.0017       16.3140       16.3158      15.062155       0.01125
  21     81.20        1.2534        0.0021       16.2982       16.3002      15.046837       0.01012
  20     96.49        1.2531        0.0024       16.2806       16.2830      15.029909       0.00934
  19     114.6        1.2528        0.0029       16.2603       16.2632      15.010400       0.00911
  18     136.5        1.2524        0.0035       16.2334       16.2369      14.984460       0.00997
  17     162.9        1.2520        0.0041       16.1859       16.1900      14.937958       0.01486
  16     196.4        1.2514        0.0049       16.0716       16.0765      14.825074       0.02841
  15     218.7        1.2511        0.0054       15.9294       15.9349      14.683793       0.05364
  14     243.0        1.2507        0.0060       15.6626       15.6686      14.417894       0.09222
  13     269.0        1.2504        0.0065       15.2015       15.2080      13.957582       0.14932
  12     297.5        1.2501        0.0069       14.6588       14.6657      13.415678       0.16072
  11     328.5        1.2498        0.0074       13.9891       13.9965      12.746652       0.18191
  10     361.9        1.2497        0.0078       13.2132       13.2209      11.971282       0.19618
   9     398.1        1.2496        0.0081       12.4174       12.4255      11.175844       0.18532
   8     437.6        1.2498        0.0084       11.6248       11.6333      10.383433       0.16942
   7     480.5        1.2503        0.0087       10.8667       10.8754       9.625032       0.14895
   6     533.0        1.2515        0.0090       10.1490       10.1580       8.906576       0.11558
   5     589.8        1.2535        0.0094        9.6012        9.6106       8.357120       0.08156
   4     651.6        1.2568        0.0099        9.1683        9.1781       7.921331       0.05960
   3     718.7        1.2618        0.0105        8.7949        8.8053       7.543498       0.04748
   2     792.3        1.2689        0.0112        8.4404        8.4516       7.182688       0.04138
   1     891.5        1.2822        0.0120        8.0115        8.0235       6.741318       0.03756
   0    1013.0        1.3101        0.0129        7.5684        7.5813       6.271206       0.03264



 Wavenumbers:  6150. -  7700. cm-1, ATM      1
 LEVEL PRESSURE   UPWARD FLUX   DIFDOWN FLUX  DIRDOWN FLUX  DOWNWARD FLUX   NET FLUX    HEATING RATE
          mb          W/m2          W/m2          W/m2        W/m2          W/m2       degree/day
  51    .06700        1.9203        0.0000       30.4684       30.4684      28.548089       0.00000
  50    .07753        1.9203        0.0000       30.4683       30.4683      28.548041       0.03860
  49    .09103        1.9203        0.0000       30.4683       30.4683      28.547979       0.03884
  48    0.1069        1.9203        0.0000       30.4682       30.4682      28.547906       0.03907
  47    0.1255        1.9203        0.0000       30.4681       30.4681      28.547819       0.03926
  46    0.1487        1.9203        0.0000       30.4680       30.4680      28.547707       0.04094
  45    0.1794        1.9203        0.0000       30.4678       30.4678      28.547549       0.04330
  44    0.2165        1.9203        0.0000       30.4676       30.4676      28.547357       0.04369
  43    0.2613        1.9203        0.0000       30.4674       30.4674      28.547124       0.04393
  42    0.3336        1.9203        0.0000       30.4670       30.4670      28.546729       0.04603
  41    0.4307        1.9203        0.0000       30.4664       30.4664      28.546192       0.04672
  40    0.5894        1.9202        0.0001       30.4655       30.4655      28.545297       0.04757
  39     1.339        1.9202        0.0001       30.4610       30.4611      28.540968       0.04873
  38     1.782        1.9201        0.0002       30.4584       30.4585      28.538426       0.04841
  37     2.292        1.9201        0.0002       30.4553       30.4556      28.535503       0.04840
  36     2.964        1.9200        0.0003       30.4514       30.4517      28.531700       0.04774
  35     3.853        1.9199        0.0004       30.4462       30.4466      28.526734       0.04713
  34     5.035        1.9198        0.0005       30.4395       30.4400      28.520237       0.04641
  33     6.613        1.9196        0.0007       30.4307       30.4314      28.511732       0.04547
  32     8.786        1.9194        0.0009       30.4191       30.4200      28.500592       0.04326
  31     11.80        1.9191        0.0013       30.4031       30.4044      28.485273       0.04289
  30     15.07        1.9188        0.0016       30.3867       30.3884      28.469588       0.04049
  29     18.79        1.9184        0.0020       30.3691       30.3711      28.452748       0.03818
  28     23.16        1.9180        0.0025       30.3496       30.3521      28.434164       0.03593
  27     28.12        1.9175        0.0030       30.3286       30.3316      28.414171       0.03399
  26     33.73        1.9169        0.0036       30.3065       30.3101      28.393185       0.03155
  25     40.54        1.9162        0.0043       30.2817       30.2860      28.369797       0.02901
  24     48.69        1.9154        0.0052       30.2541       30.2593      28.343941       0.02676
  23     57.69        1.9145        0.0062       30.2265       30.2327      28.318176       0.02415
  22     68.43        1.9134        0.0073       30.1968       30.2041      28.290672       0.02162
  21     81.20        1.9121        0.0087       30.1641       30.1728      28.260684       0.01982
  20     96.49        1.9106        0.0103       30.1275       30.1378      28.227243       0.01846
  19     114.6        1.9088        0.0122       30.0853       30.0976      28.188787       0.01796
  18     136.5        1.9066        0.0145       30.0312       30.0457      28.139053       0.01912
  17     162.9        1.9040        0.0172       29.9429       29.9601      28.056047       0.02653
  16     196.4        1.9007        0.0207       29.7622       29.7829      27.882134       0.04378
  15     218.7        1.8986        0.0229       29.5677       29.5906      27.692019       0.07218
  14     243.0        1.8963        0.0252       29.2057       29.2310      27.334666       0.12394
  13     269.0        1.8939        0.0275       28.4886       28.5161      26.622156       0.23113
  12     297.5        1.8915        0.0296       27.5307       27.5603      25.668742       0.28277
  11     328.5        1.8892        0.0316       26.4109       26.4424      24.553208       0.30331
  10     361.9        1.8871        0.0334       25.0850       25.1185      23.231385       0.33443
   9     398.1        1.8852        0.0350       23.6233       23.6583      21.773068       0.33976
   8     437.6        1.8839        0.0363       22.0962       22.1325      20.248663       0.32593
   7     480.5        1.8835        0.0373       20.5083       20.5456      18.662159       0.31158
   6     533.0        1.8847        0.0383       18.8057       18.8440      16.959330       0.27393
   5     589.8        1.8885        0.0393       17.2778       17.3170      15.428557       0.22722
   4     651.6        1.8963        0.0402       15.8974       15.9375      14.041268       0.18972
   3     718.7        1.9090        0.0413       14.7088       14.7501      12.841063       0.15083
   2     792.3        1.9275        0.0426       13.7149       13.7575      11.829951       0.11596
   1     891.5        1.9631        0.0444       12.6393       12.6837      10.720607       0.09440
   0    1013.0        2.0364        0.0464       11.5406       11.5869       9.550528       0.08124



 Wavenumbers:  7700. -  8050. cm-1, ATM      1
 LEVEL PRESSURE   UPWARD FLUX   DIFDOWN FLUX  DIRDOWN FLUX  DOWNWARD FLUX   NET FLUX    HEATING RATE
          mb          W/m2          W/m2          W/m2        W/m2          W/m2       degree/day
  51    .06700        1.0227        0.0000        7.2006        7.2006       6.177900       0.00000
  50    .07753        1.0227        0.0000        7.2006        7.2006       6.177881       0.01474
  49    .09103        1.0227        0.0000        7.2005        7.2005       6.177858       0.01444
  48    0.1069        1.0227        0.0000        7.2005        7.2005       6.177832       0.01414
  47    0.1255        1.0227        0.0000        7.2005        7.2005       6.177801       0.01383
  46    0.1487        1.0227        0.0000        7.2004        7.2005       6.177763       0.01404
  45    0.1794        1.0227        0.0000        7.2004        7.2004       6.177710       0.01444
  44    0.2165        1.0227        0.0000        7.2003        7.2003       6.177648       0.01417
  43    0.2613        1.0227        0.0000        7.2003        7.2003       6.177574       0.01390
  42    0.3336        1.0227        0.0000        7.2001        7.2001       6.177452       0.01423
  41    0.4307        1.0227        0.0000        7.2000        7.2000       6.177290       0.01407
  40    0.5894        1.0227        0.0000        7.1997        7.1997       6.177026       0.01405
  39     1.339        1.0227        0.0001        7.1984        7.1985       6.175776       0.01407
  38     1.782        1.0227        0.0001        7.1977        7.1978       6.175042       0.01397
  37     2.292        1.0227        0.0001        7.1968        7.1969       6.174193       0.01406
  36     2.964        1.0227        0.0001        7.1957        7.1958       6.173079       0.01399
  35     3.853        1.0228        0.0002        7.1942        7.1944       6.171607       0.01396
  34     5.035        1.0228        0.0002        7.1922        7.1924       6.169654       0.01395
  33     6.613        1.0228        0.0003        7.1896        7.1899       6.167048       0.01393
  32     8.786        1.0229        0.0004        7.1860        7.1864       6.163542       0.01362
  31     11.80        1.0229        0.0005        7.1810        7.1815       6.158538       0.01401
  30     15.07        1.0230        0.0006        7.1755        7.1762       6.153181       0.01383
  29     18.79        1.0231        0.0008        7.1694        7.1702       6.147150       0.01367
  28     23.16        1.0232        0.0010        7.1623        7.1633       6.140134       0.01357
  27     28.12        1.0233        0.0012        7.1542        7.1555       6.132148       0.01358
  26     33.73        1.0234        0.0014        7.1452        7.1467       6.123259       0.01336
  25     40.54        1.0236        0.0017        7.1344        7.1362       6.112589       0.01324
  24     48.69        1.0238        0.0021        7.1215        7.1236       6.099824       0.01321
  23     57.69        1.0240        0.0025        7.1074        7.1099       6.085927       0.01303
  22     68.43        1.0242        0.0029        7.0909        7.0938       6.069545       0.01288
  21     81.20        1.0245        0.0034        7.0713        7.0748       6.050263       0.01274
  20     96.49        1.0249        0.0041        7.0484        7.0525       6.027616       0.01250
  19     114.6        1.0253        0.0048        7.0217        7.0265       6.001173       0.01235
  18     136.5        1.0259        0.0057        6.9906        6.9963       5.970434       0.01182
  17     162.9        1.0266        0.0068        6.9544        6.9612       5.934635       0.01144
  16     196.4        1.0275        0.0082        6.9087        6.9169       5.889448       0.01137
  15     218.7        1.0281        0.0091        6.8794        6.8885       5.860423       0.01102
  14     243.0        1.0287        0.0100        6.8481        6.8582       5.829409       0.01076
  13     269.0        1.0295        0.0111        6.8147        6.8258       5.796309       0.01074
  12     297.5        1.0304        0.0122        6.7792        6.7914       5.761037       0.01046
  11     328.5        1.0314        0.0134        6.7412        6.7546       5.723264       0.01027
  10     361.9        1.0325        0.0147        6.7005        6.7153       5.682742       0.01025
   9     398.1        1.0339        0.0161        6.6569        6.6730       5.639109       0.01017
   8     437.6        1.0354        0.0176        6.6098        6.6274       5.591957       0.01008
   7     480.5        1.0373        0.0192        6.5585        6.5777       5.540351       0.01014
   6     533.0        1.0400        0.0211        6.4938        6.5150       5.475005       0.01051
   5     589.8        1.0432        0.0232        6.4219        6.4451       5.401873       0.01086
   4     651.6        1.0473        0.0254        6.3413        6.3667       5.319377       0.01128
   3     718.7        1.0523        0.0277        6.2518        6.2796       5.227260       0.01158
   2     792.3        1.0583        0.0302        6.1541        6.1843       5.125977       0.01162
   1     891.5        1.0676        0.0334        6.0183        6.0517       4.984153       0.01207
   0    1013.0        1.0810        0.0371        5.8447        5.8819       4.800838       0.01273



 Wavenumbers:  8050. - 12850. cm-1, ATM      1
 LEVEL PRESSURE   UPWARD FLUX   DIFDOWN FLUX  DIRDOWN FLUX  DOWNWARD FLUX   NET FLUX    HEATING RATE
          mb          W/m2          W/m2          W/m2        W/m2          W/m2       degree/day
  51    .06700       21.4000        0.0000      100.8135      100.8135      79.413470       0.00000
  50    .07753       21.4000        0.0000      100.8135      100.8135      79.413470       0.00000
  49    .09103       21.4000        0.0001      100.8134      100.8135      79.413470       0.00000
  48    0.1069       21.4000        0.0001      100.8134      100.8134      79.413470       0.00000
  47    0.1255       21.3999        0.0001      100.8133      100.8134      79.413470       0.00000
  46    0.1487       21.3999        0.0002      100.8132      100.8134      79.413470       0.00000
  45    0.1794       21.3998        0.0002      100.8131      100.8133      79.413470       0.00000
  44    0.2165       21.3998        0.0003      100.8129      100.8132      79.413470      -0.00000
  43    0.2613       21.3997        0.0004      100.8127      100.8132      79.413470       0.00000
  42    0.3336       21.3996        0.0006      100.8125      100.8130      79.413470      -0.00000
  41    0.4307       21.3994        0.0008      100.8121      100.8129      79.413470       0.00000
  40    0.5894       21.3991        0.0011      100.8115      100.8126      79.413470       0.00000
  39     1.339       21.3978        0.0028      100.8085      100.8113      79.413470      -0.00000
  38     1.782       21.3970        0.0037      100.8068      100.8105      79.413470      -0.00000
  37     2.292       21.3961        0.0048      100.8047      100.8096      79.413470       0.00000
  36     2.964       21.3949        0.0063      100.8021      100.8084      79.413470       0.00000
  35     3.853       21.3933        0.0082      100.7986      100.8068      79.413470       0.00000
  34     5.035       21.3913        0.0108      100.7940      100.8047      79.413470       0.00000
  33     6.613       21.3885        0.0142      100.7878      100.8019      79.413470       0.00000
  32     8.786       21.3847        0.0188      100.7794      100.7982      79.413470      -0.00000
  31     11.80       21.3793        0.0254      100.7674      100.7928      79.413470      -0.00000
  30     15.07       21.3735        0.0324      100.7546      100.7870      79.413470      -0.00000
  29     18.79       21.3670        0.0404      100.7400      100.7804      79.413470       0.00000
  28     23.16       21.3593        0.0498      100.7230      100.7728      79.413470       0.00000
  27     28.12       21.3505        0.0605      100.7035      100.7640      79.413470       0.00000
  26     33.73       21.3407        0.0725      100.6817      100.7542      79.413470       0.00000
  25     40.54       21.3288        0.0870      100.6552      100.7423      79.413470       0.00000
  24     48.69       21.3145        0.1046      100.6234      100.7279      79.413470       0.00000
  23     57.69       21.2987        0.1239      100.5883      100.7121      79.413470      -0.00000
  22     68.43       21.2798        0.1469      100.5464      100.6933      79.413470       0.00000
  21     81.20       21.2573        0.1743      100.4965      100.6708      79.413470      -0.00000
  20     96.49       21.2305        0.2070      100.4370      100.6440      79.413470       0.00000
  19     114.6       21.1986        0.2459      100.3592      100.6052      79.406552       0.00323
  18     136.5       21.1608        0.2922      100.2652      100.5574      79.396585       0.00383
  17     162.9       21.1156        0.3473      100.1447      100.4919      79.376321       0.00648
  16     196.4       21.0570        0.4188       99.9602      100.3790      79.322017       0.01367
  15     218.7       21.0184        0.4659       99.8052      100.2711      79.252674       0.02633
  14     243.0       20.9765        0.5169       99.5751      100.0920      79.115458       0.04759
  13     269.0       20.9315        0.5719       99.1920       99.7639      78.832385       0.09183
  12     297.5       20.8835        0.6309       98.6682       99.2991      78.415527       0.12364
  11     328.5       20.8329        0.6941       97.9756       98.6697      77.836779       0.15736
  10     361.9       20.7803        0.7612       97.0510       97.8122      77.031919       0.20364
   9     398.1       20.7265        0.8321       95.8662       96.6982      75.971740       0.24700
   8     437.6       20.6732        0.9062       94.3791       95.2854      74.612138       0.29069
   7     480.5       20.6238        0.9828       92.4868       93.4696      72.845786       0.34690
   6     533.0       20.5759        1.0730       89.9534       91.0264      70.450535       0.38532
   5     589.8       20.5430        1.1660       87.1579       88.3239      67.780884       0.39626
   4     651.6       20.5353        1.2613       84.1209       85.3821      64.846824       0.40124
   3     718.7       20.5586        1.3596       81.0039       82.3635      61.804916       0.38228
   2     792.3       20.6183        1.4615       77.9559       79.4173      58.799038       0.34474
   1     891.5       20.7720        1.5927       74.1995       75.7923      55.020240       0.32156
   0    1013.0       21.1460        1.7382       69.9262       71.6644      50.518400       0.31259



 Wavenumbers: 12850. - 16000. cm-1, ATM      1
 LEVEL PRESSURE   UPWARD FLUX   DIFDOWN FLUX  DIRDOWN FLUX  DOWNWARD FLUX   NET FLUX    HEATING RATE
          mb          W/m2          W/m2          W/m2        W/m2          W/m2       degree/day
  51    .06700       31.9448        0.0000       63.1686       63.1686      31.223760       0.00000
  50    .07753       31.9448        0.0001       63.1677       63.1678      31.222981       0.62424
  49    .09103       31.9448        0.0001       63.1666       63.1668      31.222010       0.60656
  48    0.1069       31.9447        0.0002       63.1654       63.1656      31.220906       0.58807
  47    0.1255       31.9447        0.0003       63.1640       63.1643      31.219649       0.56950
  46    0.1487       31.9446        0.0004       63.1623       63.1627      31.218083       0.57091
  45    0.1794       31.9446        0.0006       63.1600       63.1605      31.215984       0.57639
  44    0.2165       31.9445        0.0008       63.1573       63.1581      31.213557       0.55211
  43    0.2613       31.9444        0.0010       63.1542       63.1552      31.210758       0.52744
  42    0.3336       31.9443        0.0014       63.1493       63.1507      31.206303       0.51946
  41    0.4307       31.9443        0.0019       63.1431       63.1450      31.200735       0.48411
  40    0.5894       31.9442        0.0027       63.1338       63.1365      31.192312       0.44795
  39     1.339       31.9449        0.0065       63.0956       63.1020      31.157098       0.39644
  38     1.782       31.9462        0.0087       63.0740       63.0827      31.136479       0.39257
  37     2.292       31.9486        0.0113       63.0477       63.0590      31.110391       0.43207
  36     2.964       31.9528        0.0147       63.0095       63.0242      31.071390       0.48958
  35     3.853       31.9602        0.0192       62.9533       62.9724      31.012256       0.56120
  34     5.035       31.9716        0.0251       62.8725       62.8976      30.925997       0.61620
  33     6.613       31.9878        0.0330       62.7621       62.7951      30.807325       0.63442
  32     8.786       32.0086        0.0437       62.6182       62.6619      30.653301       0.59817
  31     11.80       32.0351        0.0589       62.4284       62.4873      30.452120       0.56324
  30     15.07       32.0597        0.0752       62.2426       62.3178      30.258100       0.50092
  29     18.79       32.0839        0.0935       62.0493       62.1428      30.058907       0.45163
  28     23.16       32.1082        0.1149       61.8424       61.9574      29.849174       0.40556
  27     28.12       32.1313        0.1393       61.6278       61.7672      29.635897       0.36256
  26     33.73       32.1503        0.1666       61.4177       61.5843      29.433956       0.30362
  25     40.54       32.1655        0.1995       61.1983       61.3978      29.232238       0.25025
  24     48.69       32.1763        0.2390       60.9680       61.2070      29.030712       0.20855
  23     57.69       32.1808        0.2824       60.7478       61.0302      28.849429       0.16993
  22     68.43       32.1782        0.3341       60.5202       60.8543      28.676034       0.13631
  21     81.20       32.1643        0.3955       60.2938       60.6894      28.525102       0.09973
  20     96.49       32.1376        0.4687       60.0643       60.5330      28.395437       0.07157
  19     114.6       32.1066        0.5561       59.8078       60.3639      28.257354       0.06448
  18     136.5       32.0652        0.6595       59.5158       60.1752      28.110026       0.05665
  17     162.9       32.0118        0.7822       59.1772       59.9594      27.947669       0.05190
  16     196.4       31.9335        0.9410       58.7606       59.7016      27.768115       0.04520
  15     218.7       31.8789        1.0449       58.4952       59.5401      27.661199       0.04059
  14     243.0       31.8182        1.1577       58.2096       59.3672      27.549077       0.03889
  13     269.0       31.7511        1.2796       57.9019       59.1815      27.430428       0.03849
  12     297.5       31.6777        1.4110       57.5695       58.9805      27.302811       0.03785
  11     328.5       31.5986        1.5525       57.2057       58.7582      27.159667       0.03892
  10     361.9       31.5142        1.7045       56.8055       58.5100      26.995777       0.04147
   9     398.1       31.4251        1.8674       56.3628       58.2302      26.805091       0.04443
   8     437.6       31.3325        2.0414       55.8671       57.9085      26.576087       0.04896
   7     480.5       31.2388        2.2268       55.3008       57.5276      26.288734       0.05644
   6     533.0       31.1332        2.4530       54.5566       57.0097      25.876515       0.06631
   5     589.8       31.0322        2.6938       53.7106       56.4044      25.372188       0.07486
   4     651.6       30.9403        2.9484       52.7651       55.7135      24.773180       0.08192
   3     718.7       30.8598        3.2169       51.7416       54.9585      24.098734       0.08476
   2     792.3       30.7941        3.4992       50.6609       54.1601      23.366034       0.08403
   1     891.5       30.7465        3.8715       49.2152       53.0867      22.340211       0.08729
   0    1013.0       30.7746        4.3030       47.4673       51.7704      20.995774       0.09335



 Wavenumbers: 16000. - 22650. cm-1, ATM      1
 LEVEL PRESSURE   UPWARD FLUX   DIFDOWN FLUX  DIRDOWN FLUX  DOWNWARD FLUX   NET FLUX    HEATING RATE
          mb          W/m2          W/m2          W/m2        W/m2          W/m2       degree/day
  51    .06700       75.2225        0.0000      100.7153      100.7153      25.492796       0.00000
  50    .07753       75.2224        0.0003      100.7147      100.7151      25.492679       0.09373
  49    .09103       75.2222        0.0007      100.7140      100.7147      25.492509       0.10631
  48    0.1069       75.2221        0.0012      100.7131      100.7143      25.492281       0.12123
  47    0.1255       75.2219        0.0017      100.7121      100.7139      25.491976       0.13819
  46    0.1487       75.2217        0.0024      100.7108      100.7132      25.491527       0.16375
  45    0.1794       75.2214        0.0034      100.7089      100.7122      25.490825       0.19280
  44    0.2165       75.2211        0.0045      100.7066      100.7110      25.489872       0.21669
  43    0.2613       75.2209        0.0058      100.7037      100.7094      25.488580       0.24360
  42    0.3336       75.2205        0.0079      100.6987      100.7066      25.486123       0.28647
  41    0.4307       75.2202        0.0108      100.6918      100.7026      25.482419       0.32202
  40    0.5894       75.2199        0.0155      100.6797      100.6952      25.475356       0.37560
  39     1.339       75.2240        0.0377      100.6095      100.6472      25.423185       0.58736
  38     1.782       75.2304        0.0507      100.5585      100.6091      25.378754       0.84588
  37     2.292       75.2415        0.0657      100.4903      100.5560      25.314462       1.06486
  36     2.964       75.2619        0.0855      100.3868      100.4722      25.210356       1.30684
  35     3.853       75.2969        0.1116      100.2306      100.3422      25.045287       1.56654
  34     5.035       75.3513        0.1461      100.0045      100.1506      24.799287       1.75732
  33     6.613       75.4281        0.1922       99.6939       99.8861      24.457951       1.82478
  32     8.786       75.5275        0.2542       99.2881       99.5422      24.014720       1.72135
  31     11.80       75.6541        0.3425       98.7496       99.0921      23.437995       1.61465
  30     15.07       75.7719        0.4370       98.2198       98.6568      22.884904       1.42797
  29     18.79       75.8887        0.5434       97.6651       98.2085      22.319786       1.28130
  28     23.16       76.0064        0.6672       97.0671       97.7343      21.727920       1.14448
  27     28.12       76.1191        0.8082       96.4406       97.2488      21.129717       1.01690
  26     33.73       76.2137        0.9655       95.8179       96.7834      20.569747       0.84193
  25     40.54       76.2916        1.1549       95.1548       96.3098      20.018198       0.68426
  24     48.69       76.3502        1.3824       94.4420       95.8243      19.474108       0.56305
  23     57.69       76.3807        1.6312       93.7416       95.3728      18.992080       0.45183
  22     68.43       76.3804        1.9262       92.9954       94.9216      18.541175       0.35447
  21     81.20       76.3300        2.2764       92.2231       94.4995      18.169482       0.24561
  20     96.49       76.2239        2.6917       91.4110       94.1027      17.878803       0.16043
  19     114.6       76.0752        3.1814       90.5070       93.6884      17.613259       0.12399
  18     136.5       75.8842        3.7569       89.4803       93.2372      17.353029       0.10006
  17     162.9       75.6441        4.4354       88.3022       92.7376      17.093464       0.08297
  16     196.4       75.3045        5.3050       86.8607       92.1656      16.861140       0.05848
  15     218.7       75.0719        5.8698       85.9492       91.8191      16.747191       0.04326
  14     243.0       74.8155        6.4782       84.9790       91.4572      16.641734       0.03658
  13     269.0       74.5342        7.1310       83.9495       91.0805      16.546306       0.03096
  12     297.5       74.2274        7.8291       82.8594       90.6885      16.461078       0.02528
  11     328.5       73.8963        8.5748       81.6991       90.2739      16.377623       0.02269
  10     361.9       73.5408        9.3678       80.4685       89.8363      16.295517       0.02077
   9     398.1       73.1602       10.2101       79.1638       89.3739      16.213673       0.01907
   8     437.6       72.7549       11.1019       77.7820       88.8839      16.128999       0.01810
   7     480.5       72.3249       12.0434       76.3203       88.3637      16.038749       0.01772
   6     533.0       71.8031       13.1823       74.5463       87.7286      15.925534       0.01821
   5     589.8       71.2510       14.3854       72.6626       87.0480      15.797014       0.01908
   4     651.6       70.6706       15.6506       70.6679       86.3186      15.647936       0.02039
   3     718.7       70.0626       16.9759       68.5668       85.5427      15.480143       0.02109
   2     792.3       69.4294       18.3558       66.3673       84.7231      15.293781       0.02137
   1     891.5       68.6067       20.1552       63.4752       83.6304      15.023682       0.02298
   0    1013.0       67.6705       22.2207       60.1135       82.3342      14.663668       0.02500



 Wavenumbers: 22650. - 29000. cm-1, ATM      1
 LEVEL PRESSURE   UPWARD FLUX   DIFDOWN FLUX  DIRDOWN FLUX  DOWNWARD FLUX   NET FLUX    HEATING RATE
          mb          W/m2          W/m2          W/m2        W/m2          W/m2       degree/day
  51    .06700       34.3509        0.0000       38.0063       38.0063       3.655402       0.00000
  50    .07753       34.3507        0.0004       38.0057       38.0061       3.655402       0.00000
  49    .09103       34.3505        0.0009       38.0050       38.0059       3.655402      -0.00000
  48    0.1069       34.3503        0.0014       38.0042       38.0057       3.655402       0.00000
  47    0.1255       34.3500        0.0021       38.0033       38.0054       3.655402       0.00000
  46    0.1487       34.3496        0.0029       38.0022       38.0050       3.655402      -0.00000
  45    0.1794       34.3492        0.0040       38.0006       38.0046       3.655402      -0.00000
  44    0.2165       34.3486        0.0053       37.9987       38.0040       3.655402       0.00000
  43    0.2613       34.3479        0.0068       37.9965       38.0033       3.655402       0.00000
  42    0.3336       34.3468        0.0094       37.9928       38.0022       3.655402       0.00000
  41    0.4307       34.3454        0.0128       37.9880       38.0008       3.655402       0.00000
  40    0.5894       34.3430        0.0183       37.9800       37.9984       3.655402       0.00000
  39     1.339       34.3316        0.0446       37.9425       37.9870       3.655402       0.00000
  38     1.782       34.3250        0.0600       37.9204       37.9804       3.655402       0.00000
  37     2.292       34.3173        0.0778       37.8949       37.9727       3.655402       0.00000
  36     2.964       34.3072        0.1012       37.8614       37.9626       3.655402       0.00000
  35     3.853       34.2939        0.1320       37.8172       37.9493       3.655402      -0.00000
  34     5.035       34.2762        0.1730       37.7586       37.9316       3.655402       0.00000
  33     6.613       34.2525        0.2276       37.6803       37.9079       3.655402       0.00000
  32     8.786       34.2208        0.3011       37.5750       37.8762       3.655402       0.00000
  31     11.80       34.1754        0.4060       37.4249       37.8308       3.655402      -0.00000
  30     15.07       34.1269        0.5181       37.2642       37.7823       3.655402       0.00000
  29     18.79       34.0722        0.6443       37.0833       37.7276       3.655402      -0.00000
  28     23.16       34.0087        0.7911       36.8730       37.6641       3.655402       0.00000
  27     28.12       33.9363        0.9580       36.6338       37.5917       3.655402       0.00000
  26     33.73       33.8558        1.1435       36.3677       37.5112       3.655402      -0.00000
  25     40.54       33.7592        1.3661       36.0486       37.4146       3.655402       0.00000
  24     48.69       33.6437        1.6318       35.6672       37.2991       3.655402      -0.00000
  23     57.69       33.5180        1.9207       35.2527       37.1734       3.655402       0.00000
  22     68.43       33.3699        2.2604       34.7649       37.0253       3.655402      -0.00000
  21     81.20       33.1958        2.6590       34.1922       36.8512       3.655402      -0.00000
  20     96.49       32.9917        3.1254       33.5217       36.6471       3.655402       0.00000
  19     114.6       32.7540        3.6670       32.7424       36.4094       3.655402       0.00000
  18     136.5       32.4787        4.2925       31.8416       36.1341       3.655402       0.00000
  17     162.9       32.1596        5.0142       30.8008       35.8150       3.655402       0.00000
  16     196.4       31.7597        5.9144       29.5007       35.4151       3.655402       0.00000
  15     218.7       31.5054        6.4841       28.6767       35.1608       3.655402      -0.00000
  14     243.0       31.2360        7.0846       27.8068       34.8914       3.655402       0.00000
  13     269.0       30.9523        7.7144       26.8934       34.6077       3.655402      -0.00000
  12     297.5       30.6549        8.3709       25.9394       34.3103       3.655402       0.00000
  11     328.5       30.3437        9.0539       24.9452       33.9991       3.655402      -0.00000
  10     361.9       30.0200        9.7593       23.9162       33.6754       3.655402      -0.00000
   9     398.1       29.6843       10.4854       22.8544       33.3397       3.655402       0.00000
   8     437.6       29.3379       11.2284       21.7648       32.9933       3.655402      -0.00000
   7     480.5       28.9818       11.9846       20.6527       32.6372       3.655402       0.00000
   6     533.0       28.5639       12.8617       19.3576       32.2193       3.655402       0.00000
   5     589.8       28.1370       13.7448       18.0476       31.7924       3.655402      -0.00000
   4     651.6       27.7036       14.6264       16.7326       31.3590       3.655402       0.00000
   3     718.7       27.2662       15.4991       15.4225       30.9216       3.655402      -0.00000
   2     792.3       26.8281       16.3532       14.1303       30.4835       3.655402       0.00000
   1     891.5       26.2820       17.3860       12.5514       29.9374       3.655402      -0.00000
   0    1013.0       25.6863       18.4652       10.8765       29.3417       3.655402      -0.00000



 Wavenumbers: 29000. - 38000. cm-1, ATM      1
 LEVEL PRESSURE   UPWARD FLUX   DIFDOWN FLUX  DIRDOWN FLUX  DOWNWARD FLUX   NET FLUX    HEATING RATE
          mb          W/m2          W/m2          W/m2        W/m2          W/m2       degree/day
  51    .06700        4.8873        0.0000       13.4026       13.4026       8.515318       0.00000
  50    .07753        4.8871        0.0003       13.3983       13.3986       8.511520       3.04438
  49    .09103        4.8868        0.0007       13.3921       13.3928       8.506000       3.44966
  48    0.1069        4.8865        0.0011       13.3840       13.3851       8.498624       3.92676
  47    0.1255        4.8861        0.0016       13.3733       13.3749       8.488779       4.46317
  46    0.1487        4.8857        0.0022       13.3579       13.3600       8.474336       5.26437
  45    0.1794        4.8851        0.0030       13.3340       13.3371       8.451937       6.14925
  44    0.2165        4.8845        0.0040       13.3024       13.3064       8.421918       6.82875
  43    0.2613        4.8837        0.0052       13.2604       13.2656       8.381864       7.55009
  42    0.3336        4.8825        0.0070       13.1833       13.1903       8.307857       8.62840
  41    0.4307        4.8809        0.0095       13.0729       13.0824       8.201486       9.24878
  40    0.5894        4.8785        0.0134       12.8796       12.8930       8.014443       9.94668
  39     1.339        4.8701        0.0296       11.9165       11.9462       7.076110      10.56393
  38     1.782        4.8667        0.0379       11.4399       11.4779       6.611134       8.85240
  37     2.292        4.8642        0.0468       10.9796       11.0264       6.162208       7.43539
  36     2.964        4.8628        0.0577       10.4786       10.5364       5.673585       6.13369
  35     3.853        4.8634        0.0712        9.9429       10.0141       5.150736       4.96193
  34     5.035        4.8667        0.0881        9.4007        9.4887       4.622012       3.77698
  33     6.613        4.8730        0.1094        8.8752        8.9846       4.111627       2.72852
  32     8.786        4.8816        0.1369        8.3786        8.5155       3.633899       1.85533
  31     11.80        4.8920        0.1746        7.8897        8.0643       3.172244       1.29249
  30     15.07        4.9011        0.2136        7.5108        7.7244       2.823325       0.90084
  29     18.79        4.9094        0.2560        7.1776        7.4336       2.524238       0.67812
  28     23.16        4.9170        0.3038        6.8664        7.1703       2.253259       0.52399
  27     28.12        4.9231        0.3567        6.5780        6.9347       2.011615       0.41078
  26     33.73        4.9252        0.4142        6.3195        6.7337       1.808491       0.30540
  25     40.54        4.9222        0.4822        6.0663        6.5484       1.626178       0.22618
  24     48.69        4.9136        0.5617        5.8128        6.3746       1.460984       0.17095
  23     57.69        4.8992        0.6466        5.5777        6.2243       1.325132       0.12734
  22     68.43        4.8768        0.7449        5.3379        6.0828       1.205952       0.09369
  21     81.20        4.8422        0.8589        5.0965        5.9554       1.113170       0.06131
  20     96.49        4.7941        0.9906        4.8476        5.8382       1.044065       0.03814
  19     114.6        4.7357        1.1397        4.5799        5.7196       0.983902       0.02809
  18     136.5        4.6680        1.3064        4.2891        5.5955       0.927501       0.02169
  17     162.9        4.5906        1.4911        3.9732        5.4643       0.873720       0.01719
  16     196.4        4.4926        1.7123        3.6080        5.3203       0.827736       0.01157
  15     218.7        4.4308        1.8469        3.3898        5.2367       0.805840       0.00831
  14     243.0        4.3666        1.9840        3.1686        5.1526       0.785974       0.00689
  13     269.0        4.3002        2.1226        2.9461        5.0686       0.768449       0.00569
  12     297.5        4.2320        2.2614        2.7239        4.9853       0.753284       0.00450
  11     328.5        4.1629        2.3990        2.5029        4.9019       0.739036       0.00387
  10     361.9        4.0932        2.5344        2.2846        4.8190       0.725728       0.00337
   9     398.1        4.0235        2.6661        2.0708        4.7368       0.713354       0.00288
   8     437.6        3.9541        2.7931        1.8626        4.6557       0.701649       0.00250
   7     480.5        3.8854        2.9140        1.6621        4.5762       0.690740       0.00214
   6     533.0        3.8083        3.0437        1.4437        4.4873       0.679076       0.00188
   5     589.8        3.7333        3.1620        1.2393        4.4013       0.668010       0.00164
   4     651.6        3.6609        3.2679        1.0504        4.3183       0.657391       0.00145
   3     718.7        3.5915        3.3603        0.8784        4.2387       0.647181       0.00128
   2     792.3        3.5253        3.4384        0.7243        4.1627       0.637361       0.00113
   1     891.5        3.4470        3.5156        0.5568        4.0724       0.625464       0.00101
   0    1013.0        3.3662        3.5743        0.4044        3.9788       0.612608       0.00089



 Wavenumbers: 38000. - 50000. cm-1, ATM      1
 LEVEL PRESSURE   UPWARD FLUX   DIFDOWN FLUX  DIRDOWN FLUX  DOWNWARD FLUX   NET FLUX    HEATING RATE
          mb          W/m2          W/m2          W/m2        W/m2          W/m2       degree/day
  51    .06700        0.0051        0.0000        0.8267        0.8267       0.821528       0.00000
  50    .07753        0.0051        0.0001        0.8242        0.8243       0.819196       1.86936
  49    .09103        0.0050        0.0002        0.8207        0.8209       0.815872       2.07705
  48    0.1069        0.0049        0.0002        0.8162        0.8164       0.811514       2.31984
  47    0.1255        0.0048        0.0004        0.8103        0.8106       0.805801       2.59006
  46    0.1487        0.0047        0.0005        0.8018        0.8023       0.797567       3.00143
  45    0.1794        0.0045        0.0007        0.7889        0.7896       0.785013       3.44648
  44    0.2165        0.0044        0.0009        0.7720        0.7729       0.768507       3.75474
  43    0.2613        0.0042        0.0011        0.7500        0.7511       0.746955       4.06246
  42    0.3336        0.0039        0.0015        0.7106        0.7121       0.708267       4.51071
  41    0.4307        0.0035        0.0019        0.6566        0.6584       0.654972       4.63387
  40    0.5894        0.0029        0.0024        0.5680        0.5704       0.567464       4.65357
  39     1.339        0.0015        0.0030        0.2422        0.2452       0.243720       3.64476
  38     1.782        0.0010        0.0026        0.1493        0.1519       0.150889       1.76735
  37     2.292        0.0007        0.0022        0.0924        0.0946       0.093932       0.94336
  36     2.964        0.0005        0.0018        0.0539        0.0557       0.055224       0.48589
  35     3.853        0.0003        0.0013        0.0295        0.0308       0.030502       0.23462
  34     5.035        0.0002        0.0010        0.0154        0.0164       0.016181       0.10230
  33     6.613        0.0001        0.0007        0.0073        0.0080       0.007912       0.04420
  32     8.786        0.0000        0.0004        0.0030        0.0034       0.003390       0.01756
  31     11.80        0.0000        0.0003        0.0010        0.0012       0.001199       0.00613
  30     15.07        0.0000        0.0001        0.0003        0.0005       0.000463       0.00190
  29     18.79        0.0000        0.0001        0.0001        0.0002       0.000182       0.00064
  28     23.16        0.0000        0.0000        0.0000        0.0001       0.000071       0.00022
  27     28.12        0.0000        0.0000        0.0000        0.0000       0.000028       0.00007
  26     33.73        0.0000        0.0000        0.0000        0.0000       0.000011       0.00002
  25     40.54        0.0000        0.0000        0.0000        0.0000       0.000005       0.00001
  24     48.69        0.0000        0.0000        0.0000        0.0000       0.000002       0.00000
  23     57.69        0.0000        0.0000        0.0000        0.0000       0.000001       0.00000
  22     68.43        0.0000        0.0000        0.0000        0.0000       0.000000       0.00000
  21     81.20        0.0000        0.0000        0.0000        0.0000       0.000000       0.00000
  20     96.49        0.0000        0.0000        0.0000        0.0000       0.000000       0.00000
  19     114.6        0.0000        0.0000        0.0000        0.0000       0.000000       0.00000
  18     136.5        0.0000        0.0000        0.0000        0.0000       0.000000       0.00000
  17     162.9        0.0000        0.0000        0.0000        0.0000       0.000000       0.00000
  16     196.4        0.0000        0.0000        0.0000        0.0000       0.000000       0.00000
  15     218.7        0.0000        0.0000        0.0000        0.0000       0.000000       0.00000
  14     243.0        0.0000        0.0000        0.0000        0.0000       0.000000       0.00000
  13     269.0        0.0000        0.0000        0.0000        0.0000       0.000000       0.00000
  12     297.5        0.0000        0.0000        0.0000        0.0000       0.000000       0.00000
  11     328.5        0.0000        0.0000        0.0000        0.0000       0.000000       0.00000
  10     361.9        0.0000        0.0000        0.0000        0.0000       0.000000       0.00000
   9     398.1        0.0000        0.0000        0.0000        0.0000       0.000000       0.00000
   8     437.6        0.0000        0.0000        0.0000        0.0000       0.000000       0.00000
   7     480.5        0.0000        0.0000        0.0000        0.0000       0.000000       0.00000
   6     533.0        0.0000        0.0000        0.0000        0.0000       0.000000       0.00000
   5     589.8        0.0000        0.0000        0.0000        0.0000       0.000000       0.00000
   4     651.6        0.0000        0.0000        0.0000        0.0000       0.000000       0.00000
   3     718.7        0.0000        0.0000        0.0000        0.0000       0.000000       0.00000
   2     792.3        0.0000        0.0000        0.0000        0.0000       0.000000       0.00000
   1     891.5        0.0000        0.0000        0.0000        0.0000       0.000000       0.00000
   0    1013.0        0.0000        0.0000        0.0000        0.0000       0.000000       0.00000



 Wavenumbers:   820. -  2600. cm-1, ATM      1
 LEVEL PRESSURE   UPWARD FLUX   DIFDOWN FLUX  DIRDOWN FLUX  DOWNWARD FLUX   NET FLUX    HEATING RATE
          mb          W/m2          W/m2          W/m2        W/m2          W/m2       degree/day
  51    .06700        0.1408        0.0000        3.8670        3.8670       3.726223       0.00000
  50    .07753        0.1408        0.0000        3.8643        3.8643       3.723512       2.17255
  49    .09103        0.1408        0.0000        3.8635        3.8635       3.722710       0.50114
  48    0.1069        0.1408        0.0000        3.8626        3.8626       3.721830       0.46882
  47    0.1255        0.1408        0.0000        3.8617        3.8617       3.720881       0.43017
  46    0.1487        0.1408        0.0000        3.8606        3.8606       3.719787       0.39866
  45    0.1794        0.1408        0.0000        3.8593        3.8593       3.718474       0.36037
  44    0.2165        0.1408        0.0000        3.8579        3.8579       3.717124       0.30724
  43    0.2613        0.1408        0.0000        3.8565        3.8565       3.715697       0.26892
  42    0.3336        0.1408        0.0000        3.8543        3.8543       3.713523       0.25349
  41    0.4307        0.1408        0.0000        3.8515        3.8515       3.710718       0.24386
  40    0.5894        0.1408        0.0000        3.8469        3.8469       3.706121       0.24446
  39     1.339        0.1408        0.0000        3.8261        3.8261       3.685351       0.23384
  38     1.782        0.1408        0.0000        3.8147        3.8147       3.673872       0.21855
  37     2.292        0.1408        0.0000        3.8020        3.8020       3.661169       0.21038
  36     2.964        0.1408        0.0000        3.7863        3.7863       3.645456       0.19725
  35     3.853        0.1408        0.0000        3.7668        3.7668       3.626021       0.18444
  34     5.035        0.1408        0.0000        3.7427        3.7427       3.601856       0.17262
  33     6.613        0.1408        0.0000        3.7125        3.7125       3.571752       0.16094
  32     8.786        0.1408        0.0000        3.6764        3.6764       3.535646       0.14022
  31     11.80        0.1408        0.0000        3.6360        3.6360       3.495219       0.11318
  30     15.07        0.1408        0.0000        3.6058        3.6058       3.465001       0.07802
  29     18.79        0.1408        0.0000        3.5823        3.5823       3.441465       0.05336
  28     23.16        0.1408        0.0000        3.5615        3.5615       3.420744       0.04007
  27     28.12        0.1408        0.0000        3.5408        3.5408       3.400018       0.03523
  26     33.73        0.1408        0.0000        3.5187        3.5187       3.377877       0.03329
  25     40.54        0.1408        0.0000        3.4928        3.4928       3.351958       0.03216
  24     48.69        0.1408        0.0000        3.4625        3.4625       3.321663       0.03135
  23     57.69        0.1408        0.0000        3.4306        3.4306       3.289799       0.02987
  22     68.43        0.1408        0.0000        3.3949        3.3949       3.254108       0.02806
  21     81.20        0.1408        0.0000        3.3554        3.3554       3.214590       0.02611
  20     96.49        0.1408        0.0000        3.3118        3.3118       3.170949       0.02409
  19     114.6        0.1408        0.0000        3.2633        3.2633       3.122496       0.02262
  18     136.5        0.1408        0.0000        3.2073        3.2073       3.066438       0.02156
  17     162.9        0.1409        0.0000        3.1336        3.1336       2.992786       0.02354
  16     196.4        0.1409        0.0000        3.0272        3.0272       2.886321       0.02680
  15     218.7        0.1409        0.0000        2.9614        2.9614       2.820471       0.02500
  14     243.0        0.1410        0.0000        2.8816        2.8816       2.740613       0.02770
  13     269.0        0.1410        0.0000        2.7682        2.7682       2.627147       0.03681
  12     297.5        0.1412        0.0000        2.6087        2.6087       2.467554       0.04733
  11     328.5        0.1413        0.0000        2.4029        2.4030       2.261634       0.05599
  10     361.9        0.1416        0.0000        2.1932        2.1932       2.051556       0.05315
   9     398.1        0.1421        0.0000        2.0306        2.0306       1.888566       0.03797
   8     437.6        0.1427        0.0000        1.9138        1.9138       1.771155       0.02510
   7     480.5        0.1435        0.0000        1.8074        1.8074       1.663874       0.02107
   6     533.0        0.1450        0.0000        1.6785        1.6785       1.533540       0.02097
   5     589.8        0.1470        0.0000        1.5480        1.5480       1.401029       0.01967
   4     651.6        0.1500        0.0000        1.4235        1.4235       1.273451       0.01745
   3     718.7        0.1541        0.0000        1.3136        1.3137       1.159628       0.01430
   2     792.3        0.1590        0.0000        1.2161        1.2161       1.057112       0.01176
   1     891.5        0.1673        0.0000        1.0942        1.0942       0.926937       0.01108
   0    1013.0        0.1821        0.0000        0.9364        0.9365       0.754323       0.01199

  Modules and versions used in this calculation:

       rrtmg_sw.1col.f90:  $Revision$                    rrtmg_sw_init.f90:  $Revision$        
     rrtmgsw_cldprop.f90:  $Revision$                  rrtmgsw_cldprmc.f90:  NOT USED          
     rrtmg_sw_reftra.f90:  $Revision$                  rrtmg_sw_spcvrt.f90:  NOT USED          
     rrtmg_sw_spcvmc.f90:  NOT USED                    rrtmgsw_setcoef.f90:  NOT USED          
     rrtmg_sw_taumol.f90:  $Revision$                  rrtmg_sw_vrtqdr.f90:  NOT USED          
                rrtatm.f:  NOT USED                             util_xxx.f:  NOT USED          
                 extra.f:  NOT USED                       rrtmg_sw_k_g.f90:  $Revision$        

