

 Wavenumbers:   820. - 50000. cm-1, ATM      1
 LEVEL PRESSURE   UPWARD FLUX   DIFDOWN FLUX  DIRDOWN FLUX  DOWNWARD FLUX   NET FLUX    HEATING RATE
          mb          W/m2          W/m2          W/m2        W/m2          W/m2       degree/day
  51    .06700      178.1283        0.0000      397.8738      397.8738     219.745507       0.00000
  50    .07753      178.1277        0.0012      397.8579      397.8591     219.731396      11.31070
  49    .09103      178.1269        0.0026      397.8422      397.8448     219.717925       8.41993
  48    0.1069      178.1260        0.0043      397.8236      397.8278     219.701816       8.57469
  47    0.1255      178.1251        0.0062      397.8005      397.8067     219.681642       9.14604
  46    0.1487      178.1239        0.0086      397.7688      397.7774     219.653517      10.25154
  45    0.1794      178.1223        0.0119      397.7221      397.7340     219.611682      11.48489
  44    0.2165      178.1205        0.0158      397.6623      397.6781     219.557588      12.30551
  43    0.2613      178.1184        0.0203      397.5856      397.6059     219.487472      13.21652
  42    0.3336      178.1152        0.0279      397.4486      397.4764     219.361200      14.72206
  41    0.4307      178.1113        0.0377      397.2575      397.2952     219.183938      15.41253
  40    0.5894      178.1053        0.0536      396.9326      396.9862     218.880839      16.11841
  39     1.339      178.0880        0.1244      395.4420      395.5664     217.478381      15.78913
  38     1.782      178.0849        0.1641      394.7504      394.9145     216.829571      12.35230
  37     2.292      178.0875        0.2093      394.0843      394.2935     216.206065      10.32688
  36     2.964      178.1000        0.2679      393.3347      393.6026     215.502625       8.83031
  35     3.853      178.1292        0.3445      392.4744      392.8189     214.689740       7.71443
  34     5.035      178.1806        0.4453      391.4971      391.9425     213.761868       6.62833
  33     6.613      178.2562        0.5789      390.3920      390.9708     212.714627       5.59855
  32     8.786      178.3532        0.7574      389.1413      389.8988     211.545516       4.54040
  31     11.80      178.4710        1.0108      387.6453      388.6561     210.185119       3.80868
  30     15.07      178.5729        1.2806      386.2665      387.5471     208.974233       3.12627
  29     18.79      178.6660        1.5830      384.8775      386.4605     207.794473       2.67488
  28     23.16      178.7495        1.9332      383.4139      385.3471     206.597570       2.31442
  27     28.12      178.8155        2.3304      381.8968      384.2272     205.411731       2.01585
  26     33.73      178.8459        2.7717      380.3805      383.1522     204.306238       1.66214
  25     40.54      178.8325        3.3007      378.7406      382.0413     203.208767       1.36154
  24     48.69      178.7684        3.9328      376.9451      380.8779     202.109558       1.13751
  23     57.69      178.6519        4.6205      375.1399      379.7604     201.108469       0.93837
  22     68.43      178.4640        5.4310      373.1636      378.5947     200.130683       0.76867
  21     81.20      178.1721        6.3862      371.0327      377.4189     199.246799       0.58406
  20     96.49      177.7631        7.5097      368.7081      376.2178     198.454676       0.43719
  19     114.6      177.2569        8.8214      366.0857      374.9071     197.650187       0.37564
  18     136.5      176.6453       10.3444      363.1038      373.4482     196.802870       0.32581
  17     162.9      175.9122       12.1141      359.6530      371.7672     195.855025       0.30297
  16     196.4      174.9399       14.3444      355.2888      369.6332     194.693331       0.29241
  15     218.7      174.2993       15.7703      352.4045      368.1748     193.875501       0.31050
  14     243.0      173.6084       17.2865      349.1293      366.4158     192.807443       0.37044
  13     269.0      172.8667       18.8914      345.1378      364.0291     191.162462       0.53362
  12     297.5      172.0749       20.5824      340.4449      361.0273     188.952406       0.65548
  11     328.5      171.2360       22.3611      335.1397      357.5007     186.264734       0.73077
  10     361.9      170.3529       24.2221      329.2946      353.5167     183.163847       0.78456
   9     398.1      169.4264       26.1653      322.9001      349.0654     179.639043       0.82120
   8     437.6      168.4617       28.1849      315.9286      344.1136     175.651848       0.85249
   7     480.5      167.4652       30.2772      308.3319      338.6091     171.143903       0.88534
   6     533.0      166.2948       32.7537      299.2240      331.9777     165.682947       0.87849
   5     589.8      165.1059       35.3089      289.8475      325.1565     160.050583       0.83603
   4     651.6      163.9193       37.9321      280.2468      318.1789     154.259582       0.79194
   3     718.7      162.7471       40.6148      270.7532      311.3680     148.620939       0.70862
   2     792.3      161.6026       43.3429      261.5128      304.8557     143.253065       0.61563
   1     891.5      160.2602       46.8056      250.0064      296.8121     136.551815       0.57024
   0    1013.0      159.0660       50.6542      236.9118      287.5660     128.500006       0.55908



 Wavenumbers:  2600. -  3250. cm-1, ATM      1
 LEVEL PRESSURE   UPWARD FLUX   DIFDOWN FLUX  DIRDOWN FLUX  DOWNWARD FLUX   NET FLUX    HEATING RATE
          mb          W/m2          W/m2          W/m2        W/m2          W/m2       degree/day
  51    .06700        0.3284        0.0000        3.5066        3.5066       3.178189       0.00000
  50    .07753        0.3284        0.0000        3.5066        3.5066       3.178181       0.00640
  49    .09103        0.3284        0.0000        3.5066        3.5066       3.178171       0.00627
  48    0.1069        0.3284        0.0000        3.5066        3.5066       3.178160       0.00613
  47    0.1255        0.3284        0.0000        3.5066        3.5066       3.178147       0.00599
  46    0.1487        0.3284        0.0000        3.5066        3.5066       3.178130       0.00607
  45    0.1794        0.3284        0.0000        3.5065        3.5065       3.178107       0.00624
  44    0.2165        0.3284        0.0000        3.5065        3.5065       3.178080       0.00611
  43    0.2613        0.3284        0.0000        3.5065        3.5065       3.178049       0.00598
  42    0.3336        0.3284        0.0000        3.5064        3.5064       3.177996       0.00615
  41    0.4307        0.3284        0.0000        3.5064        3.5064       3.177925       0.00618
  40    0.5894        0.3284        0.0000        3.5062        3.5062       3.177806       0.00633
  39     1.339        0.3284        0.0000        3.5055        3.5055       3.177107       0.00787
  38     1.782        0.3284        0.0000        3.5050        3.5050       3.176576       0.01011
  37     2.292        0.3284        0.0000        3.5043        3.5043       3.175884       0.01147
  36     2.964        0.3284        0.0000        3.5033        3.5033       3.174892       0.01245
  35     3.853        0.3284        0.0000        3.5019        3.5019       3.173515       0.01307
  34     5.035        0.3284        0.0000        3.5001        3.5001       3.171654       0.01329
  33     6.613        0.3284        0.0000        3.4977        3.4977       3.169245       0.01288
  32     8.786        0.3284        0.0000        3.4947        3.4947       3.166274       0.01154
  31     11.80        0.3284        0.0000        3.4911        3.4911       3.162638       0.01018
  30     15.07        0.3284        0.0000        3.4878        3.4878       3.159417       0.00832
  29     18.79        0.3284        0.0000        3.4848        3.4848       3.156353       0.00695
  28     23.16        0.3284        0.0000        3.4816        3.4816       3.153133       0.00623
  27     28.12        0.3284        0.0000        3.4779        3.4779       3.149515       0.00615
  26     33.73        0.3284        0.0000        3.4735        3.4735       3.145048       0.00672
  25     40.54        0.3284        0.0000        3.4671        3.4671       3.138720       0.00785
  24     48.69        0.3284        0.0000        3.4582        3.4583       3.129824       0.00921
  23     57.69        0.3284        0.0000        3.4472        3.4472       3.118773       0.01036
  22     68.43        0.3284        0.0000        3.4329        3.4329       3.104510       0.01121
  21     81.20        0.3284        0.0000        3.4152        3.4152       3.086776       0.01172
  20     96.49        0.3285        0.0000        3.3940        3.3941       3.065624       0.01167
  19     114.6        0.3285        0.0000        3.3697        3.3697       3.041222       0.01139
  18     136.5        0.3285        0.0001        3.3430        3.3430       3.014532       0.01026
  17     162.9        0.3285        0.0001        3.3148        3.3149       2.986365       0.00900
  16     196.4        0.3286        0.0001        3.2836        3.2837       2.955078       0.00788
  15     218.7        0.3287        0.0001        3.2651        3.2651       2.936468       0.00707
  14     243.0        0.3288        0.0001        3.2446        3.2447       2.915898       0.00713
  13     269.0        0.3289        0.0001        3.2184        3.2185       2.889540       0.00855
  12     297.5        0.3292        0.0001        3.1851        3.1852       2.855997       0.00995
  11     328.5        0.3296        0.0001        3.1416        3.1417       2.812138       0.01193
  10     361.9        0.3301        0.0001        3.0839        3.0840       2.753988       0.01471
   9     398.1        0.3308        0.0001        3.0089        3.0090       2.678218       0.01765
   8     437.6        0.3318        0.0001        2.9121        2.9122       2.580486       0.02090
   7     480.5        0.3332        0.0002        2.7902        2.7903       2.457154       0.02422
   6     533.0        0.3355        0.0002        2.6297        2.6299       2.294422       0.02618
   5     589.8        0.3388        0.0002        2.4613        2.4614       2.122668       0.02549
   4     651.6        0.3435        0.0002        2.2902        2.2903       1.946884       0.02404
   3     718.7        0.3498        0.0002        2.1226        2.1227       1.772914       0.02186
   2     792.3        0.3581        0.0002        1.9613        1.9615       1.603466       0.01943
   1     891.5        0.3720        0.0002        1.7666        1.7668       1.394778       0.01776
   0    1013.0        0.3962        0.0002        1.5532        1.5534       1.157186       0.01650



 Wavenumbers:  3250. -  4000. cm-1, ATM      1
 LEVEL PRESSURE   UPWARD FLUX   DIFDOWN FLUX  DIRDOWN FLUX  DOWNWARD FLUX   NET FLUX    HEATING RATE
          mb          W/m2          W/m2          W/m2        W/m2          W/m2       degree/day
  51    .06700        0.0152        0.0000        5.9117        5.9117       5.896473       0.00000
  50    .07753        0.0152        0.0000        5.9076        5.9076       5.892373       3.28630
  49    .09103        0.0152        0.0000        5.9052        5.9052       5.890029       1.46493
  48    0.1069        0.0152        0.0000        5.9034        5.9034       5.888260       0.94188
  47    0.1255        0.0152        0.0000        5.9018        5.9018       5.886598       0.75314
  46    0.1487        0.0152        0.0000        5.9000        5.9000       5.884816       0.64980
  45    0.1794        0.0152        0.0000        5.8980        5.8980       5.882798       0.55395
  44    0.2165        0.0152        0.0000        5.8960        5.8960       5.880830       0.44766
  43    0.2613        0.0152        0.0000        5.8940        5.8940       5.878850       0.37314
  42    0.3336        0.0152        0.0000        5.8912        5.8912       5.875990       0.33349
  41    0.4307        0.0152        0.0000        5.8877        5.8877       5.872552       0.29895
  40    0.5894        0.0152        0.0000        5.8825        5.8825       5.867306       0.27896
  39     1.339        0.0152        0.0000        5.8633        5.8633       5.848151       0.21565
  38     1.782        0.0152        0.0000        5.8554        5.8554       5.840200       0.15138
  37     2.292        0.0152        0.0000        5.8477        5.8477       5.832540       0.12686
  36     2.964        0.0152        0.0000        5.8388        5.8388       5.823610       0.11210
  35     3.853        0.0152        0.0000        5.8276        5.8276       5.812425       0.10615
  34     5.035        0.0152        0.0000        5.8128        5.8128       5.797653       0.10552
  33     6.613        0.0152        0.0000        5.7927        5.7927       5.777539       0.10753
  32     8.786        0.0152        0.0000        5.7646        5.7646       5.749429       0.10917
  31     11.80        0.0152        0.0000        5.7232        5.7232       5.708016       0.11594
  30     15.07        0.0152        0.0000        5.6781        5.6781       5.662954       0.11634
  29     18.79        0.0152        0.0000        5.6279        5.6279       5.612767       0.11379
  28     23.16        0.0151        0.0000        5.5723        5.5723       5.557181       0.10748
  27     28.12        0.0151        0.0000        5.5143        5.5143       5.499181       0.09860
  26     33.73        0.0151        0.0000        5.4564        5.4564       5.441281       0.08705
  25     40.54        0.0151        0.0001        5.3939        5.3939       5.378785       0.07753
  24     48.69        0.0151        0.0001        5.3247        5.3248       5.309698       0.07149
  23     57.69        0.0151        0.0001        5.2520        5.2520       5.236940       0.06820
  22     68.43        0.0151        0.0001        5.1670        5.1671       5.152017       0.06676
  21     81.20        0.0151        0.0001        5.0686        5.0687       5.053594       0.06504
  20     96.49        0.0151        0.0001        4.9577        4.9578       4.942725       0.06119
  19     114.6        0.0150        0.0001        4.8339        4.8340       4.818971       0.05778
  18     136.5        0.0150        0.0002        4.6994        4.6995       4.684506       0.05170
  17     162.9        0.0150        0.0002        4.5437        4.5438       4.528867       0.04975
  16     196.4        0.0149        0.0002        4.3299        4.3301       4.315201       0.05378
  15     218.7        0.0149        0.0002        4.1656        4.1658       4.150915       0.06237
  14     243.0        0.0149        0.0003        3.9660        3.9663       3.951367       0.06921
  13     269.0        0.0149        0.0003        3.6958        3.6961       3.681214       0.08764
  12     297.5        0.0149        0.0003        3.3605        3.3608       3.345908       0.09945
  11     328.5        0.0149        0.0003        2.9676        2.9679       2.952962       0.10684
  10     361.9        0.0149        0.0003        2.5650        2.5653       2.550309       0.10188
   9     398.1        0.0150        0.0002        2.1968        2.1971       2.182033       0.08580
   8     437.6        0.0152        0.0002        1.8621        1.8624       1.847155       0.07160
   7     480.5        0.0155        0.0002        1.5472        1.5474       1.531897       0.06192
   6     533.0        0.0161        0.0002        1.2264        1.2266       1.210504       0.05170
   5     589.8        0.0172        0.0002        0.9439        0.9441       0.926837       0.04211
   4     651.6        0.0191        0.0001        0.6883        0.6885       0.669416       0.03520
   3     718.7        0.0220        0.0001        0.4808        0.4809       0.458898       0.02646
   2     792.3        0.0267        0.0001        0.3254        0.3255       0.298741       0.01837
   1     891.5        0.0371        0.0001        0.1804        0.1804       0.143298       0.01323
   0    1013.0        0.0651        0.0000        0.0687        0.0687       0.003578       0.00970



 Wavenumbers:  4000. -  4650. cm-1, ATM      1
 LEVEL PRESSURE   UPWARD FLUX   DIFDOWN FLUX  DIRDOWN FLUX  DOWNWARD FLUX   NET FLUX    HEATING RATE
          mb          W/m2          W/m2          W/m2        W/m2          W/m2       degree/day
  51    .06700        0.7276        0.0000        6.9421        6.9421       6.214480       0.00000
  50    .07753        0.7276        0.0000        6.9421        6.9421       6.214479       0.00080
  49    .09103        0.7276        0.0000        6.9421        6.9421       6.214478       0.00078
  48    0.1069        0.7276        0.0000        6.9421        6.9421       6.214476       0.00077
  47    0.1255        0.7276        0.0000        6.9421        6.9421       6.214474       0.00075
  46    0.1487        0.7276        0.0000        6.9421        6.9421       6.214472       0.00076
  45    0.1794        0.7276        0.0000        6.9421        6.9421       6.214469       0.00078
  44    0.2165        0.7276        0.0000        6.9421        6.9421       6.214466       0.00077
  43    0.2613        0.7276        0.0000        6.9421        6.9421       6.214462       0.00075
  42    0.3336        0.7276        0.0000        6.9420        6.9420       6.214456       0.00077
  41    0.4307        0.7276        0.0000        6.9420        6.9420       6.214447       0.00078
  40    0.5894        0.7276        0.0000        6.9420        6.9420       6.214432       0.00080
  39     1.339        0.7276        0.0000        6.9419        6.9419       6.214342       0.00101
  38     1.782        0.7276        0.0000        6.9418        6.9419       6.214272       0.00134
  37     2.292        0.7276        0.0000        6.9418        6.9418       6.214177       0.00156
  36     2.964        0.7276        0.0000        6.9416        6.9416       6.214037       0.00177
  35     3.853        0.7276        0.0000        6.9414        6.9414       6.213828       0.00198
  34     5.035        0.7276        0.0000        6.9411        6.9411       6.213521       0.00220
  33     6.613        0.7276        0.0000        6.9406        6.9406       6.213069       0.00242
  32     8.786        0.7276        0.0000        6.9399        6.9400       6.212402       0.00259
  31     11.80        0.7276        0.0000        6.9389        6.9389       6.211358       0.00292
  30     15.07        0.7275        0.0001        6.9376        6.9377       6.210137       0.00315
  29     18.79        0.7275        0.0001        6.9361        6.9362       6.208664       0.00334
  28     23.16        0.7275        0.0001        6.9343        6.9344       6.206843       0.00352
  27     28.12        0.7275        0.0001        6.9320        6.9322       6.204649       0.00373
  26     33.73        0.7275        0.0001        6.9293        6.9294       6.201955       0.00405
  25     40.54        0.7275        0.0001        6.9256        6.9258       6.198323       0.00451
  24     48.69        0.7274        0.0002        6.9208        6.9210       6.193515       0.00498
  23     57.69        0.7274        0.0002        6.9151        6.9153       6.187857       0.00530
  22     68.43        0.7274        0.0003        6.9080        6.9082       6.180822       0.00553
  21     81.20        0.7274        0.0003        6.8993        6.8996       6.172219       0.00568
  20     96.49        0.7274        0.0004        6.8888        6.8892       6.161828       0.00574
  19     114.6        0.7274        0.0004        6.8761        6.8765       6.149181       0.00591
  18     136.5        0.7274        0.0005        6.8609        6.8614       6.134002       0.00584
  17     162.9        0.7274        0.0006        6.8423        6.8429       6.115501       0.00591
  16     196.4        0.7274        0.0007        6.8170        6.8177       6.090320       0.00634
  15     218.7        0.7275        0.0008        6.7993        6.8001       6.072596       0.00673
  14     243.0        0.7276        0.0009        6.7780        6.7788       6.051278       0.00739
  13     269.0        0.7278        0.0010        6.7505        6.7514       6.023686       0.00895
  12     297.5        0.7280        0.0011        6.7155        6.7166       5.988525       0.01043
  11     328.5        0.7285        0.0012        6.6703        6.6715       5.943001       0.01238
  10     361.9        0.7291        0.0013        6.6114        6.6127       5.883576       0.01504
   9     398.1        0.7299        0.0014        6.5358        6.5372       5.807280       0.01778
   8     437.6        0.7310        0.0015        6.4421        6.4437       5.712634       0.02024
   7     480.5        0.7324        0.0016        6.3292        6.3309       5.598409       0.02243
   6     533.0        0.7346        0.0018        6.1868        6.1886       5.453997       0.02323
   5     589.8        0.7376        0.0019        6.0320        6.0340       5.296352       0.02340
   4     651.6        0.7418        0.0021        5.8528        5.8549       5.113125       0.02506
   3     718.7        0.7473        0.0023        5.6515        5.6537       4.906467       0.02597
   2     792.3        0.7543        0.0024        5.4423        5.4447       4.690444       0.02478
   1     891.5        0.7662        0.0026        5.1795        5.1821       4.415906       0.02336
   0    1013.0        0.7871        0.0028        4.8851        4.8879       4.100800       0.02188



 Wavenumbers:  4650. -  5150. cm-1, ATM      1
 LEVEL PRESSURE   UPWARD FLUX   DIFDOWN FLUX  DIRDOWN FLUX  DOWNWARD FLUX   NET FLUX    HEATING RATE
          mb          W/m2          W/m2          W/m2        W/m2          W/m2       degree/day
  51    .06700        0.5054        0.0000        6.5710        6.5710       6.065635       0.00000
  50    .07753        0.5054        0.0000        6.5708        6.5708       6.065401       0.18753
  49    .09103        0.5054        0.0000        6.5705        6.5705       6.065110       0.18232
  48    0.1069        0.5054        0.0000        6.5701        6.5701       6.064778       0.17681
  47    0.1255        0.5054        0.0000        6.5698        6.5698       6.064400       0.17117
  46    0.1487        0.5054        0.0000        6.5693        6.5693       6.063930       0.17147
  45    0.1794        0.5054        0.0000        6.5687        6.5687       6.063298       0.17351
  44    0.2165        0.5054        0.0000        6.5679        6.5679       6.062565       0.16671
  43    0.2613        0.5054        0.0000        6.5671        6.5671       6.061718       0.15966
  42    0.3336        0.5054        0.0000        6.5657        6.5657       6.060364       0.15784
  41    0.4307        0.5054        0.0000        6.5640        6.5640       6.058654       0.14868
  40    0.5894        0.5054        0.0000        6.5614        6.5614       6.056055       0.13818
  39     1.339        0.5053        0.0000        6.5517        6.5517       6.046343       0.10935
  38     1.782        0.5053        0.0000        6.5475        6.5475       6.042154       0.07975
  37     2.292        0.5053        0.0000        6.5436        6.5436       6.038291       0.06398
  36     2.964        0.5053        0.0000        6.5397        6.5397       6.034360       0.04935
  35     3.853        0.5053        0.0000        6.5358        6.5358       6.030438       0.03721
  34     5.035        0.5053        0.0000        6.5318        6.5318       6.026456       0.02845
  33     6.613        0.5053        0.0000        6.5274        6.5274       6.022080       0.02339
  32     8.786        0.5053        0.0000        6.5219        6.5219       6.016606       0.02126
  31     11.80        0.5053        0.0001        6.5138        6.5139       6.008556       0.02254
  30     15.07        0.5053        0.0001        6.5044        6.5045       5.999221       0.02410
  29     18.79        0.5053        0.0001        6.4929        6.4930       5.987747       0.02602
  28     23.16        0.5053        0.0001        6.4783        6.4785       5.973207       0.02812
  27     28.12        0.5052        0.0002        6.4604        6.4605       5.955296       0.03045
  26     33.73        0.5052        0.0002        6.4390        6.4392       5.933941       0.03211
  25     40.54        0.5052        0.0002        6.4119        6.4121       5.906913       0.03353
  24     48.69        0.5052        0.0003        6.3783        6.3786       5.873396       0.03468
  23     57.69        0.5052        0.0003        6.3413        6.3416       5.836437       0.03464
  22     68.43        0.5051        0.0004        6.2982        6.2985       5.793402       0.03383
  21     81.20        0.5051        0.0004        6.2495        6.2499       5.744762       0.03214
  20     96.49        0.5051        0.0005        6.1962        6.1967       5.691583       0.02935
  19     114.6        0.5051        0.0006        6.1398        6.1404       5.635247       0.02631
  18     136.5        0.5052        0.0007        6.0809        6.0816       5.576461       0.02260
  17     162.9        0.5052        0.0009        6.0183        6.0192       5.513959       0.01998
  16     196.4        0.5054        0.0010        5.9430        5.9440       5.438671       0.01895
  15     218.7        0.5055        0.0011        5.8939        5.8950       5.389516       0.01866
  14     243.0        0.5056        0.0012        5.8388        5.8401       5.334426       0.01911
  13     269.0        0.5059        0.0014        5.7754        5.7768       5.270932       0.02060
  12     297.5        0.5062        0.0015        5.7009        5.7024       5.196174       0.02217
  11     328.5        0.5067        0.0016        5.6123        5.6140       5.107252       0.02418
  10     361.9        0.5074        0.0018        5.5079        5.5097       5.002242       0.02657
   9     398.1        0.5083        0.0019        5.3874        5.3893       4.880977       0.02825
   8     437.6        0.5096        0.0021        5.2486        5.2507       4.741101       0.02991
   7     480.5        0.5113        0.0022        5.0898        5.0920       4.580746       0.03149
   6     533.0        0.5139        0.0024        4.8876        4.8900       4.376106       0.03292
   5     589.8        0.5175        0.0025        4.6698        4.6724       4.154872       0.03284
   4     651.6        0.5223        0.0027        4.4426        4.4453       3.922992       0.03171
   3     718.7        0.5287        0.0028        4.2160        4.2189       3.690189       0.02926
   2     792.3        0.5369        0.0030        3.9965        3.9995       3.462566       0.02611
   1     891.5        0.5506        0.0032        3.7296        3.7328       3.182180       0.02386
   0    1013.0        0.5732        0.0034        3.4372        3.4405       2.867356       0.02186



 Wavenumbers:  5150. -  6150. cm-1, ATM      1
 LEVEL PRESSURE   UPWARD FLUX   DIFDOWN FLUX  DIRDOWN FLUX  DOWNWARD FLUX   NET FLUX    HEATING RATE
          mb          W/m2          W/m2          W/m2        W/m2          W/m2       degree/day
  51    .06700        1.3761        0.0000       16.4735       16.4735      15.097378       0.00000
  50    .07753        1.3761        0.0000       16.4735       16.4735      15.097364       0.01115
  49    .09103        1.3761        0.0000       16.4735       16.4735      15.097345       0.01135
  48    0.1069        1.3761        0.0000       16.4735       16.4735      15.097324       0.01155
  47    0.1255        1.3761        0.0000       16.4734       16.4734      15.097298       0.01173
  46    0.1487        1.3761        0.0000       16.4734       16.4734      15.097264       0.01235
  45    0.1794        1.3761        0.0000       16.4733       16.4733      15.097216       0.01320
  44    0.2165        1.3761        0.0000       16.4733       16.4733      15.097157       0.01345
  43    0.2613        1.3761        0.0000       16.4732       16.4732      15.097084       0.01364
  42    0.3336        1.3761        0.0000       16.4731       16.4731      15.096961       0.01441
  41    0.4307        1.3761        0.0000       16.4729       16.4729      15.096791       0.01475
  40    0.5894        1.3761        0.0000       16.4726       16.4726      15.096507       0.01512
  39     1.339        1.3761        0.0000       16.4712       16.4712      15.095113       0.01570
  38     1.782        1.3761        0.0000       16.4703       16.4704      15.094284       0.01576
  37     2.292        1.3761        0.0001       16.4693       16.4694      15.093327       0.01587
  36     2.964        1.3761        0.0001       16.4681       16.4681      15.092071       0.01576
  35     3.853        1.3760        0.0001       16.4664       16.4665      15.090419       0.01568
  34     5.035        1.3760        0.0001       16.4641       16.4643      15.088236       0.01559
  33     6.613        1.3760        0.0002       16.4612       16.4613      15.085348       0.01544
  32     8.786        1.3759        0.0002       16.4572       16.4575      15.081516       0.01488
  31     11.80        1.3759        0.0003       16.4517       16.4520      15.076160       0.01499
  30     15.07        1.3758        0.0004       16.4460       16.4464      15.070577       0.01441
  29     18.79        1.3757        0.0005       16.4397       16.4402      15.064475       0.01384
  28     23.16        1.3757        0.0006       16.4327       16.4333      15.057611       0.01327
  27     28.12        1.3756        0.0007       16.4249       16.4256      15.050079       0.01280
  26     33.73        1.3755        0.0009       16.4166       16.4175      15.042011       0.01213
  25     40.54        1.3753        0.0010       16.4071       16.4081      15.032778       0.01146
  24     48.69        1.3752        0.0012       16.3962       16.3975      15.022268       0.01088
  23     57.69        1.3751        0.0015       16.3851       16.3866      15.011546       0.01005
  22     68.43        1.3749        0.0017       16.3730       16.3747      14.999852       0.00919
  21     81.20        1.3747        0.0021       16.3595       16.3616      14.986874       0.00858
  20     96.49        1.3744        0.0025       16.3441       16.3466      14.972160       0.00812
  19     114.6        1.3742        0.0029       16.3263       16.3292      14.955067       0.00798
  18     136.5        1.3738        0.0035       16.3031       16.3065      14.932689       0.00861
  17     162.9        1.3735        0.0041       16.2642       16.2683      14.894860       0.01209
  16     196.4        1.3730        0.0050       16.1855       16.1904      14.817449       0.01949
  15     218.7        1.3727        0.0055       16.1027       16.1082      14.735554       0.03109
  14     243.0        1.3724        0.0061       15.9476       15.9537      14.581282       0.05351
  13     269.0        1.3721        0.0066       15.6275       15.6341      14.262039       0.10356
  12     297.5        1.3718        0.0072       15.1924       15.1996      13.827780       0.12880
  11     328.5        1.3716        0.0077       14.7024       14.7101      13.338453       0.13305
  10     361.9        1.3715        0.0082       14.1257       14.1339      12.762395       0.14575
   9     398.1        1.3716        0.0087       13.4599       13.4687      12.097113       0.15500
   8     437.6        1.3718        0.0092       12.7416       12.7507      11.378907       0.15356
   7     480.5        1.3725        0.0095       11.9805       11.9900      10.617491       0.14954
   6     533.0        1.3739        0.0099       11.1627       11.1726       9.798650       0.13173
   5     589.8        1.3764        0.0103       10.4677       10.4780       9.101603       0.10346
   4     651.6        1.3806        0.0108        9.9021        9.9128       8.532251       0.07786
   3     718.7        1.3869        0.0113        9.4724        9.4838       8.096899       0.05471
   2     792.3        1.3956        0.0120        9.1387        9.1507       7.755074       0.03920
   1     891.5        1.4119        0.0130        8.7701        8.7831       7.371128       0.03267
   0    1013.0        1.4438        0.0141        8.3406        8.3547       6.910968       0.03195



 Wavenumbers:  6150. -  7700. cm-1, ATM      1
 LEVEL PRESSURE   UPWARD FLUX   DIFDOWN FLUX  DIRDOWN FLUX  DOWNWARD FLUX   NET FLUX    HEATING RATE
          mb          W/m2          W/m2          W/m2        W/m2          W/m2       degree/day
  51    .06700        2.2609        0.0000       30.4684       30.4684      28.207469       0.00000
  50    .07753        2.2609        0.0000       30.4683       30.4684      28.207439       0.02439
  49    .09103        2.2609        0.0000       30.4683       30.4683      28.207400       0.02435
  48    0.1069        2.2609        0.0000       30.4683       30.4683      28.207354       0.02431
  47    0.1255        2.2609        0.0000       30.4682       30.4682      28.207301       0.02425
  46    0.1487        2.2609        0.0000       30.4681       30.4681      28.207232       0.02509
  45    0.1794        2.2609        0.0000       30.4680       30.4680      28.207136       0.02634
  44    0.2165        2.2609        0.0000       30.4679       30.4679      28.207020       0.02638
  43    0.2613        2.2609        0.0000       30.4678       30.4678      28.206880       0.02636
  42    0.3336        2.2609        0.0000       30.4675       30.4675      28.206645       0.02745
  41    0.4307        2.2609        0.0000       30.4672       30.4672      28.206326       0.02769
  40    0.5894        2.2609        0.0001       30.4666       30.4667      28.205799       0.02806
  39     1.339        2.2608        0.0001       30.4639       30.4640      28.203256       0.02863
  38     1.782        2.2607        0.0002       30.4623       30.4625      28.201760       0.02848
  37     2.292        2.2607        0.0002       30.4605       30.4607      28.200035       0.02857
  36     2.964        2.2606        0.0003       30.4581       30.4584      28.197781       0.02829
  35     3.853        2.2605        0.0004       30.4549       30.4554      28.194824       0.02806
  34     5.035        2.2604        0.0005       30.4508       30.4513      28.190930       0.02782
  33     6.613        2.2602        0.0007       30.4453       30.4460      28.185788       0.02749
  32     8.786        2.2600        0.0009       30.4381       30.4390      28.178973       0.02647
  31     11.80        2.2597        0.0013       30.4279       30.4292      28.169448       0.02667
  30     15.07        2.2594        0.0016       30.4173       30.4189      28.159507       0.02566
  29     18.79        2.2590        0.0020       30.4056       30.4076      28.148615       0.02470
  28     23.16        2.2586        0.0025       30.3924       30.3949      28.136318       0.02378
  27     28.12        2.2581        0.0030       30.3778       30.3808      28.122769       0.02303
  26     33.73        2.2575        0.0036       30.3621       30.3657      28.108225       0.02187
  25     40.54        2.2568        0.0044       30.3440       30.3484      28.091522       0.02072
  24     48.69        2.2560        0.0052       30.3233       30.3285      28.072491       0.01969
  23     57.69        2.2551        0.0062       30.3018       30.3080      28.052873       0.01839
  22     68.43        2.2540        0.0074       30.2779       30.2853      28.031252       0.01700
  21     81.20        2.2528        0.0087       30.2512       30.2599      28.007131       0.01594
  20     96.49        2.2512        0.0104       30.2207       30.2311      27.979850       0.01506
  19     114.6        2.2494        0.0123       30.1856       30.1979      27.948459       0.01466
  18     136.5        2.2473        0.0146       30.1417       30.1563      27.909059       0.01515
  17     162.9        2.2447        0.0174       30.0744       30.0917      27.847031       0.01983
  16     196.4        2.2414        0.0209       29.9429       29.9637      27.722355       0.03138
  15     218.7        2.2392        0.0232       29.8122       29.8354      27.596158       0.04791
  14     243.0        2.2369        0.0256       29.5945       29.6201      27.383145       0.07388
  13     269.0        2.2345        0.0281       29.1605       29.1886      26.954092       0.13918
  12     297.5        2.2321        0.0306       28.4815       28.5120      26.279948       0.19994
  11     328.5        2.2297        0.0329       27.6174       27.6503      25.420664       0.23364
  10     361.9        2.2274        0.0352       26.6433       26.6785      24.451068       0.24532
   9     398.1        2.2255        0.0375       25.5308       25.5682      23.342755       0.25821
   8     437.6        2.2241        0.0395       24.2502       24.2897      22.065579       0.27307
   7     480.5        2.2237        0.0412       22.8247       22.8658      20.642093       0.27957
   6     533.0        2.2252        0.0428       21.1916       21.2345      19.009267       0.26267
   5     589.8        2.2296        0.0444       19.6505       19.6948      17.465232       0.22919
   4     651.6        2.2385        0.0458       18.2228       18.2686      16.030096       0.19626
   3     718.7        2.2530        0.0473       16.9775       17.0248      14.771796       0.15813
   2     792.3        2.2740        0.0491       15.9213       15.9704      13.696440       0.12333
   1     891.5        2.3140        0.0515       14.7672       14.8187      12.504735       0.10141
   0    1013.0        2.3953        0.0542       13.5744       13.6285      11.233268       0.08828



 Wavenumbers:  7700. -  8050. cm-1, ATM      1
 LEVEL PRESSURE   UPWARD FLUX   DIFDOWN FLUX  DIRDOWN FLUX  DOWNWARD FLUX   NET FLUX    HEATING RATE
          mb          W/m2          W/m2          W/m2        W/m2          W/m2       degree/day
  51    .06700        1.0494        0.0000        7.2006        7.2006       6.151231       0.00000
  50    .07753        1.0494        0.0000        7.2006        7.2006       6.151213       0.01477
  49    .09103        1.0494        0.0000        7.2005        7.2005       6.151190       0.01448
  48    0.1069        1.0494        0.0000        7.2005        7.2005       6.151163       0.01417
  47    0.1255        1.0494        0.0000        7.2005        7.2005       6.151132       0.01387
  46    0.1487        1.0494        0.0000        7.2004        7.2005       6.151094       0.01407
  45    0.1794        1.0494        0.0000        7.2004        7.2004       6.151041       0.01448
  44    0.2165        1.0494        0.0000        7.2003        7.2003       6.150979       0.01420
  43    0.2613        1.0494        0.0000        7.2003        7.2003       6.150905       0.01394
  42    0.3336        1.0494        0.0000        7.2001        7.2001       6.150782       0.01426
  41    0.4307        1.0494        0.0000        7.2000        7.2000       6.150620       0.01410
  40    0.5894        1.0494        0.0000        7.1997        7.1997       6.150355       0.01409
  39     1.339        1.0494        0.0001        7.1984        7.1985       6.149102       0.01410
  38     1.782        1.0494        0.0001        7.1977        7.1978       6.148367       0.01400
  37     2.292        1.0494        0.0001        7.1968        7.1969       6.147516       0.01410
  36     2.964        1.0494        0.0001        7.1957        7.1958       6.146398       0.01402
  35     3.853        1.0494        0.0002        7.1942        7.1944       6.144924       0.01400
  34     5.035        1.0495        0.0002        7.1922        7.1924       6.142966       0.01399
  33     6.613        1.0495        0.0003        7.1896        7.1899       6.140353       0.01397
  32     8.786        1.0496        0.0004        7.1860        7.1864       6.136838       0.01365
  31     11.80        1.0496        0.0005        7.1810        7.1815       6.131821       0.01404
  30     15.07        1.0497        0.0006        7.1755        7.1762       6.126451       0.01386
  29     18.79        1.0498        0.0008        7.1694        7.1702       6.120405       0.01371
  28     23.16        1.0499        0.0010        7.1623        7.1633       6.113372       0.01360
  27     28.12        1.0501        0.0012        7.1542        7.1554       6.105366       0.01361
  26     33.73        1.0502        0.0014        7.1452        7.1466       6.096455       0.01340
  25     40.54        1.0504        0.0017        7.1344        7.1361       6.085757       0.01327
  24     48.69        1.0506        0.0021        7.1214        7.1235       6.072960       0.01324
  23     57.69        1.0508        0.0025        7.1074        7.1098       6.059027       0.01306
  22     68.43        1.0511        0.0029        7.0908        7.0937       6.042602       0.01291
  21     81.20        1.0514        0.0035        7.0712        7.0747       6.023270       0.01277
  20     96.49        1.0518        0.0041        7.0483        7.0524       6.000562       0.01253
  19     114.6        1.0523        0.0049        7.0215        7.0264       5.974049       0.01238
  18     136.5        1.0529        0.0057        6.9904        6.9962       5.943228       0.01185
  17     162.9        1.0537        0.0068        6.9542        6.9610       5.907334       0.01147
  16     196.4        1.0547        0.0082        6.9085        6.9167       5.862024       0.01140
  15     218.7        1.0554        0.0091        6.8792        6.8883       5.832933       0.01104
  14     243.0        1.0561        0.0100        6.8479        6.8580       5.801868       0.01077
  13     269.0        1.0569        0.0111        6.8146        6.8257       5.768782       0.01073
  12     297.5        1.0579        0.0122        6.7793        6.7915       5.733586       0.01044
  11     328.5        1.0590        0.0134        6.7417        6.7551       5.696142       0.01018
  10     361.9        1.0602        0.0147        6.7017        6.7165       5.656310       0.01008
   9     398.1        1.0615        0.0161        6.6593        6.6755       5.613927       0.00987
   8     437.6        1.0631        0.0176        6.6141        6.6317       5.568602       0.00969
   7     480.5        1.0649        0.0192        6.5655        6.5847       5.519810       0.00958
   6     533.0        1.0674        0.0212        6.5056        6.5268       5.459376       0.00972
   5     589.8        1.0703        0.0233        6.4405        6.4637       5.393383       0.00980
   4     651.6        1.0739        0.0255        6.3692        6.3947       5.320828       0.00992
   3     718.7        1.0781        0.0279        6.2917        6.3195       5.241446       0.00998
   2     792.3        1.0830        0.0304        6.2080        6.2384       5.155382       0.00987
   1     891.5        1.0903        0.0337        6.0936        6.1273       5.036940       0.01008
   0    1013.0        1.1006        0.0376        5.9510        5.9885       4.887886       0.01035



 Wavenumbers:  8050. - 12850. cm-1, ATM      1
 LEVEL PRESSURE   UPWARD FLUX   DIFDOWN FLUX  DIRDOWN FLUX  DOWNWARD FLUX   NET FLUX    HEATING RATE
          mb          W/m2          W/m2          W/m2        W/m2          W/m2       degree/day
  51    .06700       23.7121        0.0000      100.8135      100.8135      77.101380       0.00000
  50    .07753       23.7121        0.0000      100.8135      100.8135      77.101380      -0.00000
  49    .09103       23.7121        0.0001      100.8134      100.8135      77.101380       0.00000
  48    0.1069       23.7121        0.0001      100.8134      100.8134      77.101380       0.00000
  47    0.1255       23.7120        0.0001      100.8133      100.8134      77.101380       0.00000
  46    0.1487       23.7120        0.0002      100.8132      100.8134      77.101380      -0.00000
  45    0.1794       23.7119        0.0002      100.8131      100.8133      77.101380      -0.00000
  44    0.2165       23.7119        0.0003      100.8129      100.8133      77.101380       0.00000
  43    0.2613       23.7118        0.0004      100.8127      100.8132      77.101380      -0.00000
  42    0.3336       23.7117        0.0006      100.8125      100.8130      77.101380       0.00000
  41    0.4307       23.7115        0.0008      100.8121      100.8129      77.101380      -0.00000
  40    0.5894       23.7112        0.0011      100.8115      100.8126      77.101380       0.00000
  39     1.339       23.7099        0.0028      100.8085      100.8113      77.101380      -0.00000
  38     1.782       23.7091        0.0037      100.8068      100.8105      77.101380      -0.00000
  37     2.292       23.7082        0.0049      100.8047      100.8096      77.101380       0.00000
  36     2.964       23.7071        0.0063      100.8021      100.8084      77.101380       0.00000
  35     3.853       23.7055        0.0083      100.7986      100.8069      77.101380      -0.00000
  34     5.035       23.7034        0.0108      100.7940      100.8048      77.101380       0.00000
  33     6.613       23.7007        0.0143      100.7878      100.8021      77.101380      -0.00000
  32     8.786       23.6969        0.0189      100.7794      100.7983      77.101380      -0.00000
  31     11.80       23.6916        0.0256      100.7674      100.7930      77.101380       0.00000
  30     15.07       23.6859        0.0327      100.7546      100.7873      77.101380       0.00000
  29     18.79       23.6794        0.0408      100.7400      100.7808      77.101380      -0.00000
  28     23.16       23.6718        0.0502      100.7230      100.7732      77.101380       0.00000
  27     28.12       23.6631        0.0610      100.7035      100.7645      77.101380      -0.00000
  26     33.73       23.6534        0.0731      100.6817      100.7548      77.101380       0.00000
  25     40.54       23.6416        0.0878      100.6552      100.7430      77.101380      -0.00000
  24     48.69       23.6274        0.1055      100.6234      100.7288      77.101380       0.00000
  23     57.69       23.6118        0.1249      100.5883      100.7132      77.101380       0.00000
  22     68.43       23.5932        0.1481      100.5464      100.6945      77.101380      -0.00000
  21     81.20       23.5709        0.1757      100.4965      100.6723      77.101380       0.00000
  20     96.49       23.5443        0.2088      100.4370      100.6457      77.101380      -0.00000
  19     114.6       23.5128        0.2480      100.3630      100.6111      77.098292       0.00144
  18     136.5       23.4753        0.2946      100.2745      100.5691      77.093820       0.00172
  17     162.9       23.4305        0.3502      100.1650      100.5152      77.084652       0.00293
  16     196.4       23.3724        0.4224      100.0095      100.4319      77.059569       0.00631
  15     218.7       23.3341        0.4699       99.8906      100.3606      77.026454       0.01257
  14     243.0       23.2926        0.5216       99.7281      100.2497      76.957109       0.02405
  13     269.0       23.2478        0.5774       99.4694      100.0468      76.798983       0.05130
  12     297.5       23.2001        0.6375       99.1013       99.7388      76.538786       0.07717
  11     328.5       23.1494        0.7022       98.6200       99.3221      76.172685       0.09954
  10     361.9       23.0966        0.7713       98.0185       98.7898      75.693263       0.12130
   9     398.1       23.0422        0.8451       97.2583       98.1034      75.061290       0.14724
   8     437.6       22.9877        0.9233       96.2812       97.2045      74.216878       0.18054
   7     480.5       22.9362        1.0053       95.0107       96.0159      73.079760       0.22333
   6     533.0       22.8844        1.1036       93.2386       94.3422      71.457814       0.26092
   5     589.8       22.8456        1.2063       91.1605       92.3667      69.521138       0.28747
   4     651.6       22.8288        1.3129       88.8115       90.1243      67.295546       0.30436
   3     718.7       22.8390        1.4240       86.3704       87.7944      64.955425       0.29409
   2     792.3       22.8802        1.5406       83.9457       85.4863      62.606021       0.26945
   1     891.5       22.9994        1.6933       80.8354       82.5287      59.529307       0.26181
   0    1013.0       23.3039        1.8665       77.0973       78.9638      55.659864       0.26868



 Wavenumbers: 12850. - 16000. cm-1, ATM      1
 LEVEL PRESSURE   UPWARD FLUX   DIFDOWN FLUX  DIRDOWN FLUX  DOWNWARD FLUX   NET FLUX    HEATING RATE
          mb          W/m2          W/m2          W/m2        W/m2          W/m2       degree/day
  51    .06700       33.0654        0.0000       63.1686       63.1686      30.103195       0.00000
  50    .07753       33.0654        0.0001       63.1677       63.1678      30.102416       0.62471
  49    .09103       33.0653        0.0001       63.1666       63.1668      30.101445       0.60710
  48    0.1069       33.0653        0.0002       63.1654       63.1656      30.100339       0.58869
  47    0.1255       33.0652        0.0003       63.1640       63.1643      30.099081       0.57020
  46    0.1487       33.0652        0.0004       63.1623       63.1627      30.097512       0.57174
  45    0.1794       33.0651        0.0006       63.1600       63.1606      30.095409       0.57737
  44    0.2165       33.0651        0.0008       63.1573       63.1581      30.092977       0.55321
  43    0.2613       33.0650        0.0010       63.1542       63.1552      30.090173       0.52868
  42    0.3336       33.0650        0.0014       63.1493       63.1507      30.085705       0.52092
  41    0.4307       33.0649        0.0019       63.1431       63.1450      30.080118       0.48574
  40    0.5894       33.0649        0.0027       63.1338       63.1365      30.071659       0.44986
  39     1.339       33.0659        0.0065       63.0956       63.1021      30.036180       0.39942
  38     1.782       33.0675        0.0088       63.0740       63.0828      30.015334       0.39687
  37     2.292       33.0701        0.0114       63.0477       63.0590      29.988920       0.43749
  36     2.964       33.0749        0.0148       63.0095       63.0243      29.949389       0.49623
  35     3.853       33.0832        0.0193       62.9533       62.9726      29.889413       0.56919
  34     5.035       33.0959        0.0253       62.8725       62.8978      29.801895       0.62519
  33     6.613       33.1139        0.0333       62.7621       62.7954      29.681471       0.64379
  32     8.786       33.1371        0.0440       62.6183       62.6623      29.525161       0.60705
  31     11.80       33.1668        0.0594       62.4284       62.4877      29.320983       0.57163
  30     15.07       33.1944        0.0758       62.2426       62.3184      29.124067       0.50840
  29     18.79       33.2217        0.0943       62.0493       62.1436      28.921893       0.45839
  28     23.16       33.2494        0.1159       61.8425       61.9584      28.709009       0.41165
  27     28.12       33.2758        0.1405       61.6278       61.7683      28.492519       0.36802
  26     33.73       33.2982        0.1680       61.4177       61.5857      28.287540       0.30819
  25     40.54       33.3167        0.2012       61.1983       61.3995      28.082797       0.25401
  24     48.69       33.3308        0.2411       60.9680       61.2091      27.878250       0.21167
  23     57.69       33.3384        0.2849       60.7478       61.0327      27.694244       0.17248
  22     68.43       33.3389        0.3369       60.5202       60.8572      27.518249       0.13836
  21     81.20       33.3277        0.3990       60.2939       60.6928      27.365114       0.10119
  20     96.49       33.3035        0.4728       60.0643       60.5371      27.233645       0.07256
  19     114.6       33.2740        0.5609       59.8079       60.3688      27.094786       0.06484
  18     136.5       33.2344        0.6652       59.5159       60.1810      26.946623       0.05697
  17     162.9       33.1830        0.7889       59.1774       59.9664      26.783384       0.05218
  16     196.4       33.1072        0.9490       58.7613       59.7104      26.603122       0.04537
  15     218.7       33.0542        1.0539       58.4965       59.5503      26.496073       0.04064
  14     243.0       32.9952        1.1676       58.2123       59.3798      26.384609       0.03866
  13     269.0       32.9299        1.2905       57.9082       59.1987      26.268743       0.03759
  12     297.5       32.8582        1.4230       57.5827       59.0057      26.147492       0.03596
  11     328.5       32.7806        1.5658       57.2313       58.7971      26.016494       0.03562
  10     361.9       32.6974        1.7191       56.8515       58.5706      25.873220       0.03625
   9     398.1       32.6085        1.8835       56.4397       58.3232      25.714732       0.03692
   8     437.6       32.5147        2.0594       55.9899       58.0493      25.534591       0.03852
   7     480.5       32.4174        2.2470       55.4937       57.7407      25.323248       0.04151
   6     533.0       32.3031        2.4766       54.8616       57.3382      25.035077       0.04636
   5     589.8       32.1880        2.7221       54.1557       56.8778      24.689745       0.05126
   4     651.6       32.0761        2.9835       53.3684       56.3519      24.275764       0.05661
   3     718.7       31.9688        3.2611       52.5111       55.7722      23.803378       0.05937
   2     792.3       31.8679        3.5546       51.5981       55.1527      23.284880       0.05947
   1     891.5       31.7596        3.9446       50.3729       54.3176      22.557950       0.06186
   0    1013.0       31.6861        4.4025       48.8989       53.3013      21.615285       0.06545



 Wavenumbers: 16000. - 22650. cm-1, ATM      1
 LEVEL PRESSURE   UPWARD FLUX   DIFDOWN FLUX  DIRDOWN FLUX  DOWNWARD FLUX   NET FLUX    HEATING RATE
          mb          W/m2          W/m2          W/m2        W/m2          W/m2       degree/day
  51    .06700       75.6202        0.0000      100.7153      100.7153      25.095128       0.00000
  50    .07753       75.6200        0.0003      100.7147      100.7151      25.095011       0.09405
  49    .09103       75.6199        0.0007      100.7140      100.7147      25.094840       0.10667
  48    0.1069       75.6197        0.0012      100.7131      100.7143      25.094612       0.12164
  47    0.1255       75.6196        0.0017      100.7121      100.7139      25.094306       0.13866
  46    0.1487       75.6193        0.0024      100.7108      100.7132      25.093855       0.16430
  45    0.1794       75.6191        0.0034      100.7089      100.7122      25.093151       0.19346
  44    0.2165       75.6188        0.0045      100.7066      100.7110      25.092195       0.21742
  43    0.2613       75.6186        0.0058      100.7037      100.7095      25.090898       0.24443
  42    0.3336       75.6182        0.0079      100.6987      100.7066      25.088433       0.28744
  41    0.4307       75.6179        0.0108      100.6918      100.7026      25.084717       0.32311
  40    0.5894       75.6176        0.0155      100.6797      100.6952      25.077630       0.37687
  39     1.339       75.6219        0.0377      100.6095      100.6472      25.025281       0.58935
  38     1.782       75.6285        0.0507      100.5585      100.6092      24.980701       0.84875
  37     2.292       75.6398        0.0658      100.4903      100.5560      24.916190       1.06847
  36     2.964       75.6606        0.0856      100.3868      100.4723      24.811730       1.31128
  35     3.853       75.6962        0.1116      100.2306      100.3423      24.646099       1.57187
  34     5.035       75.7515        0.1463      100.0045      100.1507      24.399259       1.76332
  33     6.613       75.8295        0.1924       99.6939       99.8862      24.056752       1.83105
  32     8.786       75.9305        0.2544       99.2881       99.5424      23.611989       1.72730
  31     11.80       76.0592        0.3428       98.7496       99.0924      23.033257       1.62027
  30     15.07       76.1790        0.4374       98.2198       98.6572      22.478222       1.43299
  29     18.79       76.2979        0.5439       97.6651       98.2090      21.911099       1.28584
  28     23.16       76.4178        0.6678       97.0671       97.7349      21.317113       1.14858
  27     28.12       76.5328        0.8090       96.4406       97.2495      20.716746       1.02058
  26     33.73       76.6296        0.9664       95.8179       96.7843      20.154731       0.84501
  25     40.54       76.7097        1.1560       95.1548       96.3108      19.601145       0.68679
  24     48.69       76.7706        1.3836       94.4420       95.8256      19.055026       0.56515
  23     57.69       76.8031        1.6327       93.7416       95.3743      18.571182       0.45353
  22     68.43       76.8048        1.9280       92.9954       94.9234      18.118561       0.35582
  21     81.20       76.7562        2.2785       92.2231       94.5017      17.745441       0.24655
  20     96.49       76.6516        2.6942       91.4110       94.1052      17.453634       0.16106
  19     114.6       76.5042        3.1844       90.5070       93.6915      17.187264       0.12438
  18     136.5       76.3146        3.7606       89.4803       93.2408      16.926221       0.10038
  17     162.9       76.0761        4.4397       88.3023       92.7420      16.665857       0.08322
  16     196.4       75.7382        5.3102       86.8608       92.1710      16.432877       0.05864
  15     218.7       75.5065        5.8757       85.9495       91.8252      16.318684       0.04336
  14     243.0       75.2511        6.4847       84.9795       91.4642      16.213154       0.03660
  13     269.0       74.9707        7.1382       83.9506       91.0888      16.118088       0.03084
  12     297.5       74.6647        7.8369       82.8617       90.6986      16.033913       0.02497
  11     328.5       74.3343        8.5834       81.7035       90.2869      15.952578       0.02211
  10     361.9       73.9795        9.3771       80.4765       89.8536      15.874150       0.01984
   9     398.1       73.5991       10.2202       79.1770       89.3972      15.798121       0.01771
   8     437.6       73.1934       11.1126       77.8032       88.9158      15.722374       0.01620
   7     480.5       72.7624       12.0548       76.3535       88.4084      15.646028       0.01499
   6     533.0       72.2378       13.1945       74.5993       87.7938      15.556034       0.01448
   5     589.8       71.6808       14.3984       72.7425       87.1409      15.460060       0.01425
   4     651.6       71.0927       15.6648       70.7830       86.4478      15.355047       0.01436
   3     718.7       70.4737       16.9916       68.7238       85.7154      15.241668       0.01425
   2     792.3       69.8254       18.3742       66.5713       84.9455      15.120041       0.01395
   1     891.5       68.9756       20.1787       63.7473       83.9260      14.950401       0.01444
   0    1013.0       67.9950       22.2536       60.4734       82.7270      14.731974       0.01517



 Wavenumbers: 22650. - 29000. cm-1, ATM      1
 LEVEL PRESSURE   UPWARD FLUX   DIFDOWN FLUX  DIRDOWN FLUX  DOWNWARD FLUX   NET FLUX    HEATING RATE
          mb          W/m2          W/m2          W/m2        W/m2          W/m2       degree/day
  51    .06700       34.3500        0.0000       38.0063       38.0063       3.656274       0.00000
  50    .07753       34.3498        0.0004       38.0057       38.0061       3.656274      -0.00000
  49    .09103       34.3496        0.0009       38.0050       38.0059       3.656274       0.00000
  48    0.1069       34.3494        0.0014       38.0042       38.0057       3.656274       0.00000
  47    0.1255       34.3491        0.0021       38.0033       38.0054       3.656274      -0.00000
  46    0.1487       34.3488        0.0029       38.0022       38.0050       3.656274      -0.00000
  45    0.1794       34.3483        0.0040       38.0006       38.0046       3.656274       0.00000
  44    0.2165       34.3477        0.0053       37.9987       38.0040       3.656274      -0.00000
  43    0.2613       34.3471        0.0068       37.9965       38.0033       3.656274       0.00000
  42    0.3336       34.3460        0.0094       37.9928       38.0022       3.656274       0.00000
  41    0.4307       34.3445        0.0128       37.9880       38.0008       3.656274       0.00000
  40    0.5894       34.3421        0.0183       37.9800       37.9984       3.656274      -0.00000
  39     1.339       34.3308        0.0446       37.9425       37.9870       3.656274       0.00000
  38     1.782       34.3241        0.0600       37.9204       37.9804       3.656274       0.00000
  37     2.292       34.3164        0.0778       37.8949       37.9727       3.656274       0.00000
  36     2.964       34.3063        0.1012       37.8614       37.9626       3.656274      -0.00000
  35     3.853       34.2930        0.1320       37.8172       37.9493       3.656274       0.00000
  34     5.035       34.2753        0.1730       37.7586       37.9316       3.656274       0.00000
  33     6.613       34.2517        0.2276       37.6803       37.9079       3.656274      -0.00000
  32     8.786       34.2199        0.3011       37.5750       37.8762       3.656274      -0.00000
  31     11.80       34.1745        0.4060       37.4249       37.8308       3.656274       0.00000
  30     15.07       34.1260        0.5181       37.2642       37.7823       3.656274       0.00000
  29     18.79       34.0714        0.6443       37.0833       37.7276       3.656274      -0.00000
  28     23.16       34.0078        0.7911       36.8730       37.6641       3.656274       0.00000
  27     28.12       33.9355        0.9579       36.6338       37.5917       3.656274       0.00000
  26     33.73       33.8549        1.1435       36.3677       37.5112       3.656274       0.00000
  25     40.54       33.7583        1.3660       36.0486       37.4146       3.656274      -0.00000
  24     48.69       33.6428        1.6318       35.6672       37.2991       3.656274       0.00000
  23     57.69       33.5171        1.9206       35.2527       37.1733       3.656274      -0.00000
  22     68.43       33.3690        2.2603       34.7649       37.0253       3.656274       0.00000
  21     81.20       33.1949        2.6589       34.1922       36.8512       3.656274       0.00000
  20     96.49       32.9908        3.1253       33.5218       36.6471       3.656274       0.00000
  19     114.6       32.7531        3.6670       32.7424       36.4094       3.656274      -0.00000
  18     136.5       32.4777        4.2924       31.8416       36.1340       3.656274       0.00000
  17     162.9       32.1587        5.0142       30.8008       35.8150       3.656274       0.00000
  16     196.4       31.7588        5.9144       29.5007       35.4151       3.656274       0.00000
  15     218.7       31.5044        6.4840       28.6768       35.1607       3.656274      -0.00000
  14     243.0       31.2351        7.0845       27.8069       34.8914       3.656274       0.00000
  13     269.0       30.9514        7.7142       26.8935       34.6077       3.656274       0.00000
  12     297.5       30.6540        8.3706       25.9397       34.3103       3.656274      -0.00000
  11     328.5       30.3429        9.0534       24.9457       33.9991       3.656274      -0.00000
  10     361.9       30.0193        9.7586       23.9170       33.6756       3.656274       0.00000
   9     398.1       29.6838       10.4844       22.8556       33.3401       3.656274       0.00000
   8     437.6       29.3377       11.2266       21.7674       32.9940       3.656274       0.00000
   7     480.5       28.9819       11.9822       20.6560       32.6382       3.656274       0.00000
   6     533.0       28.5648       12.8576       19.3635       32.2211       3.656274      -0.00000
   5     589.8       28.1391       13.7380       18.0574       31.7954       3.656274      -0.00000
   4     651.6       27.7072       14.6166       16.7469       31.3635       3.656274       0.00000
   3     718.7       27.2711       15.4867       15.4407       30.9273       3.656274       0.00000
   2     792.3       26.8341       16.3389       14.1515       30.4904       3.656274       0.00000
   1     891.5       26.2892       17.3701       12.5754       29.9455       3.656274      -0.00000
   0    1013.0       25.6957       18.4458       10.9062       29.3520       3.656274       0.00000



 Wavenumbers: 29000. - 38000. cm-1, ATM      1
 LEVEL PRESSURE   UPWARD FLUX   DIFDOWN FLUX  DIRDOWN FLUX  DOWNWARD FLUX   NET FLUX    HEATING RATE
          mb          W/m2          W/m2          W/m2        W/m2          W/m2       degree/day
  51    .06700        4.8871        0.0000       13.4026       13.4026       8.515475       0.00000
  50    .07753        4.8869        0.0003       13.3983       13.3986       8.511677       3.04438
  49    .09103        4.8866        0.0007       13.3921       13.3928       8.506158       3.44966
  48    0.1069        4.8863        0.0011       13.3840       13.3851       8.498781       3.92676
  47    0.1255        4.8860        0.0016       13.3733       13.3749       8.488936       4.46317
  46    0.1487        4.8856        0.0022       13.3579       13.3600       8.474494       5.26437
  45    0.1794        4.8850        0.0030       13.3340       13.3371       8.452094       6.14925
  44    0.2165        4.8843        0.0040       13.3024       13.3064       8.422075       6.82875
  43    0.2613        4.8835        0.0052       13.2604       13.2656       8.382021       7.55009
  42    0.3336        4.8823        0.0070       13.1833       13.1903       8.308015       8.62840
  41    0.4307        4.8808        0.0095       13.0729       13.0824       8.201643       9.24878
  40    0.5894        4.8784        0.0134       12.8796       12.8930       8.014600       9.94668
  39     1.339        4.8699        0.0296       11.9165       11.9462       7.076267      10.56392
  38     1.782        4.8666        0.0379       11.4399       11.4779       6.611291       8.85239
  37     2.292        4.8641        0.0468       10.9796       11.0264       6.162365       7.43539
  36     2.964        4.8626        0.0577       10.4786       10.5364       5.673743       6.13369
  35     3.853        4.8632        0.0712        9.9429       10.0141       5.150894       4.96193
  34     5.035        4.8666        0.0880        9.4007        9.4887       4.622171       3.77698
  33     6.613        4.8728        0.1094        8.8752        8.9846       4.111787       2.72851
  32     8.786        4.8814        0.1369        8.3786        8.5155       3.634059       1.85532
  31     11.80        4.8919        0.1746        7.8897        8.0643       3.172406       1.29248
  30     15.07        4.9009        0.2136        7.5108        7.7244       2.823489       0.90084
  29     18.79        4.9092        0.2560        7.1776        7.4336       2.524403       0.67812
  28     23.16        4.9168        0.3038        6.8664        7.1703       2.253425       0.52398
  27     28.12        4.9229        0.3567        6.5780        6.9347       2.011783       0.41078
  26     33.73        4.9251        0.4142        6.3195        6.7337       1.808661       0.30540
  25     40.54        4.9221        0.4822        6.0663        6.5484       1.626349       0.22618
  24     48.69        4.9134        0.5617        5.8128        6.3746       1.461157       0.17095
  23     57.69        4.8990        0.6466        5.5777        6.2243       1.325307       0.12734
  22     68.43        4.8766        0.7449        5.3379        6.0828       1.206129       0.09369
  21     81.20        4.8420        0.8589        5.0965        5.9554       1.113348       0.06131
  20     96.49        4.7940        0.9906        4.8476        5.8382       1.044244       0.03814
  19     114.6        4.7355        1.1397        4.5799        5.7196       0.984082       0.02809
  18     136.5        4.6678        1.3064        4.2891        5.5954       0.927681       0.02169
  17     162.9        4.5904        1.4911        3.9732        5.4643       0.873902       0.01719
  16     196.4        4.4924        1.7123        3.6080        5.3203       0.827919       0.01157
  15     218.7        4.4306        1.8469        3.3898        5.2366       0.806023       0.00831
  14     243.0        4.3664        1.9840        3.1686        5.1525       0.786158       0.00689
  13     269.0        4.3000        2.1225        2.9461        5.0686       0.768633       0.00569
  12     297.5        4.2318        2.2613        2.7239        4.9853       0.753467       0.00450
  11     328.5        4.1627        2.3990        2.5029        4.9019       0.739219       0.00387
  10     361.9        4.0930        2.5343        2.2846        4.8189       0.725911       0.00337
   9     398.1        4.0233        2.6660        2.0708        4.7368       0.713536       0.00288
   8     437.6        3.9540        2.7927        1.8631        4.6559       0.701830       0.00250
   7     480.5        3.8854        2.9137        1.6626        4.5763       0.690919       0.00214
   6     533.0        3.8084        3.0430        1.4446        4.4876       0.679257       0.00188
   5     589.8        3.7335        3.1614        1.2403        4.4017       0.668189       0.00164
   4     651.6        3.6613        3.2672        1.0517        4.3188       0.657567       0.00145
   3     718.7        3.5920        3.3595        0.8799        4.2394       0.647355       0.00128
   2     792.3        3.5260        3.4374        0.7261        4.1635       0.637532       0.00113
   1     891.5        3.4478        3.5146        0.5589        4.0735       0.625631       0.00101
   0    1013.0        3.3673        3.5735        0.4065        3.9800       0.612765       0.00089



 Wavenumbers: 38000. - 50000. cm-1, ATM      1
 LEVEL PRESSURE   UPWARD FLUX   DIFDOWN FLUX  DIRDOWN FLUX  DOWNWARD FLUX   NET FLUX    HEATING RATE
          mb          W/m2          W/m2          W/m2        W/m2          W/m2       degree/day
  51    .06700        0.0051        0.0000        0.8267        0.8267       0.821528       0.00000
  50    .07753        0.0051        0.0001        0.8242        0.8243       0.819196       1.86936
  49    .09103        0.0050        0.0002        0.8207        0.8209       0.815873       2.07705
  48    0.1069        0.0049        0.0002        0.8162        0.8164       0.811514       2.31984
  47    0.1255        0.0048        0.0004        0.8103        0.8106       0.805801       2.59006
  46    0.1487        0.0047        0.0005        0.8018        0.8023       0.797567       3.00143
  45    0.1794        0.0045        0.0007        0.7889        0.7896       0.785013       3.44648
  44    0.2165        0.0044        0.0009        0.7720        0.7729       0.768507       3.75474
  43    0.2613        0.0042        0.0011        0.7500        0.7511       0.746955       4.06246
  42    0.3336        0.0039        0.0015        0.7106        0.7121       0.708267       4.51071
  41    0.4307        0.0035        0.0019        0.6566        0.6584       0.654972       4.63387
  40    0.5894        0.0029        0.0024        0.5680        0.5704       0.567464       4.65357
  39     1.339        0.0015        0.0030        0.2422        0.2452       0.243720       3.64476
  38     1.782        0.0010        0.0026        0.1493        0.1519       0.150889       1.76735
  37     2.292        0.0007        0.0022        0.0924        0.0946       0.093932       0.94336
  36     2.964        0.0005        0.0018        0.0539        0.0557       0.055224       0.48589
  35     3.853        0.0003        0.0013        0.0295        0.0308       0.030502       0.23462
  34     5.035        0.0002        0.0010        0.0154        0.0164       0.016181       0.10230
  33     6.613        0.0001        0.0007        0.0073        0.0080       0.007912       0.04420
  32     8.786        0.0000        0.0004        0.0030        0.0034       0.003390       0.01756
  31     11.80        0.0000        0.0003        0.0010        0.0012       0.001199       0.00613
  30     15.07        0.0000        0.0001        0.0003        0.0005       0.000463       0.00190
  29     18.79        0.0000        0.0001        0.0001        0.0002       0.000182       0.00064
  28     23.16        0.0000        0.0000        0.0000        0.0001       0.000071       0.00022
  27     28.12        0.0000        0.0000        0.0000        0.0000       0.000028       0.00007
  26     33.73        0.0000        0.0000        0.0000        0.0000       0.000011       0.00002
  25     40.54        0.0000        0.0000        0.0000        0.0000       0.000005       0.00001
  24     48.69        0.0000        0.0000        0.0000        0.0000       0.000002       0.00000
  23     57.69        0.0000        0.0000        0.0000        0.0000       0.000001       0.00000
  22     68.43        0.0000        0.0000        0.0000        0.0000       0.000000       0.00000
  21     81.20        0.0000        0.0000        0.0000        0.0000       0.000000       0.00000
  20     96.49        0.0000        0.0000        0.0000        0.0000       0.000000       0.00000
  19     114.6        0.0000        0.0000        0.0000        0.0000       0.000000       0.00000
  18     136.5        0.0000        0.0000        0.0000        0.0000       0.000000       0.00000
  17     162.9        0.0000        0.0000        0.0000        0.0000       0.000000       0.00000
  16     196.4        0.0000        0.0000        0.0000        0.0000       0.000000       0.00000
  15     218.7        0.0000        0.0000        0.0000        0.0000       0.000000       0.00000
  14     243.0        0.0000        0.0000        0.0000        0.0000       0.000000       0.00000
  13     269.0        0.0000        0.0000        0.0000        0.0000       0.000000       0.00000
  12     297.5        0.0000        0.0000        0.0000        0.0000       0.000000       0.00000
  11     328.5        0.0000        0.0000        0.0000        0.0000       0.000000       0.00000
  10     361.9        0.0000        0.0000        0.0000        0.0000       0.000000       0.00000
   9     398.1        0.0000        0.0000        0.0000        0.0000       0.000000       0.00000
   8     437.6        0.0000        0.0000        0.0000        0.0000       0.000000       0.00000
   7     480.5        0.0000        0.0000        0.0000        0.0000       0.000000       0.00000
   6     533.0        0.0000        0.0000        0.0000        0.0000       0.000000       0.00000
   5     589.8        0.0000        0.0000        0.0000        0.0000       0.000000       0.00000
   4     651.6        0.0000        0.0000        0.0000        0.0000       0.000000       0.00000
   3     718.7        0.0000        0.0000        0.0000        0.0000       0.000000       0.00000
   2     792.3        0.0000        0.0000        0.0000        0.0000       0.000000       0.00000
   1     891.5        0.0000        0.0000        0.0000        0.0000       0.000000       0.00000
   0    1013.0        0.0000        0.0000        0.0000        0.0000       0.000000       0.00000



 Wavenumbers:   820. -  2600. cm-1, ATM      1
 LEVEL PRESSURE   UPWARD FLUX   DIFDOWN FLUX  DIRDOWN FLUX  DOWNWARD FLUX   NET FLUX    HEATING RATE
          mb          W/m2          W/m2          W/m2        W/m2          W/m2       degree/day
  51    .06700        0.2253        0.0000        3.8670        3.8670       3.641671       0.00000
  50    .07753        0.2253        0.0000        3.8643        3.8643       3.638993       2.14685
  49    .09103        0.2253        0.0000        3.8636        3.8636       3.638233       0.47495
  48    0.1069        0.2253        0.0000        3.8627        3.8627       3.637402       0.44215
  47    0.1255        0.2253        0.0000        3.8619        3.8619       3.636513       0.40307
  46    0.1487        0.2253        0.0000        3.8608        3.8608       3.635498       0.37009
  45    0.1794        0.2253        0.0000        3.8596        3.8596       3.634296       0.32983
  44    0.2165        0.2253        0.0000        3.8584        3.8584       3.633082       0.27611
  43    0.2613        0.2253        0.0000        3.8572        3.8572       3.631823       0.23739
  42    0.3336        0.2253        0.0000        3.8553        3.8553       3.629934       0.22023
  41    0.4307        0.2253        0.0000        3.8529        3.8529       3.627520       0.20991
  40    0.5894        0.2253        0.0000        3.8489        3.8489       3.623573       0.20989
  39     1.339        0.2253        0.0000        3.8312        3.8312       3.605865       0.19936
  38     1.782        0.2253        0.0000        3.8214        3.8214       3.596089       0.18611
  37     2.292        0.2253        0.0000        3.8106        3.8106       3.585236       0.17976
  36     2.964        0.2253        0.0000        3.7971        3.7971       3.571735       0.16948
  35     3.853        0.2253        0.0000        3.7802        3.7802       3.554805       0.16066
  34     5.035        0.2253        0.0000        3.7586        3.7586       3.533292       0.15368
  33     6.613        0.2254        0.0000        3.7310        3.7310       3.505630       0.14788
  32     8.786        0.2254        0.0000        3.6966        3.6966       3.471226       0.13361
  31     11.80        0.2254        0.0000        3.6570        3.6570       3.431622       0.11088
  30     15.07        0.2254        0.0000        3.6274        3.6274       3.402073       0.07629
  29     18.79        0.2254        0.0000        3.6056        3.6056       3.380216       0.04956
  28     23.16        0.2254        0.0000        3.5880        3.5880       3.362633       0.03400
  27     28.12        0.2254        0.0000        3.5715        3.5715       3.346147       0.02803
  26     33.73        0.2254        0.0000        3.5541        3.5541       3.328726       0.02619
  25     40.54        0.2254        0.0000        3.5334        3.5334       3.308018       0.02569
  24     48.69        0.2254        0.0000        3.5087        3.5087       3.283318       0.02556
  23     57.69        0.2254        0.0000        3.4820        3.4820       3.256629       0.02502
  22     68.43        0.2254        0.0000        3.4510        3.4510       3.225634       0.02437
  21     81.20        0.2254        0.0000        3.4160        3.4160       3.190616       0.02314
  20     96.49        0.2254        0.0000        3.3766        3.3766       3.151167       0.02177
  19     114.6        0.2254        0.0000        3.3327        3.3327       3.107293       0.02049
  18     136.5        0.2255        0.0000        3.2832        3.2832       3.057773       0.01904
  17     162.9        0.2255        0.0000        3.2225        3.2225       2.997040       0.01941
  16     196.4        0.2255        0.0000        3.1380        3.1380       2.912471       0.02129
  15     218.7        0.2256        0.0000        3.0834        3.0834       2.857852       0.02074
  14     243.0        0.2257        0.0000        3.0165        3.0165       2.790876       0.02323
  13     269.0        0.2258        0.0000        2.9272        2.9272       2.701459       0.02901
  12     297.5        0.2259        0.0000        2.8204        2.8205       2.594557       0.03171
  11     328.5        0.2262        0.0000        2.6830        2.6830       2.456871       0.03744
  10     361.9        0.2265        0.0000        2.5076        2.5076       2.281141       0.04446
   9     398.1        0.2270        0.0000        2.3197        2.3197       2.092787       0.04388
   8     437.6        0.2276        0.0000        2.1530        2.1530       1.925438       0.03578
   7     480.5        0.2284        0.0000        2.0284        2.0285       1.800074       0.02462
   6     533.0        0.2296        0.0000        1.9258        1.9258       1.696170       0.01671
   5     589.8        0.2313        0.0000        1.8255        1.8256       1.594231       0.01513
   4     651.6        0.2337        0.0000        1.7175        1.7175       1.483793       0.01510
   3     718.7        0.2367        0.0000        1.6149        1.6150       1.378230       0.01327
   2     792.3        0.2404        0.0000        1.5266        1.5266       1.286204       0.01055
   1     891.5        0.2464        0.0000        1.4296        1.4296       1.183287       0.00876
   0    1013.0        0.2566        0.0001        1.3194        1.3194       1.062803       0.00837

  Modules and versions used in this calculation:

       rrtmg_sw.1col.f90:  $Revision$                    rrtmg_sw_init.f90:  $Revision$        
     rrtmgsw_cldprop.f90:  $Revision$                  rrtmgsw_cldprmc.f90:  NOT USED          
     rrtmg_sw_reftra.f90:  $Revision$                  rrtmg_sw_spcvrt.f90:  NOT USED          
     rrtmg_sw_spcvmc.f90:  NOT USED                    rrtmgsw_setcoef.f90:  NOT USED          
     rrtmg_sw_taumol.f90:  $Revision$                  rrtmg_sw_vrtqdr.f90:  NOT USED          
                rrtatm.f:  NOT USED                             util_xxx.f:  NOT USED          
                 extra.f:  NOT USED                       rrtmg_sw_k_g.f90:  $Revision$        

