

 Wavenumbers:   820. - 50000. cm-1, ATM      1
 LEVEL PRESSURE   UPWARD FLUX   DIFDOWN FLUX  DIRDOWN FLUX  DOWNWARD FLUX   NET FLUX    HEATING RATE
          mb          W/m2          W/m2          W/m2        W/m2          W/m2       degree/day
  51    .06700      185.3199        0.0000      397.8738      397.8738     212.553848       0.00000
  50    .07753      185.3193        0.0011      397.8580      397.8591     212.539829      11.23670
  49    .09103      185.3185        0.0026      397.8424      397.8450     212.526466       8.35243
  48    0.1069      185.3176        0.0042      397.8239      397.8281     212.510474       8.51234
  47    0.1255      185.3167        0.0061      397.8010      397.8071     212.490431       9.08685
  46    0.1487      185.3154        0.0085      397.7694      397.7779     212.462467      10.19297
  45    0.1794      185.3138        0.0118      397.7229      397.7347     212.420849      11.42508
  44    0.2165      185.3120        0.0156      397.6634      397.6790     212.367017      12.24583
  43    0.2613      185.3099        0.0202      397.5870      397.6071     212.297220      13.15650
  42    0.3336      185.3067        0.0276      397.4505      397.4782     212.171498      14.65800
  41    0.4307      185.3026        0.0374      397.2601      397.2975     211.994964      15.34919
  40    0.5894      185.2965        0.0531      396.9364      396.9896     211.693054      16.05522
  39     1.339      185.2784        0.1233      395.4508      395.5741     210.295683      15.73185
  38     1.782      185.2748        0.1626      394.7617      394.9244     209.649614      12.30012
  37     2.292      185.2767        0.2074      394.0985      394.3059     209.029202      10.27563
  36     2.964      185.2884        0.2654      393.3527      393.6181     208.329738       8.78039
  35     3.853      185.3163        0.3413      392.4970      392.8383     207.521984       7.66574
  34     5.035      185.3660        0.4411      391.5254      391.9665     206.600528       6.58250
  33     6.613      185.4392        0.5733      390.4269      391.0002     205.561026       5.55718
  32     8.786      185.5331        0.7500      389.1841      389.9342     204.401079       4.50481
  31     11.80      185.6466        1.0008      387.6977      388.6985     203.051985       3.77704
  30     15.07      185.7440        1.2678      386.3283      387.5961     201.852176       3.09767
  29     18.79      185.8322        1.5670      384.9496      386.5167     200.684437       2.64762
  28     23.16      185.9103        1.9136      383.4979      385.4115     199.501220       2.28796
  27     28.12      185.9703        2.3066      381.9940      384.3005     198.330259       1.99056
  26     33.73      185.9944        2.7430      380.4916      383.2347     197.240323       1.63875
  25     40.54      185.9736        3.2663      378.8674      382.1337     196.160087       1.34016
  24     48.69      185.9011        3.8915      377.0896      380.9810     195.079976       1.11775
  23     57.69      185.7758        4.5715      375.3021      379.8736     194.097808       0.92063
  22     68.43      185.5779        5.3729      373.3444      378.7173     193.139418       0.75342
  21     81.20      185.2747        6.3171      371.2327      377.5498     192.275144       0.57110
  20     96.49      184.8529        7.4275      368.9287      376.3562     191.503281       0.42601
  19     114.6      184.3306        8.7236      366.3344      375.0580     190.727379       0.36229
  18     136.5      183.7005       10.2279      363.3925      373.6204     189.919969       0.31047
  17     162.9      182.9458       11.9754      360.0215      371.9969     189.051154       0.27771
  16     196.4      181.9465       14.1767      355.8417      370.0185     188.071920       0.24648
  15     218.7      181.2888       15.5836      353.1545      368.7381     187.449293       0.23639
  14     243.0      180.5794       17.0791      350.2153      367.2944     186.715038       0.25466
  13     269.0      179.8177       18.6617      346.8994      365.5610     185.743297       0.31523
  12     297.5      179.0044       20.3289      343.1969      363.5258     184.521448       0.36239
  11     328.5      178.1419       22.0822      338.9984      361.0806     182.938762       0.43033
  10     361.9      177.2326       23.9161      334.3117      358.2278     180.995106       0.49176
   9     398.1      176.2770       25.8305      329.2099      355.0404     178.763446       0.51993
   8     437.6      175.2794       27.8201      323.6792      351.4993     176.219891       0.54383
   7     480.5      174.2452       29.8805      317.5855      347.4660     173.220765       0.58902
   6     533.0      173.0228       32.3212      310.0668      342.3880     169.365214       0.62024
   5     589.8      171.7708       34.8398      302.1380      336.9778     165.206976       0.61722
   4     651.6      170.5060       37.4257      293.8864      331.3121     160.806096       0.60183
   3     718.7      169.2387       40.0695      285.5768      325.6463     156.407598       0.55277
   2     792.3      167.9790       42.7595      277.3749      320.1344     152.155384       0.48768
   1     891.5      166.4538       46.1724      267.1329      313.3053     146.851461       0.45134
   0    1013.0      164.9782       49.9723      255.5156      305.4879     140.509687       0.44034



 Wavenumbers:  2600. -  3250. cm-1, ATM      1
 LEVEL PRESSURE   UPWARD FLUX   DIFDOWN FLUX  DIRDOWN FLUX  DOWNWARD FLUX   NET FLUX    HEATING RATE
          mb          W/m2          W/m2          W/m2        W/m2          W/m2       degree/day
  51    .06700        0.5583        0.0000        3.5066        3.5066       2.948321       0.00000
  50    .07753        0.5583        0.0000        3.5066        3.5066       2.948313       0.00640
  49    .09103        0.5583        0.0000        3.5066        3.5066       2.948303       0.00627
  48    0.1069        0.5583        0.0000        3.5066        3.5066       2.948292       0.00613
  47    0.1255        0.5583        0.0000        3.5066        3.5066       2.948279       0.00599
  46    0.1487        0.5583        0.0000        3.5066        3.5066       2.948262       0.00607
  45    0.1794        0.5583        0.0000        3.5065        3.5065       2.948239       0.00624
  44    0.2165        0.5583        0.0000        3.5065        3.5065       2.948212       0.00611
  43    0.2613        0.5583        0.0000        3.5065        3.5065       2.948181       0.00598
  42    0.3336        0.5583        0.0000        3.5064        3.5064       2.948128       0.00615
  41    0.4307        0.5583        0.0000        3.5064        3.5064       2.948057       0.00618
  40    0.5894        0.5583        0.0000        3.5062        3.5062       2.947938       0.00633
  39     1.339        0.5583        0.0000        3.5055        3.5055       2.947239       0.00787
  38     1.782        0.5583        0.0000        3.5050        3.5050       2.946708       0.01011
  37     2.292        0.5583        0.0000        3.5043        3.5043       2.946016       0.01147
  36     2.964        0.5583        0.0000        3.5033        3.5033       2.945024       0.01245
  35     3.853        0.5583        0.0000        3.5019        3.5019       2.943647       0.01307
  34     5.035        0.5583        0.0000        3.5001        3.5001       2.941786       0.01329
  33     6.613        0.5583        0.0000        3.4977        3.4977       2.939376       0.01288
  32     8.786        0.5583        0.0000        3.4947        3.4947       2.936405       0.01154
  31     11.80        0.5583        0.0000        3.4911        3.4911       2.932769       0.01018
  30     15.07        0.5583        0.0000        3.4878        3.4878       2.929547       0.00832
  29     18.79        0.5583        0.0000        3.4848        3.4848       2.926481       0.00695
  28     23.16        0.5583        0.0000        3.4816        3.4816       2.923259       0.00623
  27     28.12        0.5583        0.0000        3.4779        3.4779       2.919637       0.00616
  26     33.73        0.5583        0.0000        3.4735        3.4735       2.915166       0.00672
  25     40.54        0.5583        0.0000        3.4671        3.4671       2.908832       0.00786
  24     48.69        0.5583        0.0000        3.4582        3.4583       2.899925       0.00922
  23     57.69        0.5583        0.0000        3.4472        3.4472       2.888860       0.01037
  22     68.43        0.5584        0.0000        3.4329        3.4329       2.874577       0.01123
  21     81.20        0.5584        0.0000        3.4152        3.4152       2.856815       0.01174
  20     96.49        0.5585        0.0000        3.3940        3.3941       2.835624       0.01170
  19     114.6        0.5585        0.0000        3.3699        3.3699       2.811404       0.01131
  18     136.5        0.5586        0.0001        3.3435        3.3435       2.784921       0.01018
  17     162.9        0.5588        0.0001        3.3158        3.3159       2.757121       0.00889
  16     196.4        0.5590        0.0001        3.2858        3.2858       2.726878       0.00761
  15     218.7        0.5591        0.0001        3.2688        3.2689       2.709727       0.00651
  14     243.0        0.5593        0.0001        3.2517        3.2518       2.692473       0.00598
  13     269.0        0.5596        0.0001        3.2332        3.2333       2.673677       0.00610
  12     297.5        0.5600        0.0001        3.2117        3.2118       2.651740       0.00651
  11     328.5        0.5606        0.0001        3.1846        3.1847       2.624099       0.00752
  10     361.9        0.5614        0.0001        3.1516        3.1518       2.590329       0.00854
   9     398.1        0.5625        0.0001        3.1106        3.1108       2.548247       0.00980
   8     437.6        0.5640        0.0002        3.0591        3.0593       2.495305       0.01132
   7     480.5        0.5659        0.0002        2.9928        2.9930       2.427024       0.01341
   6     533.0        0.5690        0.0002        2.8991        2.8993       2.330250       0.01557
   5     589.8        0.5732        0.0002        2.7880        2.7882       2.214991       0.01711
   4     651.6        0.5790        0.0002        2.6631        2.6633       2.084279       0.01788
   3     718.7        0.5866        0.0002        2.5344        2.5346       1.948018       0.01712
   2     792.3        0.5960        0.0002        2.4105        2.4107       1.814694       0.01529
   1     891.5        0.6116        0.0003        2.2605        2.2607       1.649147       0.01409
   0    1013.0        0.6370        0.0003        2.0884        2.0887       1.451655       0.01371



 Wavenumbers:  3250. -  4000. cm-1, ATM      1
 LEVEL PRESSURE   UPWARD FLUX   DIFDOWN FLUX  DIRDOWN FLUX  DOWNWARD FLUX   NET FLUX    HEATING RATE
          mb          W/m2          W/m2          W/m2        W/m2          W/m2       degree/day
  51    .06700        0.1019        0.0000        5.9117        5.9117       5.809801       0.00000
  50    .07753        0.1019        0.0000        5.9076        5.9076       5.805749       3.24785
  49    .09103        0.1019        0.0000        5.9053        5.9053       5.803455       1.43353
  48    0.1069        0.1019        0.0000        5.9036        5.9036       5.801734       0.91617
  47    0.1255        0.1019        0.0000        5.9020        5.9020       5.800121       0.73110
  46    0.1487        0.1019        0.0000        5.9002        5.9002       5.798392       0.63030
  45    0.1794        0.1019        0.0000        5.8983        5.8983       5.796440       0.53582
  44    0.2165        0.1019        0.0000        5.8964        5.8964       5.794548       0.43038
  43    0.2613        0.1019        0.0000        5.8945        5.8945       5.792660       0.35602
  42    0.3336        0.1019        0.0000        5.8918        5.8918       5.789961       0.31466
  41    0.4307        0.1019        0.0000        5.8886        5.8886       5.786720       0.28179
  40    0.5894        0.1019        0.0000        5.8836        5.8836       5.781776       0.26290
  39     1.339        0.1019        0.0000        5.8653        5.8653       5.763417       0.20669
  38     1.782        0.1019        0.0000        5.8576        5.8576       5.755717       0.14660
  37     2.292        0.1019        0.0000        5.8502        5.8502       5.748318       0.12255
  36     2.964        0.1018        0.0000        5.8416        5.8416       5.739740       0.10768
  35     3.853        0.1018        0.0000        5.8309        5.8309       5.729052       0.10143
  34     5.035        0.1018        0.0000        5.8168        5.8168       5.714963       0.10065
  33     6.613        0.1018        0.0000        5.7976        5.7976       5.695729       0.10282
  32     8.786        0.1018        0.0000        5.7706        5.7706       5.668744       0.10480
  31     11.80        0.1018        0.0000        5.7306        5.7306       5.628762       0.11194
  30     15.07        0.1018        0.0000        5.6868        5.6868       5.585013       0.11295
  29     18.79        0.1018        0.0000        5.6377        5.6377       5.535901       0.11135
  28     23.16        0.1018        0.0000        5.5829        5.5829       5.481120       0.10593
  27     28.12        0.1018        0.0000        5.5254        5.5254       5.423598       0.09778
  26     33.73        0.1018        0.0000        5.4679        5.4680       5.366175       0.08634
  25     40.54        0.1018        0.0001        5.4062        5.4062       5.304435       0.07660
  24     48.69        0.1018        0.0001        5.3385        5.3385       5.236739       0.07005
  23     57.69        0.1018        0.0001        5.2677        5.2678       5.165988       0.06632
  22     68.43        0.1018        0.0001        5.1851        5.1852       5.083456       0.06488
  21     81.20        0.1017        0.0001        5.0893        5.0894       4.987690       0.06328
  20     96.49        0.1017        0.0001        4.9813        4.9815       4.879741       0.05958
  19     114.6        0.1017        0.0001        4.8630        4.8632       4.761483       0.05522
  18     136.5        0.1017        0.0002        4.7369        4.7371       4.635388       0.04849
  17     162.9        0.1017        0.0002        4.6000        4.6002       4.498522       0.04375
  16     196.4        0.1016        0.0002        4.4347        4.4349       4.333286       0.04159
  15     218.7        0.1016        0.0002        4.3263        4.3265       4.224934       0.04114
  14     243.0        0.1016        0.0003        4.1977        4.1980       4.096400       0.04458
  13     269.0        0.1016        0.0003        4.0191        4.0194       3.917802       0.05794
  12     297.5        0.1016        0.0003        3.8177        3.8180       3.716441       0.05972
  11     328.5        0.1016        0.0003        3.5784        3.5787       3.477085       0.06508
  10     361.9        0.1018        0.0003        3.2927        3.2930       3.191237       0.07232
   9     398.1        0.1020        0.0003        2.9744        2.9748       2.872822       0.07418
   8     437.6        0.1023        0.0003        2.6460        2.6463       2.543996       0.07030
   7     480.5        0.1029        0.0003        2.3184        2.3187       2.215757       0.06447
   6     533.0        0.1041        0.0003        1.9754        1.9757       1.871558       0.05537
   5     589.8        0.1060        0.0003        1.6701        1.6704       1.564393       0.04559
   4     651.6        0.1091        0.0003        1.3939        1.3942       1.285049       0.03820
   3     718.7        0.1138        0.0003        1.1561        1.1564       1.042624       0.03047
   2     792.3        0.1203        0.0002        0.9552        0.9554       0.835147       0.02380
   1     891.5        0.1325        0.0002        0.7358        0.7360       0.603466       0.01971
   0    1013.0        0.1580        0.0002        0.5178        0.5179       0.359981       0.01691



 Wavenumbers:  4000. -  4650. cm-1, ATM      1
 LEVEL PRESSURE   UPWARD FLUX   DIFDOWN FLUX  DIRDOWN FLUX  DOWNWARD FLUX   NET FLUX    HEATING RATE
          mb          W/m2          W/m2          W/m2        W/m2          W/m2       degree/day
  51    .06700        1.5649        0.0000        6.9421        6.9421       5.377135       0.00000
  50    .07753        1.5649        0.0000        6.9421        6.9421       5.377134       0.00082
  49    .09103        1.5649        0.0000        6.9421        6.9421       5.377133       0.00080
  48    0.1069        1.5649        0.0000        6.9421        6.9421       5.377131       0.00078
  47    0.1255        1.5649        0.0000        6.9421        6.9421       5.377130       0.00077
  46    0.1487        1.5649        0.0000        6.9421        6.9421       5.377128       0.00078
  45    0.1794        1.5649        0.0000        6.9421        6.9421       5.377125       0.00080
  44    0.2165        1.5649        0.0000        6.9421        6.9421       5.377121       0.00078
  43    0.2613        1.5649        0.0000        6.9420        6.9420       5.377117       0.00077
  42    0.3336        1.5649        0.0000        6.9420        6.9420       5.377110       0.00079
  41    0.4307        1.5649        0.0000        6.9420        6.9420       5.377101       0.00079
  40    0.5894        1.5649        0.0000        6.9420        6.9420       5.377086       0.00082
  39     1.339        1.5649        0.0000        6.9419        6.9419       5.376994       0.00103
  38     1.782        1.5649        0.0000        6.9418        6.9419       5.376923       0.00137
  37     2.292        1.5649        0.0000        6.9417        6.9418       5.376826       0.00160
  36     2.964        1.5649        0.0000        6.9416        6.9416       5.376682       0.00181
  35     3.853        1.5649        0.0000        6.9414        6.9414       5.376469       0.00202
  34     5.035        1.5649        0.0000        6.9411        6.9411       5.376155       0.00224
  33     6.613        1.5649        0.0000        6.9406        6.9406       5.375693       0.00247
  32     8.786        1.5649        0.0000        6.9399        6.9399       5.375013       0.00264
  31     11.80        1.5649        0.0000        6.9388        6.9389       5.373945       0.00299
  30     15.07        1.5649        0.0001        6.9375        6.9376       5.372696       0.00323
  29     18.79        1.5649        0.0001        6.9360        6.9361       5.371189       0.00342
  28     23.16        1.5649        0.0001        6.9341        6.9342       5.369325       0.00361
  27     28.12        1.5649        0.0001        6.9319        6.9320       5.367075       0.00382
  26     33.73        1.5649        0.0001        6.9291        6.9292       5.364312       0.00415
  25     40.54        1.5649        0.0002        6.9253        6.9255       5.360581       0.00463
  24     48.69        1.5649        0.0002        6.9204        6.9206       5.355636       0.00512
  23     57.69        1.5650        0.0002        6.9145        6.9148       5.349808       0.00546
  22     68.43        1.5650        0.0003        6.9073        6.9076       5.342550       0.00571
  21     81.20        1.5651        0.0003        6.8984        6.8987       5.333658       0.00588
  20     96.49        1.5652        0.0004        6.8877        6.8881       5.322897       0.00594
  19     114.6        1.5654        0.0004        6.8749        6.8753       5.309967       0.00604
  18     136.5        1.5656        0.0005        6.8595        6.8600       5.294452       0.00597
  17     162.9        1.5659        0.0006        6.8410        6.8416       5.275714       0.00599
  16     196.4        1.5664        0.0007        6.8166        6.8173       5.250914       0.00624
  15     218.7        1.5668        0.0008        6.8001        6.8009       5.234114       0.00638
  14     243.0        1.5673        0.0009        6.7813        6.7822       5.214885       0.00667
  13     269.0        1.5680        0.0010        6.7591        6.7601       5.192094       0.00739
  12     297.5        1.5689        0.0011        6.7328        6.7339       5.164975       0.00804
  11     328.5        1.5701        0.0012        6.7013        6.7026       5.132440       0.00885
  10     361.9        1.5717        0.0014        6.6640        6.6653       5.093658       0.00981
   9     398.1        1.5736        0.0015        6.6196        6.6211       5.047438       0.01077
   8     437.6        1.5762        0.0016        6.5658        6.5674       4.991226       0.01202
   7     480.5        1.5796        0.0018        6.4986        6.5003       4.920787       0.01383
   6     533.0        1.5846        0.0019        6.4045        6.4064       4.821809       0.01592
   5     589.8        1.5914        0.0021        6.2934        6.2955       4.704062       0.01748
   4     651.6        1.6002        0.0023        6.1693        6.1717       4.571500       0.01813
   3     718.7        1.6111        0.0025        6.0392        6.0418       4.430605       0.01771
   2     792.3        1.6247        0.0027        5.9066        5.9093       4.284632       0.01674
   1     891.5        1.6464        0.0030        5.7303        5.7333       4.086919       0.01682
   0    1013.0        1.6808        0.0033        5.5082        5.5114       3.830634       0.01780



 Wavenumbers:  4650. -  5150. cm-1, ATM      1
 LEVEL PRESSURE   UPWARD FLUX   DIFDOWN FLUX  DIRDOWN FLUX  DOWNWARD FLUX   NET FLUX    HEATING RATE
          mb          W/m2          W/m2          W/m2        W/m2          W/m2       degree/day
  51    .06700        1.0490        0.0000        6.5710        6.5710       5.522024       0.00000
  50    .07753        1.0490        0.0000        6.5708        6.5708       5.521795       0.18402
  49    .09103        1.0490        0.0000        6.5705        6.5705       5.521508       0.17892
  48    0.1069        1.0490        0.0000        6.5702        6.5702       5.521182       0.17352
  47    0.1255        1.0490        0.0000        6.5698        6.5698       5.520812       0.16800
  46    0.1487        1.0490        0.0000        6.5693        6.5693       5.520350       0.16831
  45    0.1794        1.0490        0.0000        6.5687        6.5687       5.519730       0.17033
  44    0.2165        1.0490        0.0000        6.5680        6.5680       5.519010       0.16366
  43    0.2613        1.0490        0.0000        6.5671        6.5671       5.518179       0.15676
  42    0.3336        1.0490        0.0000        6.5658        6.5658       5.516849       0.15499
  41    0.4307        1.0490        0.0000        6.5641        6.5641       5.515170       0.14602
  40    0.5894        1.0490        0.0000        6.5616        6.5616       5.512617       0.13574
  39     1.339        1.0490        0.0000        6.5520        6.5520       5.503069       0.10749
  38     1.782        1.0490        0.0000        6.5479        6.5479       5.498948       0.07847
  37     2.292        1.0490        0.0000        6.5441        6.5441       5.495144       0.06300
  36     2.964        1.0490        0.0000        6.5402        6.5402       5.491268       0.04865
  35     3.853        1.0490        0.0000        6.5363        6.5363       5.487395       0.03675
  34     5.035        1.0489        0.0000        6.5324        6.5324       5.483453       0.02817
  33     6.613        1.0489        0.0000        6.5280        6.5281       5.479110       0.02321
  32     8.786        1.0489        0.0001        6.5226        6.5226       5.473668       0.02114
  31     11.80        1.0489        0.0001        6.5145        6.5146       5.465659       0.02242
  30     15.07        1.0489        0.0001        6.5052        6.5053       5.456369       0.02399
  29     18.79        1.0489        0.0001        6.4938        6.4939       5.444947       0.02590
  28     23.16        1.0489        0.0001        6.4792        6.4794       5.430472       0.02799
  27     28.12        1.0489        0.0002        6.4614        6.4616       5.412640       0.03031
  26     33.73        1.0489        0.0002        6.4401        6.4403       5.391376       0.03197
  25     40.54        1.0489        0.0002        6.4132        6.4134       5.364457       0.03340
  24     48.69        1.0490        0.0003        6.3797        6.3800       5.331069       0.03455
  23     57.69        1.0490        0.0003        6.3429        6.3432       5.294241       0.03452
  22     68.43        1.0491        0.0004        6.3000        6.3004       5.251341       0.03372
  21     81.20        1.0492        0.0005        6.2515        6.2520       5.202828       0.03206
  20     96.49        1.0493        0.0005        6.1985        6.1991       5.149745       0.02930
  19     114.6        1.0495        0.0006        6.1424        6.1430       5.093480       0.02627
  18     136.5        1.0498        0.0008        6.0838        6.0846       5.034714       0.02260
  17     162.9        1.0503        0.0009        6.0216        6.0225       4.972155       0.02000
  16     196.4        1.0510        0.0011        5.9468        5.9479       4.896837       0.01896
  15     218.7        1.0516        0.0012        5.8983        5.8994       4.847863       0.01859
  14     243.0        1.0523        0.0013        5.8445        5.8458       4.793525       0.01885
  13     269.0        1.0531        0.0014        5.7843        5.7858       4.732621       0.01976
  12     297.5        1.0542        0.0016        5.7165        5.7181       4.663839       0.02040
  11     328.5        1.0556        0.0017        5.6397        5.6414       4.585823       0.02121
  10     361.9        1.0573        0.0019        5.5530        5.5548       4.497476       0.02235
   9     398.1        1.0595        0.0020        5.4554        5.4575       4.397915       0.02320
   8     437.6        1.0624        0.0022        5.3457        5.3479       4.285485       0.02404
   7     480.5        1.0661        0.0024        5.2215        5.2238       4.157715       0.02509
   6     533.0        1.0717        0.0026        5.0648        5.0673       3.995654       0.02607
   5     589.8        1.0788        0.0028        4.8952        4.8980       3.819199       0.02619
   4     651.6        1.0881        0.0030        4.7145        4.7174       3.629316       0.02597
   3     718.7        1.1000        0.0032        4.5286        4.5318       3.431807       0.02482
   2     792.3        1.1149        0.0034        4.3433        4.3466       3.231784       0.02294
   1     891.5        1.1391        0.0036        4.1129        4.1165       2.977378       0.02165
   0    1013.0        1.1770        0.0039        3.8557        3.8595       2.682598       0.02047



 Wavenumbers:  5150. -  6150. cm-1, ATM      1
 LEVEL PRESSURE   UPWARD FLUX   DIFDOWN FLUX  DIRDOWN FLUX  DOWNWARD FLUX   NET FLUX    HEATING RATE
          mb          W/m2          W/m2          W/m2        W/m2          W/m2       degree/day
  51    .06700        2.7779        0.0000       16.4735       16.4735      13.695565       0.00000
  50    .07753        2.7779        0.0000       16.4735       16.4735      13.695561       0.00294
  49    .09103        2.7779        0.0000       16.4735       16.4735      13.695556       0.00299
  48    0.1069        2.7779        0.0000       16.4735       16.4735      13.695551       0.00303
  47    0.1255        2.7779        0.0000       16.4735       16.4735      13.695544       0.00307
  46    0.1487        2.7779        0.0000       16.4735       16.4735      13.695535       0.00323
  45    0.1794        2.7779        0.0000       16.4735       16.4735      13.695522       0.00345
  44    0.2165        2.7779        0.0000       16.4734       16.4734      13.695507       0.00351
  43    0.2613        2.7779        0.0000       16.4734       16.4734      13.695488       0.00356
  42    0.3336        2.7779        0.0000       16.4734       16.4734      13.695456       0.00375
  41    0.4307        2.7779        0.0000       16.4733       16.4733      13.695412       0.00384
  40    0.5894        2.7779        0.0000       16.4733       16.4733      13.695337       0.00394
  39     1.339        2.7779        0.0000       16.4729       16.4729      13.694969       0.00414
  38     1.782        2.7779        0.0000       16.4726       16.4727      13.694747       0.00424
  37     2.292        2.7779        0.0001       16.4723       16.4724      13.694485       0.00433
  36     2.964        2.7779        0.0001       16.4719       16.4720      13.694138       0.00436
  35     3.853        2.7779        0.0001       16.4714       16.4715      13.693675       0.00440
  34     5.035        2.7779        0.0001       16.4708       16.4709      13.693052       0.00445
  33     6.613        2.7778        0.0002       16.4699       16.4700      13.692211       0.00450
  32     8.786        2.7778        0.0002       16.4686       16.4689      13.691068       0.00444
  31     11.80        2.7778        0.0003       16.4669       16.4672      13.689422       0.00461
  30     15.07        2.7777        0.0004       16.4650       16.4654      13.687646       0.00459
  29     18.79        2.7777        0.0005       16.4628       16.4633      13.685636       0.00456
  28     23.16        2.7776        0.0006       16.4603       16.4609      13.683289       0.00454
  27     28.12        2.7776        0.0007       16.4574       16.4582      13.680606       0.00456
  26     33.73        2.7775        0.0009       16.4542       16.4551      13.677586       0.00454
  25     40.54        2.7775        0.0011       16.4503       16.4514      13.673917       0.00455
  24     48.69        2.7775        0.0013       16.4456       16.4469      13.669478       0.00459
  23     57.69        2.7774        0.0015       16.4405       16.4421      13.664646       0.00453
  22     68.43        2.7774        0.0018       16.4346       16.4365      13.659041       0.00441
  21     81.20        2.7774        0.0022       16.4277       16.4299      13.652455       0.00435
  20     96.49        2.7774        0.0026       16.4195       16.4220      13.644613       0.00433
  19     114.6        2.7774        0.0030       16.4095       16.4125      13.635107       0.00444
  18     136.5        2.7774        0.0036       16.3962       16.3998      13.622392       0.00489
  17     162.9        2.7775        0.0043       16.3740       16.3783      13.600768       0.00691
  16     196.4        2.7776        0.0052       16.3261       16.3313      13.553733       0.01184
  15     218.7        2.7777        0.0058       16.2761       16.2818      13.504158       0.01882
  14     243.0        2.7778        0.0064       16.1953       16.2017      13.423941       0.02782
  13     269.0        2.7779        0.0070       16.0572       16.0642      13.286302       0.04465
  12     297.5        2.7782        0.0077       15.8460       15.8537      13.075512       0.06252
  11     328.5        2.7786        0.0084       15.5393       15.5477      12.769159       0.08330
  10     361.9        2.7791        0.0091       15.1714       15.1805      12.401356       0.09306
   9     398.1        2.7799        0.0098       14.7753       14.7851      12.005176       0.09230
   8     437.6        2.7811        0.0105       14.3215       14.3320      11.550898       0.09713
   7     480.5        2.7829        0.0111       13.7621       13.7733      10.990403       0.11008
   6     533.0        2.7860        0.0119       13.0573       13.0692      10.283163       0.11377
   5     589.8        2.7909        0.0125       12.3438       12.3563       9.565416       0.10654
   4     651.6        2.7984        0.0132       11.6465       11.6597       8.861299       0.09629
   3     718.7        2.8093        0.0139       11.0307       11.0446       8.235298       0.07867
   2     792.3        2.8242        0.0146       10.5228       10.5374       7.713249       0.05987
   1     891.5        2.8517        0.0157       10.0023       10.0180       7.166281       0.04654
   0    1013.0        2.9067        0.0169        9.5164        9.5333       6.626580       0.03747



 Wavenumbers:  6150. -  7700. cm-1, ATM      1
 LEVEL PRESSURE   UPWARD FLUX   DIFDOWN FLUX  DIRDOWN FLUX  DOWNWARD FLUX   NET FLUX    HEATING RATE
          mb          W/m2          W/m2          W/m2        W/m2          W/m2       degree/day
  51    .06700        4.9984        0.0000       30.4684       30.4684      25.469944       0.00000
  50    .07753        4.9984        0.0000       30.4684       30.4684      25.469924       0.01587
  49    .09103        4.9984        0.0000       30.4683       30.4683      25.469899       0.01566
  48    0.1069        4.9984        0.0000       30.4683       30.4683      25.469870       0.01545
  47    0.1255        4.9984        0.0000       30.4683       30.4683      25.469836       0.01523
  46    0.1487        4.9984        0.0000       30.4682       30.4682      25.469794       0.01558
  45    0.1794        4.9984        0.0000       30.4681       30.4682      25.469735       0.01616
  44    0.2165        4.9984        0.0000       30.4681       30.4681      25.469665       0.01598
  43    0.2613        4.9984        0.0000       30.4680       30.4680      25.469581       0.01580
  42    0.3336        4.9984        0.0000       30.4678       30.4678      25.469441       0.01628
  41    0.4307        4.9984        0.0000       30.4676       30.4677      25.469254       0.01624
  40    0.5894        4.9984        0.0001       30.4673       30.4673      25.468948       0.01632
  39     1.339        4.9983        0.0001       30.4656       30.4658      25.467486       0.01646
  38     1.782        4.9983        0.0002       30.4647       30.4649      25.466627       0.01635
  37     2.292        4.9982        0.0003       30.4636       30.4638      25.465634       0.01643
  36     2.964        4.9981        0.0003       30.4622       30.4625      25.464335       0.01631
  35     3.853        4.9981        0.0004       30.4603       30.4607      25.462625       0.01623
  34     5.035        4.9979        0.0006       30.4578       30.4583      25.460363       0.01615
  33     6.613        4.9978        0.0007       30.4544       30.4552      25.457362       0.01605
  32     8.786        4.9976        0.0010       30.4500       30.4509      25.453354       0.01557
  31     11.80        4.9973        0.0013       30.4437       30.4450      25.447694       0.01585
  30     15.07        4.9970        0.0017       30.4370       30.4387      25.441713       0.01544
  29     18.79        4.9966        0.0021       30.4296       30.4317      25.435072       0.01506
  28     23.16        4.9962        0.0026       30.4211       30.4237      25.427464       0.01471
  27     28.12        4.9957        0.0032       30.4115       30.4147      25.418949       0.01447
  26     33.73        4.9952        0.0038       30.4010       30.4048      25.409649       0.01398
  25     40.54        4.9945        0.0045       30.3887       30.3933      25.398740       0.01353
  24     48.69        4.9937        0.0055       30.3743       30.3798      25.386026       0.01316
  23     57.69        4.9929        0.0065       30.3590       30.3655      25.372601       0.01258
  22     68.43        4.9918        0.0077       30.3415       30.3492      25.357334       0.01200
  21     81.20        4.9906        0.0091       30.3214       30.3305      25.339929       0.01150
  20     96.49        4.9891        0.0108       30.2984       30.3092      25.320016       0.01099
  19     114.6        4.9874        0.0128       30.2717       30.2845      25.297093       0.01070
  18     136.5        4.9853        0.0152       30.2399       30.2551      25.269778       0.01050
  17     162.9        4.9829        0.0181       30.1974       30.2155      25.232595       0.01188
  16     196.4        4.9797        0.0218       30.1255       30.1473      25.167571       0.01637
  15     218.7        4.9777        0.0242       30.0580       30.0823      25.104613       0.02390
  14     243.0        4.9755        0.0268       29.9486       29.9754      24.999892       0.03632
  13     269.0        4.9733        0.0296       29.7534       29.7830      24.809667       0.06171
  12     297.5        4.9712        0.0325       29.4643       29.4969      24.525659       0.08423
  11     328.5        4.9692        0.0356       29.0385       29.0741      24.104849       0.11442
  10     361.9        4.9676        0.0386       28.4616       28.5002      23.532607       0.14478
   9     398.1        4.9666        0.0417       27.7729       27.8146      22.847979       0.15950
   8     437.6        4.9668        0.0448       26.9924       27.0372      22.070386       0.16625
   7     480.5        4.9691        0.0478       26.0726       26.1205      21.151396       0.18049
   6     533.0        4.9754        0.0512       24.8735       24.9246      19.949259       0.19339
   5     589.8        4.9875        0.0543       23.5872       23.6416      18.654039       0.19225
   4     651.6        5.0085        0.0573       22.2750       22.3323      17.323792       0.18191
   3     718.7        5.0405        0.0602       21.0437       21.1040      16.063468       0.15839
   2     792.3        5.0852        0.0633       19.9484       20.0117      14.926531       0.13039
   1     891.5        5.1676        0.0674       18.7162       18.7836      13.616001       0.11152
   0    1013.0        5.3288        0.0718       17.4125       17.4843      12.155513       0.10141



 Wavenumbers:  7700. -  8050. cm-1, ATM      1
 LEVEL PRESSURE   UPWARD FLUX   DIFDOWN FLUX  DIRDOWN FLUX  DOWNWARD FLUX   NET FLUX    HEATING RATE
          mb          W/m2          W/m2          W/m2        W/m2          W/m2       degree/day
  51    .06700        1.7498        0.0000        7.2006        7.2006       5.450772       0.00000
  50    .07753        1.7498        0.0000        7.2006        7.2006       5.450754       0.01516
  49    .09103        1.7498        0.0000        7.2005        7.2005       5.450730       0.01486
  48    0.1069        1.7498        0.0000        7.2005        7.2005       5.450702       0.01454
  47    0.1255        1.7498        0.0000        7.2005        7.2005       5.450671       0.01423
  46    0.1487        1.7498        0.0000        7.2004        7.2005       5.450631       0.01444
  45    0.1794        1.7498        0.0000        7.2004        7.2004       5.450577       0.01486
  44    0.2165        1.7498        0.0000        7.2003        7.2003       5.450513       0.01458
  43    0.2613        1.7498        0.0000        7.2003        7.2003       5.450437       0.01430
  42    0.3336        1.7498        0.0000        7.2001        7.2001       5.450312       0.01463
  41    0.4307        1.7498        0.0000        7.2000        7.2000       5.450145       0.01447
  40    0.5894        1.7499        0.0000        7.1997        7.1997       5.449874       0.01446
  39     1.339        1.7499        0.0001        7.1984        7.1985       5.448588       0.01448
  38     1.782        1.7499        0.0001        7.1977        7.1978       5.447833       0.01437
  37     2.292        1.7500        0.0001        7.1968        7.1969       5.446959       0.01447
  36     2.964        1.7500        0.0001        7.1957        7.1958       5.445813       0.01439
  35     3.853        1.7501        0.0002        7.1942        7.1944       5.444299       0.01437
  34     5.035        1.7502        0.0002        7.1922        7.1924       5.442289       0.01436
  33     6.613        1.7503        0.0003        7.1896        7.1899       5.439607       0.01434
  32     8.786        1.7504        0.0004        7.1860        7.1864       5.435999       0.01401
  31     11.80        1.7506        0.0005        7.1809        7.1815       5.430848       0.01442
  30     15.07        1.7508        0.0007        7.1755        7.1762       5.425334       0.01424
  29     18.79        1.7511        0.0008        7.1694        7.1702       5.419125       0.01408
  28     23.16        1.7514        0.0010        7.1623        7.1633       5.411901       0.01397
  27     28.12        1.7517        0.0013        7.1542        7.1554       5.403676       0.01398
  26     33.73        1.7521        0.0015        7.1451        7.1467       5.394519       0.01377
  25     40.54        1.7526        0.0018        7.1343        7.1361       5.383523       0.01364
  24     48.69        1.7532        0.0022        7.1214        7.1235       5.370365       0.01362
  23     57.69        1.7538        0.0026        7.1073        7.1098       5.356034       0.01343
  22     68.43        1.7546        0.0030        7.0907        7.0937       5.339133       0.01329
  21     81.20        1.7555        0.0036        7.0711        7.0747       5.319230       0.01315
  20     96.49        1.7566        0.0043        7.0482        7.0524       5.295836       0.01291
  19     114.6        1.7579        0.0050        7.0214        7.0264       5.268503       0.01276
  18     136.5        1.7595        0.0060        6.9902        6.9962       5.236702       0.01223
  17     162.9        1.7615        0.0071        6.9540        6.9611       5.199626       0.01185
  16     196.4        1.7640        0.0085        6.9083        6.9168       5.152766       0.01180
  15     218.7        1.7658        0.0095        6.8790        6.8884       5.122649       0.01143
  14     243.0        1.7677        0.0105        6.8477        6.8582       5.090471       0.01116
  13     269.0        1.7698        0.0116        6.8144        6.8260       5.056203       0.01112
  12     297.5        1.7721        0.0127        6.7792        6.7920       5.019829       0.01079
  11     328.5        1.7747        0.0140        6.7419        6.7559       4.981175       0.01051
  10     361.9        1.7776        0.0154        6.7024        6.7178       4.940234       0.01036
   9     398.1        1.7807        0.0168        6.6607        6.6776       4.896848       0.01011
   8     437.6        1.7842        0.0184        6.6167        6.6351       4.850848       0.00983
   7     480.5        1.7881        0.0201        6.5702        6.5902       4.802079       0.00958
   6     533.0        1.7931        0.0221        6.5136        6.5357       4.742540       0.00958
   5     589.8        1.7988        0.0243        6.4532        6.4775       4.678698       0.00948
   4     651.6        1.8053        0.0266        6.3888        6.4154       4.610110       0.00938
   3     718.7        1.8127        0.0292        6.3200        6.3491       4.536436       0.00926
   2     792.3        1.8210        0.0318        6.2467        6.2785       4.457538       0.00905
   1     891.5        1.8330        0.0354        6.1482        6.1835       4.350568       0.00910
   0    1013.0        1.8487        0.0396        6.0288        6.0684       4.219703       0.00909



 Wavenumbers:  8050. - 12850. cm-1, ATM      1
 LEVEL PRESSURE   UPWARD FLUX   DIFDOWN FLUX  DIRDOWN FLUX  DOWNWARD FLUX   NET FLUX    HEATING RATE
          mb          W/m2          W/m2          W/m2        W/m2          W/m2       degree/day
  51    .06700       27.7236        0.0000      100.8135      100.8135      73.089895       0.00000
  50    .07753       27.7236        0.0000      100.8135      100.8135      73.089895       0.00000
  49    .09103       27.7236        0.0001      100.8134      100.8135      73.089895       0.00000
  48    0.1069       27.7236        0.0001      100.8134      100.8134      73.089895      -0.00000
  47    0.1255       27.7235        0.0001      100.8133      100.8134      73.089895       0.00000
  46    0.1487       27.7235        0.0002      100.8132      100.8134      73.089895       0.00000
  45    0.1794       27.7234        0.0003      100.8131      100.8133      73.089895       0.00000
  44    0.2165       27.7234        0.0003      100.8129      100.8133      73.089895      -0.00000
  43    0.2613       27.7233        0.0004      100.8127      100.8132      73.089895       0.00000
  42    0.3336       27.7232        0.0006      100.8125      100.8131      73.089895       0.00000
  41    0.4307       27.7230        0.0008      100.8121      100.8129      73.089895      -0.00000
  40    0.5894       27.7227        0.0012      100.8115      100.8126      73.089895       0.00000
  39     1.339       27.7214        0.0028      100.8085      100.8113      73.089895      -0.00000
  38     1.782       27.7207        0.0038      100.8068      100.8106      73.089895       0.00000
  37     2.292       27.7198        0.0049      100.8047      100.8097      73.089895      -0.00000
  36     2.964       27.7186        0.0064      100.8021      100.8085      73.089895      -0.00000
  35     3.853       27.7171        0.0084      100.7986      100.8070      73.089895       0.00000
  34     5.035       27.7151        0.0110      100.7940      100.8050      73.089895       0.00000
  33     6.613       27.7124        0.0145      100.7878      100.8022      73.089895      -0.00000
  32     8.786       27.7087        0.0192      100.7794      100.7986      73.089895       0.00000
  31     11.80       27.7034        0.0259      100.7674      100.7933      73.089895       0.00000
  30     15.07       27.6978        0.0332      100.7546      100.7877      73.089895      -0.00000
  29     18.79       27.6914        0.0413      100.7400      100.7813      73.089895       0.00000
  28     23.16       27.6840        0.0509      100.7230      100.7739      73.089895       0.00000
  27     28.12       27.6755        0.0619      100.7035      100.7654      73.089895      -0.00000
  26     33.73       27.6659        0.0741      100.6817      100.7558      73.089895       0.00000
  25     40.54       27.6543        0.0890      100.6552      100.7442      73.089895       0.00000
  24     48.69       27.6404        0.1069      100.6234      100.7303      73.089895       0.00000
  23     57.69       27.6250        0.1266      100.5883      100.7149      73.089895       0.00000
  22     68.43       27.6067        0.1501      100.5464      100.6966      73.089895      -0.00000
  21     81.20       27.5848        0.1782      100.4965      100.6747      73.089895       0.00000
  20     96.49       27.5587        0.2117      100.4370      100.6486      73.089895       0.00000
  19     114.6       27.5277        0.2515      100.3653      100.6168      73.089119       0.00036
  18     136.5       27.4908        0.2987      100.2801      100.5788      73.087991       0.00043
  17     162.9       27.4468        0.3551      100.1773      100.5324      73.085667       0.00074
  16     196.4       27.3896        0.4284      100.0404      100.4688      73.079225       0.00162
  15     218.7       27.3519        0.4766       99.9459      100.4224      73.070524       0.00330
  14     243.0       27.3110        0.5291       99.8336      100.3626      73.051638       0.00655
  13     269.0       27.2668        0.5860       99.6859      100.2718      73.005023       0.01512
  12     297.5       27.2194        0.6475       99.4890      100.1365      72.917040       0.02609
  11     328.5       27.1689        0.7139       99.2268       99.9407      72.771784       0.03949
  10     361.9       27.1156        0.7854       98.8916       99.6769      72.561288       0.05326
   9     398.1       27.0600        0.8621       98.4828       99.3449      72.284845       0.06440
   8     437.6       27.0031        0.9443       97.9880       98.9323      71.929127       0.07605
   7     480.5       26.9471        1.0318       97.3668       98.3987      71.451527       0.09380
   6     533.0       26.8864        1.1389       96.4874       97.6263      70.739843       0.11449
   5     589.8       26.8330        1.2531       95.4140       96.6671      69.834080       0.13444
   4     651.6       26.7931        1.3742       94.1315       95.5057      68.712604       0.15336
   3     718.7       26.7695        1.5025       92.7027       94.2052      67.435645       0.16048
   2     792.3       26.7640        1.6384       91.1947       92.8331      66.069138       0.15672
   1     891.5       26.7964        1.8190       89.1731       90.9921      64.195723       0.15942
   0    1013.0       26.9352        2.0300       86.6436       88.6736      61.738355       0.17063



 Wavenumbers: 12850. - 16000. cm-1, ATM      1
 LEVEL PRESSURE   UPWARD FLUX   DIFDOWN FLUX  DIRDOWN FLUX  DOWNWARD FLUX   NET FLUX    HEATING RATE
          mb          W/m2          W/m2          W/m2        W/m2          W/m2       degree/day
  51    .06700       33.3504        0.0000       63.1686       63.1686      29.818212       0.00000
  50    .07753       33.3503        0.0001       63.1677       63.1678      29.817432       0.62502
  49    .09103       33.3503        0.0001       63.1666       63.1668      29.816460       0.60745
  48    0.1069       33.3503        0.0002       63.1654       63.1656      29.815353       0.58909
  47    0.1255       33.3502        0.0003       63.1640       63.1643      29.814095       0.57065
  46    0.1487       33.3502        0.0004       63.1623       63.1627      29.812525       0.57227
  45    0.1794       33.3501        0.0006       63.1600       63.1606      29.810419       0.57800
  44    0.2165       33.3501        0.0008       63.1573       63.1581      29.807984       0.55392
  43    0.2613       33.3500        0.0010       63.1542       63.1552      29.805175       0.52948
  42    0.3336       33.3500        0.0014       63.1493       63.1507      29.800699       0.52186
  41    0.4307       33.3499        0.0019       63.1431       63.1450      29.795100       0.48680
  40    0.5894       33.3499        0.0027       63.1338       63.1365      29.786618       0.45109
  39     1.339       33.3512        0.0065       63.0956       63.1021      29.750968       0.40135
  38     1.782       33.3529        0.0088       63.0740       63.0828      29.729977       0.39964
  37     2.292       33.3557        0.0114       63.0477       63.0591      29.703351       0.44099
  36     2.964       33.3609        0.0148       63.0095       63.0244      29.663478       0.50053
  35     3.853       33.3697        0.0194       62.9533       62.9726      29.602959       0.57434
  34     5.035       33.3833        0.0254       62.8725       62.8979      29.514629       0.63099
  33     6.613       33.4024        0.0334       62.7621       62.7955      29.393074       0.64984
  32     8.786       33.4272        0.0442       62.6183       62.6624      29.235287       0.61279
  31     11.80       33.4588        0.0596       62.4284       62.4880      29.029174       0.57705
  30     15.07       33.4883        0.0761       62.2426       62.3187      28.830388       0.51323
  29     18.79       33.5177        0.0947       62.0493       62.1440      28.626287       0.46276
  28     23.16       33.5474        0.1163       61.8425       61.9588      28.411367       0.41559
  27     28.12       33.5760        0.1410       61.6278       61.7688      28.192800       0.37155
  26     33.73       33.6004        0.1686       61.4177       61.5863      27.985858       0.31114
  25     40.54       33.6210        0.2019       61.1983       61.4002      27.779158       0.25643
  24     48.69       33.6373        0.2419       60.9680       61.2099      27.572648       0.21370
  23     57.69       33.6468        0.2859       60.7478       61.0337      27.386860       0.17415
  22     68.43       33.6492        0.3381       60.5202       60.8584      27.209140       0.13971
  21     81.20       33.6397        0.4004       60.2939       60.6942      27.054502       0.10218
  20     96.49       33.6171        0.4745       60.0643       60.5388      26.921742       0.07327
  19     114.6       33.5882        0.5629       59.8079       60.3708      26.782597       0.06497
  18     136.5       33.5493        0.6674       59.5160       60.1835      26.634128       0.05709
  17     162.9       33.4989        0.7916       59.1777       59.9692      26.470315       0.05236
  16     196.4       33.4247        0.9521       58.7619       59.7140      26.289352       0.04555
  15     218.7       33.3727        1.0573       58.4974       59.5547      26.181929       0.04078
  14     243.0       33.3149        1.1713       58.2140       59.3854      26.070411       0.03868
  13     269.0       33.2510        1.2947       57.9121       59.2067      25.955762       0.03719
  12     297.5       33.1806        1.4276       57.5908       59.0183      25.837765       0.03500
  11     328.5       33.1042        1.5708       57.2469       58.8177      25.713498       0.03379
  10     361.9       33.0218        1.7246       56.8793       58.6040      25.582129       0.03324
   9     398.1       32.9333        1.8897       56.4864       58.3761      25.442806       0.03246
   8     437.6       32.8388        2.0663       56.0651       58.1314      25.292653       0.03210
   7     480.5       32.7386        2.2551       55.6124       57.8675      25.128904       0.03216
   6     533.0       32.6173        2.4864       55.0519       57.5383      24.920963       0.03345
   5     589.8       32.4899        2.7346       54.4433       57.1779      24.687998       0.03458
   4     651.6       32.3577        2.9999       53.7835       56.7834      24.425743       0.03586
   3     718.7       32.2214        3.2828       53.0757       56.3585      24.137089       0.03628
   2     792.3       32.0821        3.5833       52.3244       55.9077      23.825620       0.03572
   1     891.5       31.9074        3.9851       51.3242       55.3093      23.401871       0.03606
   0    1013.0       31.7251        4.4614       50.1405       54.6020      22.876875       0.03645



 Wavenumbers: 16000. - 22650. cm-1, ATM      1
 LEVEL PRESSURE   UPWARD FLUX   DIFDOWN FLUX  DIRDOWN FLUX  DOWNWARD FLUX   NET FLUX    HEATING RATE
          mb          W/m2          W/m2          W/m2        W/m2          W/m2       degree/day
  51    .06700       74.1900        0.0000      100.7153      100.7153      26.525326       0.00000
  50    .07753       74.1898        0.0003      100.7147      100.7151      26.525210       0.09363
  49    .09103       74.1897        0.0007      100.7140      100.7147      26.525040       0.10620
  48    0.1069       74.1895        0.0012      100.7131      100.7143      26.524812       0.12110
  47    0.1255       74.1893        0.0017      100.7121      100.7138      26.524508       0.13804
  46    0.1487       74.1891        0.0024      100.7108      100.7132      26.524059       0.16357
  45    0.1794       74.1889        0.0033      100.7089      100.7122      26.523357       0.19260
  44    0.2165       74.1886        0.0044      100.7066      100.7110      26.522406       0.21645
  43    0.2613       74.1883        0.0057      100.7037      100.7094      26.521115       0.24334
  42    0.3336       74.1879        0.0079      100.6987      100.7066      26.518660       0.28616
  41    0.4307       74.1876        0.0108      100.6918      100.7025      26.514961       0.32167
  40    0.5894       74.1873        0.0154      100.6797      100.6952      26.507905       0.37520
  39     1.339       74.1912        0.0375      100.6095      100.6470      26.455789       0.58673
  38     1.782       74.1975        0.0505      100.5585      100.6089      26.411407       0.84498
  37     2.292       74.2085        0.0655      100.4903      100.5557      26.347183       1.06372
  36     2.964       74.2287        0.0851      100.3868      100.4719      26.243188       1.30544
  35     3.853       74.2634        0.1111      100.2306      100.3417      26.078295       1.56486
  34     5.035       74.3174        0.1455      100.0045      100.1500      25.832559       1.75544
  33     6.613       74.3937        0.1914       99.6939       99.8853      25.491587       1.82283
  32     8.786       74.4923        0.2531       99.2881       99.5412      25.048830       1.71951
  31     11.80       74.6180        0.3411       98.7496       99.0907      24.472722       1.61292
  30     15.07       74.7348        0.4352       98.2198       98.6550      23.920223       1.42645
  29     18.79       74.8505        0.5411       97.6651       98.2063      23.355709       1.27993
  28     23.16       74.9671        0.6644       97.0671       97.7315      22.764477       1.14325
  27     28.12       75.0785        0.8048       96.4406       97.2454      22.166915       1.01581
  26     33.73       75.1718        0.9614       95.8179       96.7793      21.607546       0.84103
  25     40.54       75.2483        1.1500       95.1548       96.3048      21.056589       0.68352
  24     48.69       75.3053        1.3764       94.4420       95.8184      20.513085       0.56244
  23     57.69       75.3342        1.6241       93.7416       95.3658      20.031577       0.45134
  22     68.43       75.3321        1.9179       92.9954       94.9133      19.581160       0.35409
  21     81.20       75.2798        2.2665       92.2232       94.4896      19.209871       0.24534
  20     96.49       75.1714        2.6799       91.4110       94.0909      18.919509       0.16026
  19     114.6       75.0198        3.1674       90.5071       93.6745      18.654614       0.12369
  18     136.5       74.8256        3.7403       89.4803       93.2206      18.395034       0.09981
  17     162.9       74.5818        4.4156       88.3023       92.7179      18.136157       0.08275
  16     196.4       74.2374        5.2811       86.8609       92.1420      17.904566       0.05829
  15     218.7       74.0017        5.8432       85.9496       91.7928      17.791112       0.04307
  14     243.0       73.7420        6.4486       84.9798       91.4284      17.686373       0.03633
  13     269.0       73.4571        7.0981       83.9513       91.0494      17.592310       0.03051
  12     297.5       73.1461        7.7925       82.8631       90.6556      17.509512       0.02456
  11     328.5       72.8102        8.5342       81.7062       90.2404      17.430246       0.02155
  10     361.9       72.4492        9.3229       80.4812       89.8041      17.354902       0.01906
   9     398.1       72.0619       10.1603       79.1850       89.3453      17.283366       0.01667
   8     437.6       71.6484       11.0467       77.8160       88.8626      17.214198       0.01479
   7     480.5       71.2082       11.9823       76.3737       88.3560      17.147796       0.01304
   6     533.0       70.6711       13.1137       74.6317       87.7453      17.074211       0.01184
   5     589.8       70.0991       14.3087       72.7916       87.1003      17.001222       0.01083
   4     651.6       69.4926       15.5655       70.8546       86.4202      16.927554       0.01007
   3     718.7       68.8518       16.8824       68.8227       85.7051      16.853299       0.00933
   2     792.3       68.1778       18.2548       66.7015       84.9564      16.778586       0.00857
   1     891.5       67.2890       20.0459       63.9253       83.9712      16.682217       0.00820
   0    1013.0       66.2535       22.1063       60.7160       82.8223      16.568740       0.00788



 Wavenumbers: 22650. - 29000. cm-1, ATM      1
 LEVEL PRESSURE   UPWARD FLUX   DIFDOWN FLUX  DIRDOWN FLUX  DOWNWARD FLUX   NET FLUX    HEATING RATE
          mb          W/m2          W/m2          W/m2        W/m2          W/m2       degree/day
  51    .06700       32.0532        0.0000       38.0063       38.0063       5.953076       0.00000
  50    .07753       32.0530        0.0004       38.0057       38.0061       5.953076       0.00000
  49    .09103       32.0528        0.0009       38.0050       38.0059       5.953076       0.00000
  48    0.1069       32.0526        0.0014       38.0042       38.0056       5.953076       0.00000
  47    0.1255       32.0523        0.0020       38.0033       38.0054       5.953076       0.00000
  46    0.1487       32.0519        0.0028       38.0022       38.0050       5.953076      -0.00000
  45    0.1794       32.0514        0.0039       38.0006       38.0045       5.953076       0.00000
  44    0.2165       32.0508        0.0052       37.9987       38.0039       5.953076       0.00000
  43    0.2613       32.0501        0.0067       37.9965       38.0032       5.953076       0.00000
  42    0.3336       32.0490        0.0092       37.9928       38.0021       5.953076      -0.00000
  41    0.4307       32.0475        0.0125       37.9880       38.0005       5.953076       0.00000
  40    0.5894       32.0450        0.0180       37.9800       37.9980       5.953076      -0.00000
  39     1.339       32.0331        0.0437       37.9425       37.9862       5.953076       0.00000
  38     1.782       32.0262        0.0588       37.9204       37.9793       5.953076      -0.00000
  37     2.292       32.0182        0.0763       37.8949       37.9712       5.953076       0.00000
  36     2.964       32.0076        0.0993       37.8614       37.9607       5.953076       0.00000
  35     3.853       31.9937        0.1295       37.8172       37.9468       5.953076       0.00000
  34     5.035       31.9752        0.1697       37.7586       37.9283       5.953076       0.00000
  33     6.613       31.9506        0.2233       37.6803       37.9037       5.953076      -0.00000
  32     8.786       31.9174        0.2955       37.5750       37.8705       5.953076       0.00000
  31     11.80       31.8701        0.3983       37.4249       37.8232       5.953076       0.00000
  30     15.07       31.8194        0.5083       37.2642       37.7725       5.953076      -0.00000
  29     18.79       31.7624        0.6321       37.0833       37.7154       5.953076       0.00000
  28     23.16       31.6960        0.7760       36.8730       37.6490       5.953076      -0.00000
  27     28.12       31.6204        0.9397       36.6338       37.5735       5.953076       0.00000
  26     33.73       31.5363        1.1216       36.3677       37.4893       5.953076      -0.00000
  25     40.54       31.4353        1.3398       36.0486       37.3883       5.953076       0.00000
  24     48.69       31.3144        1.6003       35.6672       37.2675       5.953076       0.00000
  23     57.69       31.1829        1.8832       35.2527       37.1360       5.953076      -0.00000
  22     68.43       31.0278        2.2160       34.7649       36.9809       5.953076       0.00000
  21     81.20       30.8455        2.6063       34.1923       36.7985       5.953076      -0.00000
  20     96.49       30.6314        3.0628       33.5218       36.5845       5.953076       0.00000
  19     114.6       30.3819        3.5926       32.7424       36.3350       5.953076       0.00000
  18     136.5       30.0926        4.2040       31.8416       36.0456       5.953076      -0.00000
  17     162.9       29.7568        4.9090       30.8008       35.7099       5.953076       0.00000
  16     196.4       29.3350        5.7874       29.5007       35.2881       5.953076       0.00000
  15     218.7       29.0663        6.3426       28.6768       35.0194       5.953076      -0.00000
  14     243.0       28.7814        6.9275       27.8069       34.7344       5.953076       0.00000
  13     269.0       28.4806        7.5401       26.8936       34.4337       5.953076       0.00000
  12     297.5       28.1648        8.1780       25.9398       34.1179       5.953076       0.00000
  11     328.5       27.8336        8.8406       24.9461       33.7867       5.953076      -0.00000
  10     361.9       27.4885        9.5240       23.9176       33.4416       5.953076       0.00000
   9     398.1       27.1296       10.2262       22.8564       33.0827       5.953076       0.00000
   8     437.6       26.7583       10.9429       21.7685       32.7114       5.953076       0.00000
   7     480.5       26.3757       11.6701       20.6587       32.3288       5.953076      -0.00000
   6     533.0       25.9249       12.5115       19.3665       31.8780       5.953076      -0.00000
   5     589.8       25.4627       13.3548       18.0610       31.4158       5.953076       0.00000
   4     651.6       24.9913       14.1929       16.7515       30.9444       5.953076       0.00000
   3     718.7       24.5129       15.0179       15.4481       30.4660       5.953076       0.00000
   2     792.3       24.0297       15.8228       14.1599       29.9828       5.953076       0.00000
   1     891.5       23.4224       16.7877       12.5877       29.3755       5.953076       0.00000
   0    1013.0       22.7520       17.7851       10.9200       28.7051       5.953076       0.00000



 Wavenumbers: 29000. - 38000. cm-1, ATM      1
 LEVEL PRESSURE   UPWARD FLUX   DIFDOWN FLUX  DIRDOWN FLUX  DOWNWARD FLUX   NET FLUX    HEATING RATE
          mb          W/m2          W/m2          W/m2        W/m2          W/m2       degree/day
  51    .06700        4.7041        0.0000       13.4026       13.4026       8.698542       0.00000
  50    .07753        4.7038        0.0003       13.3983       13.3986       8.694744       3.04421
  49    .09103        4.7036        0.0007       13.3921       13.3928       8.689225       3.44947
  48    0.1069        4.7033        0.0011       13.3840       13.3851       8.681849       3.92653
  47    0.1255        4.7029        0.0016       13.3733       13.3749       8.672004       4.46291
  46    0.1487        4.7025        0.0022       13.3579       13.3600       8.657563       5.26406
  45    0.1794        4.7019        0.0030       13.3340       13.3371       8.635165       6.14888
  44    0.2165        4.7012        0.0040       13.3024       13.3064       8.605148       6.82832
  43    0.2613        4.7004        0.0051       13.2604       13.2655       8.565096       7.54960
  42    0.3336        4.6992        0.0070       13.1833       13.1903       8.491095       8.62781
  41    0.4307        4.6976        0.0095       13.0729       13.0824       8.384731       9.24810
  40    0.5894        4.6952        0.0133       12.8796       12.8929       8.197704       9.94587
  39     1.339        4.6866        0.0295       11.9165       11.9460       7.259487      10.56261
  38     1.782        4.6831        0.0378       11.4399       11.4777       6.794609       8.85052
  37     2.292        4.6804        0.0466       10.9796       11.0262       6.345823       7.43308
  36     2.964        4.6786        0.0574       10.4786       10.5361       5.857421       6.13091
  35     3.853        4.6788        0.0708        9.9429       10.0137       5.334919       4.95864
  34     5.035        4.6815        0.0875        9.4007        9.4882       4.806705       3.77334
  33     6.613        4.6869        0.1087        8.8752        8.9839       4.297024       2.72476
  32     8.786        4.6943        0.1359        8.3786        8.5145       3.820207       1.85178
  31     11.80        4.7033        0.1734        7.8897        8.0630       3.359747       1.28914
  30     15.07        4.7108        0.2120        7.5108        7.7228       3.011990       0.89784
  29     18.79        4.7175        0.2540        7.1776        7.4317       2.714108       0.67539
  28     23.16        4.7234        0.3014        6.8664        7.1678       2.444420       0.52149
  27     28.12        4.7276        0.3537        6.5780        6.9317       2.204115       0.40850
  26     33.73        4.7278        0.4106        6.3195        6.7301       2.002279       0.30347
  25     40.54        4.7228        0.4778        6.0663        6.5441       1.821272       0.22456
  24     48.69        4.7119        0.5565        5.8128        6.3693       1.657407       0.16957
  23     57.69        4.6953        0.6404        5.5777        6.2181       1.522771       0.12620
  22     68.43        4.6706        0.7374        5.3379        6.0753       1.404765       0.09277
  21     81.20        4.6335        0.8500        5.0965        5.9465       1.312983       0.06065
  20     96.49        4.5829        0.9799        4.8476        5.8276       1.244686       0.03769
  19     114.6        4.5216        1.1270        4.5799        5.7069       1.185284       0.02774
  18     136.5        4.4506        1.2911        4.2891        5.5802       1.129659       0.02139
  17     162.9        4.3694        1.4729        3.9732        5.4461       1.076687       0.01693
  16     196.4        4.2667        1.6901        3.6080        5.2981       1.031466       0.01138
  15     218.7        4.2019        1.8221        3.3898        5.2119       1.009964       0.00816
  14     243.0        4.1344        1.9564        3.1686        5.1249       0.990480       0.00676
  13     269.0        4.0646        2.0918        2.9461        5.0379       0.973313       0.00557
  12     297.5        3.9927        2.2272        2.7239        4.9512       0.958478       0.00440
  11     328.5        3.9196        2.3612        2.5029        4.8641       0.944563       0.00378
  10     361.9        3.8457        2.4924        2.2848        4.7773       0.931596       0.00328
   9     398.1        3.7713        2.6199        2.0710        4.6909       0.919551       0.00281
   8     437.6        3.6970        2.7419        1.8633        4.6052       0.908180       0.00243
   7     480.5        3.6232        2.8575        1.6632        4.5208       0.897606       0.00208
   6     533.0        3.5395        2.9807        1.4452        4.4259       0.886331       0.00181
   5     589.8        3.4575        3.0920        1.2412        4.3332       0.875663       0.00158
   4     651.6        3.3776        3.1903        1.0528        4.2431       0.865461       0.00140
   3     718.7        3.3000        3.2745        0.8812        4.1556       0.855686       0.00123
   2     792.3        3.2249        3.3437        0.7274        4.0712       0.846321       0.00107
   1     891.5        3.1343        3.4091        0.5602        3.9693       0.835027       0.00096
   0    1013.0        3.0386        3.4535        0.4080        3.8615       0.822891       0.00084



 Wavenumbers: 38000. - 50000. cm-1, ATM      1
 LEVEL PRESSURE   UPWARD FLUX   DIFDOWN FLUX  DIRDOWN FLUX  DOWNWARD FLUX   NET FLUX    HEATING RATE
          mb          W/m2          W/m2          W/m2        W/m2          W/m2       degree/day
  51    .06700        0.0051        0.0000        0.8267        0.8267       0.821528       0.00000
  50    .07753        0.0051        0.0001        0.8242        0.8243       0.819196       1.86936
  49    .09103        0.0050        0.0002        0.8207        0.8209       0.815873       2.07705
  48    0.1069        0.0049        0.0002        0.8162        0.8164       0.811514       2.31984
  47    0.1255        0.0048        0.0004        0.8103        0.8106       0.805801       2.59006
  46    0.1487        0.0047        0.0005        0.8018        0.8023       0.797567       3.00143
  45    0.1794        0.0045        0.0007        0.7889        0.7896       0.785013       3.44648
  44    0.2165        0.0044        0.0009        0.7720        0.7729       0.768507       3.75474
  43    0.2613        0.0042        0.0011        0.7500        0.7511       0.746955       4.06246
  42    0.3336        0.0039        0.0015        0.7106        0.7121       0.708267       4.51071
  41    0.4307        0.0035        0.0019        0.6566        0.6584       0.654972       4.63387
  40    0.5894        0.0029        0.0024        0.5680        0.5704       0.567464       4.65357
  39     1.339        0.0015        0.0030        0.2422        0.2452       0.243720       3.64476
  38     1.782        0.0010        0.0026        0.1493        0.1519       0.150889       1.76735
  37     2.292        0.0007        0.0022        0.0924        0.0946       0.093932       0.94336
  36     2.964        0.0005        0.0018        0.0539        0.0557       0.055224       0.48589
  35     3.853        0.0003        0.0013        0.0295        0.0308       0.030502       0.23462
  34     5.035        0.0002        0.0010        0.0154        0.0164       0.016181       0.10230
  33     6.613        0.0001        0.0007        0.0073        0.0080       0.007912       0.04420
  32     8.786        0.0000        0.0004        0.0030        0.0034       0.003390       0.01756
  31     11.80        0.0000        0.0003        0.0010        0.0012       0.001199       0.00613
  30     15.07        0.0000        0.0001        0.0003        0.0005       0.000463       0.00190
  29     18.79        0.0000        0.0001        0.0001        0.0002       0.000182       0.00064
  28     23.16        0.0000        0.0000        0.0000        0.0001       0.000071       0.00022
  27     28.12        0.0000        0.0000        0.0000        0.0000       0.000028       0.00007
  26     33.73        0.0000        0.0000        0.0000        0.0000       0.000011       0.00002
  25     40.54        0.0000        0.0000        0.0000        0.0000       0.000005       0.00001
  24     48.69        0.0000        0.0000        0.0000        0.0000       0.000002       0.00000
  23     57.69        0.0000        0.0000        0.0000        0.0000       0.000001       0.00000
  22     68.43        0.0000        0.0000        0.0000        0.0000       0.000000       0.00000
  21     81.20        0.0000        0.0000        0.0000        0.0000       0.000000       0.00000
  20     96.49        0.0000        0.0000        0.0000        0.0000       0.000000       0.00000
  19     114.6        0.0000        0.0000        0.0000        0.0000       0.000000       0.00000
  18     136.5        0.0000        0.0000        0.0000        0.0000       0.000000       0.00000
  17     162.9        0.0000        0.0000        0.0000        0.0000       0.000000       0.00000
  16     196.4        0.0000        0.0000        0.0000        0.0000       0.000000       0.00000
  15     218.7        0.0000        0.0000        0.0000        0.0000       0.000000       0.00000
  14     243.0        0.0000        0.0000        0.0000        0.0000       0.000000       0.00000
  13     269.0        0.0000        0.0000        0.0000        0.0000       0.000000       0.00000
  12     297.5        0.0000        0.0000        0.0000        0.0000       0.000000       0.00000
  11     328.5        0.0000        0.0000        0.0000        0.0000       0.000000       0.00000
  10     361.9        0.0000        0.0000        0.0000        0.0000       0.000000       0.00000
   9     398.1        0.0000        0.0000        0.0000        0.0000       0.000000       0.00000
   8     437.6        0.0000        0.0000        0.0000        0.0000       0.000000       0.00000
   7     480.5        0.0000        0.0000        0.0000        0.0000       0.000000       0.00000
   6     533.0        0.0000        0.0000        0.0000        0.0000       0.000000       0.00000
   5     589.8        0.0000        0.0000        0.0000        0.0000       0.000000       0.00000
   4     651.6        0.0000        0.0000        0.0000        0.0000       0.000000       0.00000
   3     718.7        0.0000        0.0000        0.0000        0.0000       0.000000       0.00000
   2     792.3        0.0000        0.0000        0.0000        0.0000       0.000000       0.00000
   1     891.5        0.0000        0.0000        0.0000        0.0000       0.000000       0.00000
   0    1013.0        0.0000        0.0000        0.0000        0.0000       0.000000       0.00000



 Wavenumbers:   820. -  2600. cm-1, ATM      1
 LEVEL PRESSURE   UPWARD FLUX   DIFDOWN FLUX  DIRDOWN FLUX  DOWNWARD FLUX   NET FLUX    HEATING RATE
          mb          W/m2          W/m2          W/m2        W/m2          W/m2       degree/day
  51    .06700        0.4933        0.0000        3.8670        3.8670       3.373706       0.00000
  50    .07753        0.4933        0.0000        3.8644        3.8644       3.371047       2.13143
  49    .09103        0.4933        0.0000        3.8636        3.8636       3.370312       0.45924
  48    0.1069        0.4933        0.0000        3.8628        3.8628       3.369512       0.42615
  47    0.1255        0.4933        0.0000        3.8620        3.8620       3.368659       0.38680
  46    0.1487        0.4933        0.0000        3.8610        3.8610       3.367690       0.35293
  45    0.1794        0.4933        0.0000        3.8599        3.8599       3.366556       0.31148
  44    0.2165        0.4933        0.0000        3.8587        3.8587       3.365424       0.25740
  43    0.2613        0.4933        0.0000        3.8576        3.8576       3.364266       0.21842
  42    0.3336        0.4933        0.0000        3.8559        3.8559       3.362549       0.20019
  41    0.4307        0.4933        0.0000        3.8537        3.8537       3.360370       0.18943
  40    0.5894        0.4933        0.0000        3.8501        3.8501       3.356816       0.18899
  39     1.339        0.4933        0.0000        3.8343        3.8343       3.340984       0.17824
  38     1.782        0.4933        0.0000        3.8256        3.8256       3.332259       0.16611
  37     2.292        0.4933        0.0000        3.8159        3.8159       3.322561       0.16063
  36     2.964        0.4933        0.0000        3.8038        3.8038       3.310455       0.15196
  35     3.853        0.4933        0.0000        3.7885        3.7885       3.295177       0.14500
  34     5.035        0.4933        0.0000        3.7687        3.7687       3.275423       0.14111
  33     6.613        0.4933        0.0000        3.7427        3.7427       3.249370       0.13928
  32     8.786        0.4933        0.0000        3.7095        3.7095       3.216144       0.12904
  31     11.80        0.4933        0.0000        3.6704        3.6704       3.177071       0.10939
  30     15.07        0.4933        0.0000        3.6411        3.6411       3.147824       0.07551
  29     18.79        0.4933        0.0000        3.6202        3.6202       3.126828       0.04760
  28     23.16        0.4933        0.0000        3.6044        3.6044       3.111087       0.03044
  27     28.12        0.4933        0.0000        3.5906        3.5906       3.097249       0.02352
  26     33.73        0.4934        0.0000        3.5762        3.5762       3.082876       0.02161
  25     40.54        0.4934        0.0000        3.5590        3.5590       3.065607       0.02142
  24     48.69        0.4934        0.0000        3.5380        3.5380       3.044626       0.02171
  23     57.69        0.4934        0.0000        3.5148        3.5149       3.021451       0.02172
  22     68.43        0.4934        0.0000        3.4874        3.4874       2.993950       0.02162
  21     81.20        0.4935        0.0000        3.4557        3.4557       2.962213       0.02097
  20     96.49        0.4935        0.0000        3.4194        3.4194       2.925900       0.02004
  19     114.6        0.4936        0.0000        3.3792        3.3792       2.885651       0.01879
  18     136.5        0.4936        0.0000        3.3353        3.3354       2.841735       0.01689
  17     162.9        0.4937        0.0000        3.2864        3.2865       2.792751       0.01566
  16     196.4        0.4939        0.0000        3.2261        3.2261       2.732252       0.01523
  15     218.7        0.4940        0.0000        3.1886        3.1886       2.694629       0.01428
  14     243.0        0.4941        0.0000        3.1455        3.1456       2.651474       0.01497
  13     269.0        0.4943        0.0000        3.0897        3.0897       2.595447       0.01817
  12     297.5        0.4945        0.0000        3.0221        3.0221       2.527582       0.02013
  11     328.5        0.4948        0.0000        2.9458        2.9458       2.450964       0.02083
  10     361.9        0.4953        0.0000        2.8605        2.8605       2.365218       0.02169
   9     398.1        0.4959        0.0000        2.7593        2.7593       2.263377       0.02373
   8     437.6        0.4968        0.0000        2.6312        2.6313       2.134512       0.02755
   7     480.5        0.4979        0.0000        2.4745        2.4746       1.976695       0.03099
   6     533.0        0.4996        0.0000        2.2961        2.2961       1.796558       0.02898
   5     589.8        0.5019        0.0000        2.1560        2.1560       1.654138       0.02114
   4     651.6        0.5051        0.0001        2.0613        2.0614       1.556313       0.01338
   3     718.7        0.5092        0.0001        1.9937        1.9938       1.484547       0.00902
   2     792.3        0.5143        0.0001        1.9333        1.9334       1.419069       0.00751
   1     891.5        0.5226        0.0001        1.8563        1.8563       1.333786       0.00726
   0    1013.0        0.5367        0.0001        1.7598        1.7598       1.223088       0.00769

  Modules and versions used in this calculation:

       rrtmg_sw.1col.f90:  $Revision$                    rrtmg_sw_init.f90:  $Revision$        
     rrtmgsw_cldprop.f90:  $Revision$                  rrtmgsw_cldprmc.f90:  NOT USED          
     rrtmg_sw_reftra.f90:  $Revision$                  rrtmg_sw_spcvrt.f90:  NOT USED          
     rrtmg_sw_spcvmc.f90:  NOT USED                    rrtmgsw_setcoef.f90:  NOT USED          
     rrtmg_sw_taumol.f90:  $Revision$                  rrtmg_sw_vrtqdr.f90:  NOT USED          
                rrtatm.f:  NOT USED                             util_xxx.f:  NOT USED          
                 extra.f:  NOT USED                       rrtmg_sw_k_g.f90:  $Revision$        

