

 Wavenumbers:   820. - 50000. cm-1, ATM      1
 LEVEL PRESSURE   UPWARD FLUX   DIFDOWN FLUX  DIRDOWN FLUX  DOWNWARD FLUX   NET FLUX    HEATING RATE
          mb          W/m2          W/m2          W/m2        W/m2          W/m2       degree/day
  51    .06700      178.4606        0.0000      397.8738      397.8738     219.413226       0.00000
  50    .07753      178.4599        0.0011      397.8579      397.8590     219.399115      11.31012
  49    .09103      178.4591        0.0026      397.8422      397.8448     219.385645       8.41921
  48    0.1069      178.4583        0.0042      397.8236      397.8278     219.369538       8.57382
  47    0.1255      178.4573        0.0061      397.8005      397.8066     219.349366       9.14499
  46    0.1487      178.4561        0.0085      397.7688      397.7773     219.321245      10.25023
  45    0.1794      178.4544        0.0118      397.7221      397.7339     219.279415      11.48329
  44    0.2165      178.4526        0.0156      397.6623      397.6779     219.225329      12.30366
  43    0.2613      178.4505        0.0202      397.5856      397.6057     219.155225      13.21437
  42    0.3336      178.4472        0.0276      397.4486      397.4762     219.028975      14.71948
  41    0.4307      178.4431        0.0374      397.2575      397.2949     218.851747      15.40956
  40    0.5894      178.4370        0.0531      396.9326      396.9857     218.548715      16.11487
  39     1.339      178.4184        0.1232      395.4420      395.5652     217.146769      15.78336
  38     1.782      178.4145        0.1625      394.7504      394.9129     216.498403      12.34386
  37     2.292      178.4159        0.2072      394.0843      394.2915     215.875541      10.31621
  36     2.964      178.4268        0.2652      393.3347      393.5999     215.173147       8.81717
  35     3.853      178.4535        0.3410      392.4744      392.8154     214.361925       7.69864
  34     5.035      178.5013        0.4407      391.4971      391.9378     213.436538       6.61058
  33     6.613      178.5720        0.5728      390.3920      390.9647     212.392752       5.58008
  32     8.786      178.6625        0.7493      389.1413      389.8907     211.228143       4.52292
  31     11.80      178.7716        0.9999      387.6453      388.6452     209.873630       3.79221
  30     15.07      178.8647        1.2666      386.2665      387.5331     208.668422       3.11161
  29     18.79      178.9485        1.5655      384.8775      386.4430     207.494503       2.66164
  28     23.16      179.0218        1.9117      383.4139      385.3256     206.303765       2.30250
  27     28.12      179.0769        2.3043      381.8968      384.2011     205.124205       2.00517
  26     33.73      179.0963        2.7403      380.3805      383.1209     204.024622       1.65325
  25     40.54      179.0707        3.2631      378.7406      382.0037     202.932987       1.35430
  24     48.69      178.9931        3.8876      376.9451      380.8327     201.839540       1.13155
  23     57.69      178.8632        4.5668      375.1399      379.7067     200.843538       0.93360
  22     68.43      178.6606        5.3674      373.1636      378.5310     199.870456       0.76497
  21     81.20      178.3529        6.3106      371.0327      377.3432     198.990296       0.58160
  20     96.49      177.9269        7.4197      368.7081      376.1278     198.200842       0.43572
  19     114.6      177.4013        8.7143      366.0857      374.8000     197.398691       0.37455
  18     136.5      176.7673       10.2169      363.1038      373.3207     196.553474       0.32501
  17     162.9      176.0079       11.9624      359.6530      371.6154     195.607484       0.30238
  16     196.4      175.0029       14.1610      355.2888      369.4497     194.446790       0.29216
  15     218.7      174.3414       15.5660      352.4045      367.9705     193.629053       0.31046
  14     243.0      173.6279       17.0594      349.1293      366.1886     192.560762       0.37052
  13     269.0      172.8621       18.6394      345.1378      363.7771     190.915077       0.53385
  12     297.5      172.0447       20.3035      340.4449      360.7484     188.703718       0.65587
  11     328.5      171.1786       22.0530      335.1397      357.1926     186.014067       0.73131
  10     361.9      170.2667       23.8824      329.2946      353.1770     182.910315       0.78528
   9     398.1      169.3100       25.7914      322.9001      348.6915     179.381530       0.82213
   8     437.6      168.3138       27.7741      315.9286      343.7027     175.388889       0.85365
   7     480.5      167.2851       29.8265      308.3319      338.1584     170.873306       0.88684
   6     533.0      166.0776       32.2536      299.2240      331.4776     165.399992       0.88048
   5     589.8      164.8526       34.7551      289.8475      324.6026     159.749976       0.83865
   4     651.6      163.6330       37.3198      280.2468      317.5667     153.933648       0.79540
   3     718.7      162.4320       39.9393      270.7532      310.6925     148.260442       0.71296
   2     792.3      161.2641       42.5990      261.5128      304.1117     142.847645       0.62079
   1     891.5      159.9050       45.9682      250.0064      295.9746     136.069632       0.57678
   0    1013.0      158.7304       49.7028      236.9118      286.6146     127.884223       0.56835



 Wavenumbers:  2600. -  3250. cm-1, ATM      1
 LEVEL PRESSURE   UPWARD FLUX   DIFDOWN FLUX  DIRDOWN FLUX  DOWNWARD FLUX   NET FLUX    HEATING RATE
          mb          W/m2          W/m2          W/m2        W/m2          W/m2       degree/day
  51    .06700        0.3927        0.0000        3.5066        3.5066       3.113970       0.00000
  50    .07753        0.3927        0.0000        3.5066        3.5066       3.113962       0.00640
  49    .09103        0.3927        0.0000        3.5066        3.5066       3.113952       0.00627
  48    0.1069        0.3927        0.0000        3.5066        3.5066       3.113940       0.00613
  47    0.1255        0.3927        0.0000        3.5066        3.5066       3.113927       0.00599
  46    0.1487        0.3927        0.0000        3.5066        3.5066       3.113910       0.00607
  45    0.1794        0.3927        0.0000        3.5065        3.5065       3.113888       0.00624
  44    0.2165        0.3927        0.0000        3.5065        3.5065       3.113861       0.00611
  43    0.2613        0.3927        0.0000        3.5065        3.5065       3.113829       0.00598
  42    0.3336        0.3927        0.0000        3.5064        3.5064       3.113776       0.00615
  41    0.4307        0.3927        0.0000        3.5064        3.5064       3.113705       0.00618
  40    0.5894        0.3927        0.0000        3.5062        3.5062       3.113586       0.00633
  39     1.339        0.3927        0.0000        3.5055        3.5055       3.112887       0.00787
  38     1.782        0.3927        0.0000        3.5050        3.5050       3.112356       0.01011
  37     2.292        0.3927        0.0000        3.5043        3.5043       3.111664       0.01147
  36     2.964        0.3927        0.0000        3.5033        3.5033       3.110673       0.01245
  35     3.853        0.3927        0.0000        3.5019        3.5019       3.109295       0.01307
  34     5.035        0.3927        0.0000        3.5001        3.5001       3.107434       0.01329
  33     6.613        0.3927        0.0000        3.4977        3.4977       3.105025       0.01288
  32     8.786        0.3927        0.0000        3.4947        3.4947       3.102054       0.01154
  31     11.80        0.3927        0.0000        3.4911        3.4911       3.098418       0.01018
  30     15.07        0.3927        0.0000        3.4878        3.4878       3.095197       0.00832
  29     18.79        0.3926        0.0000        3.4848        3.4848       3.092133       0.00695
  28     23.16        0.3926        0.0000        3.4816        3.4816       3.088913       0.00623
  27     28.12        0.3926        0.0000        3.4779        3.4779       3.085294       0.00615
  26     33.73        0.3926        0.0000        3.4735        3.4735       3.080827       0.00672
  25     40.54        0.3927        0.0000        3.4671        3.4671       3.074499       0.00785
  24     48.69        0.3927        0.0000        3.4582        3.4583       3.065601       0.00921
  23     57.69        0.3927        0.0000        3.4472        3.4472       3.054550       0.01036
  22     68.43        0.3927        0.0000        3.4329        3.4329       3.040284       0.01121
  21     81.20        0.3927        0.0000        3.4152        3.4152       3.022548       0.01172
  20     96.49        0.3927        0.0000        3.3940        3.3941       3.001392       0.01168
  19     114.6        0.3927        0.0000        3.3697        3.3697       2.976986       0.01140
  18     136.5        0.3927        0.0001        3.3430        3.3430       2.950289       0.01027
  17     162.9        0.3928        0.0001        3.3148        3.3149       2.922113       0.00901
  16     196.4        0.3929        0.0001        3.2836        3.2837       2.890810       0.00788
  15     218.7        0.3930        0.0001        3.2651        3.2651       2.872186       0.00707
  14     243.0        0.3931        0.0001        3.2446        3.2447       2.851595       0.00714
  13     269.0        0.3933        0.0001        3.2184        3.2185       2.825203       0.00856
  12     297.5        0.3936        0.0001        3.1851        3.1852       2.791610       0.00996
  11     328.5        0.3940        0.0001        3.1416        3.1417       2.747678       0.01194
  10     361.9        0.3946        0.0001        3.0839        3.0841       2.689427       0.01474
   9     398.1        0.3955        0.0001        3.0089        3.0090       2.613516       0.01769
   8     437.6        0.3967        0.0001        2.9121        2.9122       2.515588       0.02094
   7     480.5        0.3984        0.0002        2.7902        2.7903       2.391978       0.02428
   6     533.0        0.4011        0.0002        2.6297        2.6299       2.228791       0.02625
   5     589.8        0.4050        0.0002        2.4613        2.4614       2.056392       0.02559
   4     651.6        0.4107        0.0002        2.2902        2.2903       1.879687       0.02416
   3     718.7        0.4183        0.0002        2.1226        2.1228       1.704467       0.02202
   2     792.3        0.4281        0.0002        1.9613        1.9615       1.533405       0.01962
   1     891.5        0.4448        0.0002        1.7666        1.7668       1.321990       0.01799
   0    1013.0        0.4738        0.0002        1.5532        1.5534       1.079647       0.01683



 Wavenumbers:  3250. -  4000. cm-1, ATM      1
 LEVEL PRESSURE   UPWARD FLUX   DIFDOWN FLUX  DIRDOWN FLUX  DOWNWARD FLUX   NET FLUX    HEATING RATE
          mb          W/m2          W/m2          W/m2        W/m2          W/m2       degree/day
  51    .06700        0.0052        0.0000        5.9117        5.9117       5.906449       0.00000
  50    .07753        0.0052        0.0000        5.9076        5.9076       5.902349       3.28630
  49    .09103        0.0052        0.0000        5.9052        5.9052       5.900005       1.46493
  48    0.1069        0.0052        0.0000        5.9034        5.9034       5.898236       0.94188
  47    0.1255        0.0052        0.0000        5.9018        5.9018       5.896574       0.75314
  46    0.1487        0.0052        0.0000        5.9000        5.9000       5.894792       0.64980
  45    0.1794        0.0052        0.0000        5.8980        5.8980       5.892774       0.55395
  44    0.2165        0.0052        0.0000        5.8960        5.8960       5.890806       0.44766
  43    0.2613        0.0052        0.0000        5.8940        5.8940       5.888827       0.37314
  42    0.3336        0.0052        0.0000        5.8912        5.8912       5.885966       0.33349
  41    0.4307        0.0052        0.0000        5.8877        5.8877       5.882528       0.29895
  40    0.5894        0.0052        0.0000        5.8825        5.8825       5.877282       0.27896
  39     1.339        0.0052        0.0000        5.8633        5.8633       5.858127       0.21565
  38     1.782        0.0052        0.0000        5.8554        5.8554       5.850176       0.15138
  37     2.292        0.0052        0.0000        5.8477        5.8477       5.842516       0.12686
  36     2.964        0.0052        0.0000        5.8388        5.8388       5.833586       0.11210
  35     3.853        0.0052        0.0000        5.8276        5.8276       5.822401       0.10615
  34     5.035        0.0052        0.0000        5.8128        5.8128       5.807629       0.10552
  33     6.613        0.0052        0.0000        5.7927        5.7927       5.787516       0.10753
  32     8.786        0.0052        0.0000        5.7646        5.7646       5.759405       0.10917
  31     11.80        0.0052        0.0000        5.7232        5.7232       5.717992       0.11594
  30     15.07        0.0052        0.0000        5.6781        5.6781       5.672930       0.11634
  29     18.79        0.0052        0.0000        5.6279        5.6279       5.622743       0.11379
  28     23.16        0.0052        0.0000        5.5723        5.5723       5.567157       0.10748
  27     28.12        0.0052        0.0000        5.5143        5.5143       5.509157       0.09860
  26     33.73        0.0052        0.0000        5.4564        5.4564       5.451257       0.08705
  25     40.54        0.0052        0.0001        5.3939        5.3939       5.388761       0.07753
  24     48.69        0.0051        0.0001        5.3247        5.3248       5.319674       0.07149
  23     57.69        0.0051        0.0001        5.2520        5.2520       5.246916       0.06820
  22     68.43        0.0051        0.0001        5.1670        5.1671       5.161993       0.06676
  21     81.20        0.0051        0.0001        5.0686        5.0687       5.063570       0.06504
  20     96.49        0.0051        0.0001        4.9577        4.9578       4.952701       0.06119
  19     114.6        0.0051        0.0001        4.8339        4.8340       4.828947       0.05778
  18     136.5        0.0050        0.0002        4.6994        4.6995       4.694482       0.05170
  17     162.9        0.0050        0.0002        4.5437        4.5438       4.538843       0.04975
  16     196.4        0.0050        0.0002        4.3299        4.3301       4.325178       0.05378
  15     218.7        0.0049        0.0002        4.1656        4.1658       4.160893       0.06237
  14     243.0        0.0049        0.0003        3.9660        3.9663       3.961348       0.06921
  13     269.0        0.0049        0.0003        3.6958        3.6961       3.691200       0.08763
  12     297.5        0.0049        0.0003        3.3605        3.3608       3.355906       0.09944
  11     328.5        0.0049        0.0003        2.9676        2.9679       2.962984       0.10683
  10     361.9        0.0049        0.0003        2.5650        2.5653       2.560374       0.10186
   9     398.1        0.0049        0.0002        2.1968        2.1971       2.192173       0.08578
   8     437.6        0.0049        0.0002        1.8621        1.8624       1.857421       0.07157
   7     480.5        0.0050        0.0002        1.5472        1.5474       1.542386       0.06187
   6     533.0        0.0052        0.0002        1.2264        1.2266       1.221425       0.05163
   5     589.8        0.0056        0.0002        0.9439        0.9441       0.938494       0.04200
   4     651.6        0.0061        0.0001        0.6883        0.6885       0.682326       0.03503
   3     718.7        0.0071        0.0001        0.4808        0.4809       0.473837       0.02620
   2     792.3        0.0086        0.0001        0.3254        0.3255       0.316859       0.01800
   1     891.5        0.0119        0.0001        0.1804        0.1804       0.168487       0.01263
   0    1013.0        0.0210        0.0000        0.0687        0.0687       0.047766       0.00838



 Wavenumbers:  4000. -  4650. cm-1, ATM      1
 LEVEL PRESSURE   UPWARD FLUX   DIFDOWN FLUX  DIRDOWN FLUX  DOWNWARD FLUX   NET FLUX    HEATING RATE
          mb          W/m2          W/m2          W/m2        W/m2          W/m2       degree/day
  51    .06700        1.3752        0.0000        6.9421        6.9421       5.566869       0.00000
  50    .07753        1.3752        0.0000        6.9421        6.9421       5.566868       0.00080
  49    .09103        1.3752        0.0000        6.9421        6.9421       5.566866       0.00078
  48    0.1069        1.3752        0.0000        6.9421        6.9421       5.566865       0.00077
  47    0.1255        1.3752        0.0000        6.9421        6.9421       5.566863       0.00075
  46    0.1487        1.3752        0.0000        6.9421        6.9421       5.566861       0.00076
  45    0.1794        1.3752        0.0000        6.9421        6.9421       5.566858       0.00078
  44    0.2165        1.3752        0.0000        6.9421        6.9421       5.566855       0.00077
  43    0.2613        1.3752        0.0000        6.9421        6.9421       5.566851       0.00075
  42    0.3336        1.3752        0.0000        6.9420        6.9420       5.566844       0.00077
  41    0.4307        1.3752        0.0000        6.9420        6.9420       5.566835       0.00078
  40    0.5894        1.3752        0.0000        6.9420        6.9420       5.566820       0.00080
  39     1.339        1.3752        0.0000        6.9419        6.9419       5.566731       0.00101
  38     1.782        1.3752        0.0000        6.9418        6.9419       5.566661       0.00134
  37     2.292        1.3752        0.0000        6.9418        6.9418       5.566566       0.00156
  36     2.964        1.3752        0.0000        6.9416        6.9416       5.566425       0.00177
  35     3.853        1.3752        0.0000        6.9414        6.9414       5.566217       0.00198
  34     5.035        1.3752        0.0000        6.9411        6.9411       5.565909       0.00220
  33     6.613        1.3752        0.0000        6.9406        6.9406       5.565457       0.00242
  32     8.786        1.3752        0.0000        6.9399        6.9400       5.564791       0.00259
  31     11.80        1.3752        0.0000        6.9389        6.9389       5.563746       0.00292
  30     15.07        1.3752        0.0001        6.9376        6.9377       5.562524       0.00315
  29     18.79        1.3751        0.0001        6.9361        6.9362       5.561051       0.00334
  28     23.16        1.3751        0.0001        6.9343        6.9344       5.559229       0.00352
  27     28.12        1.3751        0.0001        6.9320        6.9322       5.557032       0.00373
  26     33.73        1.3751        0.0001        6.9293        6.9294       5.554336       0.00405
  25     40.54        1.3751        0.0002        6.9256        6.9258       5.550700       0.00451
  24     48.69        1.3751        0.0002        6.9208        6.9210       5.545885       0.00498
  23     57.69        1.3751        0.0002        6.9151        6.9153       5.540217       0.00531
  22     68.43        1.3751        0.0003        6.9080        6.9082       5.533169       0.00554
  21     81.20        1.3751        0.0003        6.8993        6.8996       5.524546       0.00570
  20     96.49        1.3751        0.0004        6.8888        6.8892       5.514126       0.00575
  19     114.6        1.3751        0.0004        6.8761        6.8766       5.501439       0.00592
  18     136.5        1.3752        0.0005        6.8609        6.8614       5.486203       0.00586
  17     162.9        1.3753        0.0006        6.8423        6.8429       5.467618       0.00594
  16     196.4        1.3755        0.0007        6.8170        6.8178       5.442295       0.00637
  15     218.7        1.3756        0.0008        6.7993        6.8001       5.424454       0.00677
  14     243.0        1.3759        0.0009        6.7780        6.7789       5.402975       0.00745
  13     269.0        1.3763        0.0010        6.7505        6.7515       5.375148       0.00903
  12     297.5        1.3769        0.0011        6.7155        6.7166       5.339653       0.01053
  11     328.5        1.3779        0.0012        6.6703        6.6715       5.293658       0.01251
  10     361.9        1.3791        0.0013        6.6114        6.6127       5.233587       0.01520
   9     398.1        1.3808        0.0015        6.5358        6.5373       5.156434       0.01797
   8     437.6        1.3830        0.0016        6.4421        6.4437       5.060712       0.02047
   7     480.5        1.3858        0.0017        6.3292        6.3309       4.945104       0.02270
   6     533.0        1.3901        0.0019        6.1868        6.1887       4.798609       0.02357
   5     589.8        1.3959        0.0020        6.0320        6.0341       4.638150       0.02382
   4     651.6        1.4039        0.0022        5.8528        5.8550       4.451080       0.02558
   3     718.7        1.4145        0.0024        5.6515        5.6538       4.239346       0.02661
   2     792.3        1.4280        0.0025        5.4423        5.4449       4.016857       0.02552
   1     891.5        1.4508        0.0027        5.1795        5.1823       3.731439       0.02429
   0    1013.0        1.4907        0.0030        4.8851        4.8881       3.397384       0.02320



 Wavenumbers:  4650. -  5150. cm-1, ATM      1
 LEVEL PRESSURE   UPWARD FLUX   DIFDOWN FLUX  DIRDOWN FLUX  DOWNWARD FLUX   NET FLUX    HEATING RATE
          mb          W/m2          W/m2          W/m2        W/m2          W/m2       degree/day
  51    .06700        0.9218        0.0000        6.5710        6.5710       5.649176       0.00000
  50    .07753        0.9218        0.0000        6.5708        6.5708       5.648942       0.18753
  49    .09103        0.9218        0.0000        6.5705        6.5705       5.648650       0.18232
  48    0.1069        0.9218        0.0000        6.5701        6.5701       5.648318       0.17681
  47    0.1255        0.9218        0.0000        6.5698        6.5698       5.647940       0.17117
  46    0.1487        0.9218        0.0000        6.5693        6.5693       5.647470       0.17147
  45    0.1794        0.9218        0.0000        6.5687        6.5687       5.646838       0.17351
  44    0.2165        0.9218        0.0000        6.5679        6.5679       5.646105       0.16671
  43    0.2613        0.9218        0.0000        6.5671        6.5671       5.645258       0.15966
  42    0.3336        0.9218        0.0000        6.5657        6.5657       5.643904       0.15784
  41    0.4307        0.9218        0.0000        6.5640        6.5640       5.642194       0.14868
  40    0.5894        0.9218        0.0000        6.5614        6.5614       5.639596       0.13818
  39     1.339        0.9218        0.0000        6.5517        6.5517       5.629883       0.10935
  38     1.782        0.9218        0.0000        6.5475        6.5475       5.625694       0.07975
  37     2.292        0.9218        0.0000        6.5436        6.5436       5.621831       0.06398
  36     2.964        0.9218        0.0000        6.5397        6.5397       5.617900       0.04935
  35     3.853        0.9218        0.0000        6.5358        6.5358       5.613978       0.03722
  34     5.035        0.9218        0.0000        6.5318        6.5318       5.609995       0.02845
  33     6.613        0.9218        0.0000        6.5274        6.5274       5.605619       0.02339
  32     8.786        0.9218        0.0001        6.5219        6.5219       5.600144       0.02126
  31     11.80        0.9218        0.0001        6.5138        6.5139       5.592093       0.02254
  30     15.07        0.9218        0.0001        6.5044        6.5045       5.582755       0.02411
  29     18.79        0.9217        0.0001        6.4929        6.4930       5.571277       0.02602
  28     23.16        0.9217        0.0001        6.4783        6.4785       5.556733       0.02812
  27     28.12        0.9217        0.0002        6.4604        6.4605       5.538815       0.03046
  26     33.73        0.9217        0.0002        6.4390        6.4392       5.517452       0.03212
  25     40.54        0.9217        0.0002        6.4119        6.4121       5.490411       0.03355
  24     48.69        0.9217        0.0003        6.3783        6.3786       5.456877       0.03470
  23     57.69        0.9217        0.0003        6.3413        6.3416       5.419896       0.03466
  22     68.43        0.9217        0.0004        6.2982        6.2986       5.376831       0.03386
  21     81.20        0.9218        0.0005        6.2495        6.2499       5.328149       0.03217
  20     96.49        0.9218        0.0005        6.1962        6.1967       5.274912       0.02938
  19     114.6        0.9219        0.0006        6.1398        6.1404       5.218497       0.02634
  18     136.5        0.9220        0.0007        6.0809        6.0817       5.159602       0.02265
  17     162.9        0.9223        0.0009        6.0183        6.0192       5.096949       0.02003
  16     196.4        0.9226        0.0011        5.9430        5.9441       5.021430       0.01901
  15     218.7        0.9229        0.0012        5.8939        5.8950       4.972097       0.01873
  14     243.0        0.9233        0.0013        5.8388        5.8401       4.916783       0.01918
  13     269.0        0.9238        0.0014        5.7754        5.7768       4.852998       0.02069
  12     297.5        0.9246        0.0015        5.7009        5.7024       4.777854       0.02229
  11     328.5        0.9256        0.0017        5.6123        5.6140       4.688408       0.02432
  10     361.9        0.9270        0.0018        5.5079        5.5097       4.582702       0.02674
   9     398.1        0.9288        0.0020        5.3874        5.3894       4.460538       0.02846
   8     437.6        0.9313        0.0021        5.2486        5.2508       4.319489       0.03016
   7     480.5        0.9345        0.0023        5.0898        5.0921       4.157594       0.03180
   6     533.0        0.9395        0.0025        4.8876        4.8901       3.950617       0.03330
   5     589.8        0.9462        0.0026        4.6698        4.6725       3.726255       0.03330
   4     651.6        0.9552        0.0028        4.4426        4.4454       3.490191       0.03228
   3     718.7        0.9671        0.0030        4.2160        4.2190       3.251922       0.02994
   2     792.3        0.9823        0.0031        3.9965        3.9996       3.017314       0.02691
   1     891.5        1.0077        0.0033        3.7296        3.7330       2.725268       0.02485
   0    1013.0        1.0492        0.0035        3.4372        3.4407       2.391455       0.02318



 Wavenumbers:  5150. -  6150. cm-1, ATM      1
 LEVEL PRESSURE   UPWARD FLUX   DIFDOWN FLUX  DIRDOWN FLUX  DOWNWARD FLUX   NET FLUX    HEATING RATE
          mb          W/m2          W/m2          W/m2        W/m2          W/m2       degree/day
  51    .06700        2.4145        0.0000       16.4735       16.4735      14.059025       0.00000
  50    .07753        2.4145        0.0000       16.4735       16.4735      14.059011       0.01116
  49    .09103        2.4145        0.0000       16.4735       16.4735      14.058993       0.01136
  48    0.1069        2.4145        0.0000       16.4735       16.4735      14.058971       0.01155
  47    0.1255        2.4145        0.0000       16.4734       16.4734      14.058945       0.01173
  46    0.1487        2.4145        0.0000       16.4734       16.4734      14.058911       0.01236
  45    0.1794        2.4145        0.0000       16.4733       16.4733      14.058863       0.01320
  44    0.2165        2.4145        0.0000       16.4733       16.4733      14.058804       0.01346
  43    0.2613        2.4145        0.0000       16.4732       16.4732      14.058732       0.01364
  42    0.3336        2.4145        0.0000       16.4731       16.4731      14.058608       0.01441
  41    0.4307        2.4145        0.0000       16.4729       16.4729      14.058438       0.01476
  40    0.5894        2.4145        0.0000       16.4726       16.4726      14.058154       0.01513
  39     1.339        2.4145        0.0000       16.4712       16.4712      14.056759       0.01571
  38     1.782        2.4144        0.0000       16.4703       16.4704      14.055930       0.01577
  37     2.292        2.4144        0.0001       16.4693       16.4694      14.054971       0.01588
  36     2.964        2.4144        0.0001       16.4681       16.4681      14.053715       0.01577
  35     3.853        2.4144        0.0001       16.4664       16.4665      14.052061       0.01570
  34     5.035        2.4144        0.0001       16.4641       16.4643      14.049876       0.01561
  33     6.613        2.4144        0.0002       16.4612       16.4613      14.046984       0.01546
  32     8.786        2.4143        0.0002       16.4572       16.4575      14.043147       0.01490
  31     11.80        2.4143        0.0003       16.4517       16.4521      14.037783       0.01502
  30     15.07        2.4142        0.0004       16.4460       16.4464      14.032191       0.01444
  29     18.79        2.4142        0.0005       16.4397       16.4402      14.026077       0.01386
  28     23.16        2.4141        0.0006       16.4327       16.4333      14.019199       0.01330
  27     28.12        2.4140        0.0007       16.4249       16.4257      14.011649       0.01283
  26     33.73        2.4139        0.0009       16.4166       16.4175      14.003559       0.01216
  25     40.54        2.4138        0.0011       16.4071       16.4081      13.994296       0.01149
  24     48.69        2.4138        0.0013       16.3962       16.3975      13.983745       0.01092
  23     57.69        2.4137        0.0015       16.3851       16.3866      13.972975       0.01010
  22     68.43        2.4136        0.0018       16.3730       16.3748      13.961220       0.00924
  21     81.20        2.4134        0.0021       16.3595       16.3616      13.948166       0.00863
  20     96.49        2.4133        0.0025       16.3441       16.3467      13.933357       0.00817
  19     114.6        2.4132        0.0030       16.3263       16.3293      13.916148       0.00804
  18     136.5        2.4130        0.0036       16.3031       16.3066      13.893628       0.00866
  17     162.9        2.4128        0.0042       16.2642       16.2684      13.855625       0.01215
  16     196.4        2.4126        0.0051       16.1855       16.1906      13.777978       0.01954
  15     218.7        2.4125        0.0057       16.1027       16.1084      13.695922       0.03115
  14     243.0        2.4124        0.0062       15.9476       15.9538      13.541466       0.05357
  13     269.0        2.4123        0.0068       15.6275       15.6343      13.222006       0.10363
  12     297.5        2.4123        0.0074       15.1924       15.1998      12.787481       0.12888
  11     328.5        2.4125        0.0079       14.7024       14.7103      12.297821       0.13314
  10     361.9        2.4128        0.0085       14.1257       14.1342      11.721337       0.14586
   9     398.1        2.4134        0.0090       13.4599       13.4689      11.055504       0.15512
   8     437.6        2.4145        0.0095       12.7416       12.7510      10.336562       0.15371
   7     480.5        2.4162        0.0099       11.9805       11.9903       9.574113       0.14974
   6     533.0        2.4194        0.0103       11.1627       11.1729       8.753562       0.13200
   5     589.8        2.4245        0.0107       10.4677       10.4784       8.053973       0.10384
   4     651.6        2.4325        0.0112        9.9021        9.9133       7.480795       0.07838
   3     718.7        2.4443        0.0118        9.4724        9.4842       7.039985       0.05540
   2     792.3        2.4605        0.0126        9.1387        9.1513       6.690749       0.04005
   1     891.5        2.4902        0.0136        8.7701        8.7837       6.293428       0.03381
   0    1013.0        2.5476        0.0148        8.3406        8.3554       5.807819       0.03372



 Wavenumbers:  6150. -  7700. cm-1, ATM      1
 LEVEL PRESSURE   UPWARD FLUX   DIFDOWN FLUX  DIRDOWN FLUX  DOWNWARD FLUX   NET FLUX    HEATING RATE
          mb          W/m2          W/m2          W/m2        W/m2          W/m2       degree/day
  51    .06700        3.8664        0.0000       30.4684       30.4684      26.601959       0.00000
  50    .07753        3.8664        0.0000       30.4683       30.4684      26.601928       0.02439
  49    .09103        3.8664        0.0000       30.4683       30.4683      26.601889       0.02435
  48    0.1069        3.8664        0.0000       30.4683       30.4683      26.601844       0.02431
  47    0.1255        3.8664        0.0000       30.4682       30.4682      26.601790       0.02425
  46    0.1487        3.8664        0.0000       30.4681       30.4681      26.601721       0.02509
  45    0.1794        3.8664        0.0000       30.4680       30.4680      26.601625       0.02634
  44    0.2165        3.8664        0.0000       30.4679       30.4679      26.601510       0.02638
  43    0.2613        3.8664        0.0000       30.4678       30.4678      26.601370       0.02636
  42    0.3336        3.8664        0.0000       30.4675       30.4675      26.601134       0.02745
  41    0.4307        3.8664        0.0000       30.4672       30.4672      26.600816       0.02769
  40    0.5894        3.8664        0.0001       30.4666       30.4667      26.600288       0.02806
  39     1.339        3.8663        0.0001       30.4639       30.4640      26.597745       0.02863
  38     1.782        3.8663        0.0002       30.4623       30.4625      26.596249       0.02848
  37     2.292        3.8662        0.0002       30.4605       30.4607      26.594524       0.02857
  36     2.964        3.8661        0.0003       30.4581       30.4584      26.592271       0.02829
  35     3.853        3.8660        0.0004       30.4549       30.4554      26.589314       0.02806
  34     5.035        3.8659        0.0006       30.4508       30.4514      26.585419       0.02782
  33     6.613        3.8658        0.0007       30.4453       30.4461      26.580277       0.02749
  32     8.786        3.8656        0.0010       30.4381       30.4390      26.573462       0.02647
  31     11.80        3.8653        0.0013       30.4279       30.4292      26.563937       0.02667
  30     15.07        3.8649        0.0017       30.4173       30.4189      26.553996       0.02566
  29     18.79        3.8646        0.0021       30.4056       30.4077      26.543104       0.02470
  28     23.16        3.8641        0.0026       30.3924       30.3950      26.530807       0.02378
  27     28.12        3.8637        0.0031       30.3778       30.3809      26.517258       0.02303
  26     33.73        3.8631        0.0037       30.3621       30.3658      26.502713       0.02187
  25     40.54        3.8624        0.0045       30.3440       30.3485      26.486011       0.02072
  24     48.69        3.8616        0.0054       30.3233       30.3286      26.466979       0.01969
  23     57.69        3.8608        0.0064       30.3018       30.3081      26.447360       0.01839
  22     68.43        3.8597        0.0075       30.2779       30.2855      26.425738       0.01700
  21     81.20        3.8585        0.0089       30.2512       30.2601      26.401616       0.01594
  20     96.49        3.8570        0.0106       30.2207       30.2313      26.374334       0.01506
  19     114.6        3.8552        0.0126       30.1856       30.1981      26.342941       0.01466
  18     136.5        3.8531        0.0149       30.1417       30.1566      26.303537       0.01515
  17     162.9        3.8506        0.0177       30.0744       30.0921      26.241501       0.01983
  16     196.4        3.8474        0.0214       29.9429       29.9642      26.116806       0.03139
  15     218.7        3.8453        0.0237       29.8122       29.8359      25.990586       0.04792
  14     243.0        3.8431        0.0262       29.5945       29.6207      25.777534       0.07389
  13     269.0        3.8409        0.0287       29.1605       29.1893      25.348406       0.13921
  12     297.5        3.8386        0.0313       28.4815       28.5128      24.674120       0.19999
  11     328.5        3.8366        0.0337       27.6174       27.6511      23.814579       0.23371
  10     361.9        3.8348        0.0361       26.6433       26.6794      22.844540       0.24543
   9     398.1        3.8337        0.0384       25.5308       25.5692      21.735503       0.25838
   8     437.6        3.8336        0.0405       24.2502       24.2907      20.457153       0.27332
   7     480.5        3.8353        0.0423       22.8247       22.8670      19.031713       0.27995
   6     533.0        3.8405        0.0441       21.1916       21.2357      17.395265       0.26325
   5     589.8        3.8508        0.0458       19.6505       19.6962      15.845445       0.23004
   4     651.6        3.8689        0.0474       18.2228       18.2702      14.401208       0.19750
   3     718.7        3.8969        0.0491       16.9775       17.0265      13.129652       0.15980
   2     792.3        3.9361        0.0510       15.9213       15.9723      12.036240       0.12540
   1     891.5        4.0091        0.0536       14.7672       14.8208      10.811702       0.10420
   0    1013.0        4.1543        0.0565       13.5744       13.6309       9.476527       0.09271



 Wavenumbers:  7700. -  8050. cm-1, ATM      1
 LEVEL PRESSURE   UPWARD FLUX   DIFDOWN FLUX  DIRDOWN FLUX  DOWNWARD FLUX   NET FLUX    HEATING RATE
          mb          W/m2          W/m2          W/m2        W/m2          W/m2       degree/day
  51    .06700        1.7164        0.0000        7.2006        7.2006       5.484223       0.00000
  50    .07753        1.7164        0.0000        7.2006        7.2006       5.484204       0.01512
  49    .09103        1.7164        0.0000        7.2005        7.2005       5.484181       0.01482
  48    0.1069        1.7164        0.0000        7.2005        7.2005       5.484153       0.01451
  47    0.1255        1.7164        0.0000        7.2005        7.2005       5.484122       0.01420
  46    0.1487        1.7164        0.0000        7.2004        7.2005       5.484083       0.01440
  45    0.1794        1.7164        0.0000        7.2004        7.2004       5.484029       0.01482
  44    0.2165        1.7164        0.0000        7.2003        7.2003       5.483965       0.01454
  43    0.2613        1.7164        0.0000        7.2003        7.2003       5.483889       0.01427
  42    0.3336        1.7164        0.0000        7.2001        7.2001       5.483764       0.01460
  41    0.4307        1.7164        0.0000        7.2000        7.2000       5.483598       0.01444
  40    0.5894        1.7164        0.0000        7.1997        7.1997       5.483327       0.01442
  39     1.339        1.7164        0.0001        7.1984        7.1985       5.482044       0.01444
  38     1.782        1.7165        0.0001        7.1977        7.1978       5.481291       0.01434
  37     2.292        1.7165        0.0001        7.1968        7.1969       5.480420       0.01443
  36     2.964        1.7166        0.0001        7.1957        7.1958       5.479276       0.01436
  35     3.853        1.7166        0.0002        7.1942        7.1944       5.477767       0.01433
  34     5.035        1.7167        0.0002        7.1922        7.1925       5.475762       0.01432
  33     6.613        1.7168        0.0003        7.1896        7.1899       5.473088       0.01430
  32     8.786        1.7169        0.0004        7.1860        7.1864       5.469489       0.01398
  31     11.80        1.7171        0.0005        7.1810        7.1815       5.464352       0.01438
  30     15.07        1.7173        0.0007        7.1755        7.1762       5.458853       0.01420
  29     18.79        1.7176        0.0008        7.1694        7.1703       5.452660       0.01404
  28     23.16        1.7179        0.0010        7.1623        7.1633       5.445455       0.01393
  27     28.12        1.7182        0.0013        7.1542        7.1555       5.437252       0.01394
  26     33.73        1.7186        0.0015        7.1452        7.1467       5.428120       0.01373
  25     40.54        1.7190        0.0018        7.1344        7.1362       5.417154       0.01360
  24     48.69        1.7196        0.0022        7.1214        7.1236       5.404032       0.01358
  23     57.69        1.7202        0.0026        7.1074        7.1099       5.389741       0.01340
  22     68.43        1.7209        0.0030        7.0908        7.0938       5.372886       0.01325
  21     81.20        1.7218        0.0036        7.0712        7.0748       5.353039       0.01311
  20     96.49        1.7228        0.0043        7.0483        7.0526       5.329712       0.01287
  19     114.6        1.7241        0.0050        7.0215        7.0266       5.302457       0.01273
  18     136.5        1.7256        0.0060        6.9904        6.9964       5.270747       0.01219
  17     162.9        1.7275        0.0071        6.9542        6.9613       5.233780       0.01182
  16     196.4        1.7300        0.0085        6.9085        6.9170       5.187058       0.01176
  15     218.7        1.7316        0.0094        6.8792        6.8886       5.157025       0.01140
  14     243.0        1.7335        0.0104        6.8479        6.8584       5.124923       0.01113
  13     269.0        1.7355        0.0115        6.8146        6.8262       5.090695       0.01110
  12     297.5        1.7377        0.0127        6.7793        6.7920       5.054244       0.01081
  11     328.5        1.7402        0.0140        6.7417        6.7556       5.015415       0.01056
  10     361.9        1.7430        0.0153        6.7017        6.7171       4.974054       0.01046
   9     398.1        1.7461        0.0168        6.6593        6.6761       4.929975       0.01027
   8     437.6        1.7497        0.0184        6.6141        6.6324       4.882762       0.01009
   7     480.5        1.7537        0.0200        6.5655        6.5855       4.831849       0.01000
   6     533.0        1.7590        0.0220        6.5056        6.5277       4.768663       0.01016
   5     589.8        1.7652        0.0242        6.4405        6.4647       4.699520       0.01026
   4     651.6        1.7724        0.0266        6.3692        6.3958       4.623328       0.01042
   3     718.7        1.7809        0.0290        6.2917        6.3207       4.539772       0.01050
   2     792.3        1.7907        0.0316        6.2080        6.2397       4.448958       0.01042
   1     891.5        1.8051        0.0351        6.0936        6.1287       4.323616       0.01067
   0    1013.0        1.8249        0.0392        5.9510        5.9902       4.165306       0.01099



 Wavenumbers:  8050. - 12850. cm-1, ATM      1
 LEVEL PRESSURE   UPWARD FLUX   DIFDOWN FLUX  DIRDOWN FLUX  DOWNWARD FLUX   NET FLUX    HEATING RATE
          mb          W/m2          W/m2          W/m2        W/m2          W/m2       degree/day
  51    .06700       24.3518        0.0000      100.8135      100.8135      76.461759       0.00000
  50    .07753       24.3517        0.0000      100.8135      100.8135      76.461759       0.00000
  49    .09103       24.3517        0.0001      100.8134      100.8135      76.461759      -0.00000
  48    0.1069       24.3517        0.0001      100.8134      100.8134      76.461759       0.00000
  47    0.1255       24.3517        0.0001      100.8133      100.8134      76.461759      -0.00000
  46    0.1487       24.3516        0.0002      100.8132      100.8134      76.461759       0.00000
  45    0.1794       24.3516        0.0002      100.8131      100.8133      76.461759       0.00000
  44    0.2165       24.3515        0.0003      100.8129      100.8133      76.461759       0.00000
  43    0.2613       24.3514        0.0004      100.8127      100.8132      76.461759      -0.00000
  42    0.3336       24.3513        0.0006      100.8125      100.8130      76.461759      -0.00000
  41    0.4307       24.3511        0.0008      100.8121      100.8129      76.461759       0.00000
  40    0.5894       24.3508        0.0011      100.8115      100.8126      76.461759       0.00000
  39     1.339       24.3495        0.0028      100.8085      100.8113      76.461759      -0.00000
  38     1.782       24.3488        0.0038      100.8068      100.8105      76.461759       0.00000
  37     2.292       24.3479        0.0049      100.8047      100.8096      76.461759       0.00000
  36     2.964       24.3467        0.0063      100.8021      100.8085      76.461759       0.00000
  35     3.853       24.3451        0.0083      100.7986      100.8069      76.461759       0.00000
  34     5.035       24.3431        0.0109      100.7940      100.8048      76.461759       0.00000
  33     6.613       24.3403        0.0143      100.7878      100.8021      76.461759      -0.00000
  32     8.786       24.3366        0.0190      100.7794      100.7984      76.461759       0.00000
  31     11.80       24.3313        0.0256      100.7674      100.7931      76.461759       0.00000
  30     15.07       24.3256        0.0328      100.7546      100.7873      76.461759       0.00000
  29     18.79       24.3191        0.0409      100.7400      100.7809      76.461759      -0.00000
  28     23.16       24.3116        0.0503      100.7230      100.7733      76.461759       0.00000
  27     28.12       24.3029        0.0612      100.7035      100.7647      76.461759      -0.00000
  26     33.73       24.2932        0.0733      100.6817      100.7550      76.461759       0.00000
  25     40.54       24.2815        0.0880      100.6552      100.7432      76.461759      -0.00000
  24     48.69       24.2673        0.1057      100.6234      100.7291      76.461759      -0.00000
  23     57.69       24.2518        0.1252      100.5883      100.7135      76.461759       0.00000
  22     68.43       24.2332        0.1485      100.5464      100.6949      76.461759       0.00000
  21     81.20       24.2110        0.1762      100.4965      100.6727      76.461759      -0.00000
  20     96.49       24.1845        0.2093      100.4370      100.6463      76.461759       0.00000
  19     114.6       24.1530        0.2487      100.3630      100.6117      76.458670       0.00144
  18     136.5       24.1157        0.2954      100.2745      100.5699      76.454197       0.00172
  17     162.9       24.0711        0.3512      100.1650      100.5161      76.445027       0.00293
  16     196.4       24.0131        0.4236      100.0095      100.4331      76.419942       0.00631
  15     218.7       23.9750        0.4712       99.8906      100.3618      76.386824       0.01257
  14     243.0       23.9336        0.5230       99.7281      100.2511      76.317474       0.02405
  13     269.0       23.8890        0.5790       99.4694      100.0484      76.159333       0.05130
  12     297.5       23.8415        0.6393       99.1013       99.7406      75.899106       0.07718
  11     328.5       23.7911        0.7041       98.6200       99.3240      75.532945       0.09956
  10     361.9       23.7385        0.7734       98.0185       98.7919      75.053416       0.12133
   9     398.1       23.6845        0.8474       97.2583       98.1057      74.421263       0.14728
   8     437.6       23.6305        0.9258       96.2812       97.2071      73.576553       0.18060
   7     480.5       23.5798        1.0080       95.0107       96.0187      72.438932       0.22342
   6     533.0       23.5292        1.1066       93.2386       94.3453      70.816056       0.26107
   5     589.8       23.4922        1.2097       91.1605       92.3701      68.877914       0.28768
   4     651.6       23.4780        1.3166       88.8115       90.1281      66.650061       0.30466
   3     718.7       23.4918        1.4281       86.3704       87.7985      64.306725       0.29449
   2     792.3       23.5378        1.5451       83.9457       85.4908      61.953027       0.26994
   1     891.5       23.6650        1.6984       80.8354       82.5337      58.868706       0.26246
   0    1013.0       23.9840        1.8722       77.0973       78.9695      54.985460       0.26963



 Wavenumbers: 12850. - 16000. cm-1, ATM      1
 LEVEL PRESSURE   UPWARD FLUX   DIFDOWN FLUX  DIRDOWN FLUX  DOWNWARD FLUX   NET FLUX    HEATING RATE
          mb          W/m2          W/m2          W/m2        W/m2          W/m2       degree/day
  51    .06700       32.3862        0.0000       63.1686       63.1686      30.782371       0.00000
  50    .07753       32.3862        0.0001       63.1677       63.1678      30.781592       0.62459
  49    .09103       32.3861        0.0001       63.1666       63.1668      30.780621       0.60696
  48    0.1069       32.3861        0.0002       63.1654       63.1656      30.779515       0.58853
  47    0.1255       32.3861        0.0003       63.1640       63.1643      30.778258       0.57002
  46    0.1487       32.3860        0.0004       63.1623       63.1627      30.776690       0.57152
  45    0.1794       32.3860        0.0006       63.1600       63.1606      30.774588       0.57711
  44    0.2165       32.3859        0.0008       63.1573       63.1581      30.772157       0.55292
  43    0.2613       32.3858        0.0010       63.1542       63.1552      30.769354       0.52835
  42    0.3336       32.3858        0.0014       63.1493       63.1507      30.764889       0.52054
  41    0.4307       32.3857        0.0019       63.1431       63.1450      30.759308       0.48531
  40    0.5894       32.3856        0.0027       63.1338       63.1365      30.750858       0.44936
  39     1.339       32.3866        0.0065       63.0956       63.1021      30.715449       0.39864
  38     1.782       32.3881        0.0087       63.0740       63.0828      30.694663       0.39573
  37     2.292       32.3907        0.0113       63.0477       63.0590      30.668335       0.43606
  36     2.964       32.3953        0.0147       63.0095       63.0243      30.628943       0.49448
  35     3.853       32.4033        0.0192       62.9533       62.9725      30.569189       0.56708
  34     5.035       32.4157        0.0252       62.8725       62.8977      30.482003       0.62282
  33     6.613       32.4332        0.0332       62.7621       62.7952      30.362040       0.64132
  32     8.786       32.4558        0.0439       62.6183       62.6621      30.206332       0.60471
  31     11.80       32.4846        0.0592       62.4284       62.4875      30.002943       0.56943
  30     15.07       32.5114        0.0755       62.2426       62.3181      29.806789       0.50643
  29     18.79       32.5379        0.0940       62.0493       62.1433      29.605399       0.45661
  28     23.16       32.5646        0.1155       61.8425       61.9579      29.393343       0.41005
  27     28.12       32.5901        0.1400       61.6278       61.7678      29.177697       0.36658
  26     33.73       32.6115        0.1674       61.4177       61.5851      28.973516       0.30699
  25     40.54       32.6292        0.2004       61.1983       61.3987      28.769566       0.25302
  24     48.69       32.6423        0.2402       60.9680       61.2082      28.565809       0.21086
  23     57.69       32.6491        0.2838       60.7478       61.0316      28.382510       0.17182
  22     68.43       32.6487        0.3356       60.5202       60.8558      28.207182       0.13783
  21     81.20       32.6367        0.3974       60.2939       60.6913      28.054602       0.10082
  20     96.49       32.6117        0.4710       60.0643       60.5353      27.923573       0.07232
  19     114.6       32.5814        0.5587       59.8079       60.3666      27.785227       0.06460
  18     136.5       32.5408        0.6625       59.5159       60.1784      27.637573       0.05678
  17     162.9       32.4884        0.7858       59.1774       59.9632      27.474847       0.05201
  16     196.4       32.4115        0.9452       58.7613       59.7066      27.295058       0.04526
  15     218.7       32.3578        1.0496       58.4965       59.5461      27.188250       0.04055
  14     243.0       32.2981        1.1628       58.2123       59.3751      27.077015       0.03858
  13     269.0       32.2321        1.2853       57.9082       59.1934      26.961367       0.03752
  12     297.5       32.1596        1.4172       57.5827       58.9999      26.840327       0.03590
  11     328.5       32.0812        1.5594       57.2313       58.7907      26.709551       0.03556
  10     361.9       31.9970        1.7120       56.8515       58.5635      26.566522       0.03619
   9     398.1       31.9071        1.8757       56.4397       58.3154      26.408311       0.03686
   8     437.6       31.8122        2.0508       55.9899       58.0407      26.228503       0.03844
   7     480.5       31.7137        2.2376       55.4937       57.7312      26.017583       0.04142
   6     533.0       31.5977        2.4661       54.8616       57.3277      25.730052       0.04625
   5     589.8       31.4806        2.7105       54.1557       56.8662      25.385587       0.05113
   4     651.6       31.3663        2.9707       53.3684       56.3391      24.972797       0.05645
   3     718.7       31.2560        3.2469       52.5111       55.7580      24.501972       0.05917
   2     792.3       31.1517        3.5391       51.5981       55.1372      23.985449       0.05924
   1     891.5       31.0382        3.9271       50.3729       54.3000      23.261804       0.06158
   0    1013.0       30.9571        4.3826       48.8989       53.2814      22.324347       0.06509



 Wavenumbers: 16000. - 22650. cm-1, ATM      1
 LEVEL PRESSURE   UPWARD FLUX   DIFDOWN FLUX  DIRDOWN FLUX  DOWNWARD FLUX   NET FLUX    HEATING RATE
          mb          W/m2          W/m2          W/m2        W/m2          W/m2       degree/day
  51    .06700       73.9136        0.0000      100.7153      100.7153      26.801705       0.00000
  50    .07753       73.9135        0.0003      100.7147      100.7151      26.801589       0.09341
  49    .09103       73.9133        0.0007      100.7140      100.7147      26.801419       0.10595
  48    0.1069       73.9131        0.0012      100.7131      100.7143      26.801192       0.12082
  47    0.1255       73.9130        0.0017      100.7121      100.7138      26.800888       0.13771
  46    0.1487       73.9127        0.0024      100.7108      100.7132      26.800441       0.16319
  45    0.1794       73.9125        0.0033      100.7089      100.7122      26.799741       0.19214
  44    0.2165       73.9122        0.0044      100.7066      100.7110      26.798791       0.21594
  43    0.2613       73.9119        0.0057      100.7037      100.7094      26.797504       0.24277
  42    0.3336       73.9115        0.0079      100.6987      100.7066      26.795055       0.28548
  41    0.4307       73.9112        0.0107      100.6918      100.7025      26.791364       0.32091
  40    0.5894       73.9108        0.0154      100.6797      100.6952      26.784325       0.37431
  39     1.339       73.9146        0.0375      100.6095      100.6470      26.732334       0.58533
  38     1.782       73.9208        0.0504      100.5585      100.6089      26.688057       0.84296
  37     2.292       73.9317        0.0654      100.4903      100.5557      26.623986       1.06118
  36     2.964       73.9516        0.0851      100.3868      100.4718      26.520240       1.30233
  35     3.853       73.9859        0.1110      100.2306      100.3416      26.355741       1.56112
  34     5.035       74.0393        0.1454      100.0045      100.1499      26.110595       1.75123
  33     6.613       74.1147        0.1913       99.6939       99.8852      25.770446       1.81843
  32     8.786       74.2122        0.2529       99.2881       99.5410      25.328764       1.71534
  31     11.80       74.3364        0.3409       98.7496       99.0905      24.754067       1.60897
  30     15.07       74.4518        0.4349       98.2198       98.6547      24.202933       1.42292
  29     18.79       74.5661        0.5408       97.6651       98.2059      23.639826       1.27674
  28     23.16       74.6810        0.6640       97.0671       97.7311      23.050083       1.14037
  27     28.12       74.7909        0.8043       96.4406       97.2449      22.454041       1.01323
  26     33.73       74.8826        0.9608       95.8179       96.7787      21.896110       0.83886
  25     40.54       74.9575        1.1493       95.1548       96.3041      21.346584       0.68175
  24     48.69       75.0130        1.3756       94.4420       95.8176      20.804504       0.56097
  23     57.69       75.0404        1.6231       93.7416       95.3647      20.324272       0.45015
  22     68.43       75.0370        1.9167       92.9954       94.9120      19.875061       0.35314
  21     81.20       74.9834        2.2650       92.2231       94.4882      19.504775       0.24468
  20     96.49       74.8740        2.6782       91.4110       94.0892      19.215205       0.15982
  19     114.6       74.7215        3.1653       90.5070       93.6724      18.950895       0.12341
  18     136.5       74.5262        3.7378       89.4803       93.2181      18.691892       0.09959
  17     162.9       74.2813        4.4126       88.3023       92.7149      18.433583       0.08257
  16     196.4       73.9358        5.2775       86.8608       92.1383      18.202466       0.05818
  15     218.7       73.6995        5.8392       85.9495       91.7887      18.089195       0.04300
  14     243.0       73.4391        6.4441       84.9795       91.4237      17.984525       0.03630
  13     269.0       73.1535        7.0932       83.9506       91.0438      17.890241       0.03059
  12     297.5       72.8421        7.7871       82.8617       90.6488      17.806764       0.02476
  11     328.5       72.5058        8.5283       81.7035       90.2319      17.726110       0.02193
  10     361.9       72.1446        9.3164       80.4765       89.7929      17.648343       0.01968
   9     398.1       71.7574       10.1533       79.1770       89.3304      17.572961       0.01756
   8     437.6       71.3445       11.0392       77.8032       88.8424      17.497863       0.01606
   7     480.5       70.9056       11.9743       76.3535       88.3278      17.422174       0.01486
   6     533.0       70.3714       13.1050       74.5993       87.7044      17.332961       0.01435
   5     589.8       69.8040       14.2994       72.7425       87.0418      17.237828       0.01412
   4     651.6       69.2046       15.5553       70.7830       86.3383      17.133748       0.01423
   3     718.7       68.5732       16.8708       68.7238       85.5946      17.021396       0.01412
   2     792.3       67.9115       18.2411       66.5713       84.8124      16.900898       0.01382
   1     891.5       67.0434       20.0290       63.7473       83.7763      16.732889       0.01430
   0    1013.0       66.0403       22.0835       60.4734       82.5569      16.516657       0.01501



 Wavenumbers: 22650. - 29000. cm-1, ATM      1
 LEVEL PRESSURE   UPWARD FLUX   DIFDOWN FLUX  DIRDOWN FLUX  DOWNWARD FLUX   NET FLUX    HEATING RATE
          mb          W/m2          W/m2          W/m2        W/m2          W/m2       degree/day
  51    .06700       32.0542        0.0000       38.0063       38.0063       5.952130       0.00000
  50    .07753       32.0540        0.0004       38.0057       38.0061       5.952130      -0.00000
  49    .09103       32.0538        0.0009       38.0050       38.0059       5.952130       0.00000
  48    0.1069       32.0535        0.0014       38.0042       38.0056       5.952130      -0.00000
  47    0.1255       32.0532        0.0020       38.0033       38.0054       5.952130       0.00000
  46    0.1487       32.0529        0.0028       38.0022       38.0050       5.952130      -0.00000
  45    0.1794       32.0524        0.0039       38.0006       38.0045       5.952130       0.00000
  44    0.2165       32.0518        0.0052       37.9987       38.0039       5.952130       0.00000
  43    0.2613       32.0511        0.0067       37.9965       38.0032       5.952130       0.00000
  42    0.3336       32.0499        0.0092       37.9928       38.0021       5.952130       0.00000
  41    0.4307       32.0484        0.0125       37.9880       38.0005       5.952130       0.00000
  40    0.5894       32.0459        0.0180       37.9800       37.9980       5.952130       0.00000
  39     1.339       32.0341        0.0437       37.9425       37.9862       5.952130      -0.00000
  38     1.782       32.0271        0.0588       37.9204       37.9793       5.952130      -0.00000
  37     2.292       32.0191        0.0763       37.8949       37.9712       5.952130       0.00000
  36     2.964       32.0086        0.0993       37.8614       37.9607       5.952130       0.00000
  35     3.853       31.9947        0.1295       37.8172       37.9468       5.952130      -0.00000
  34     5.035       31.9762        0.1697       37.7586       37.9283       5.952130       0.00000
  33     6.613       31.9515        0.2234       37.6803       37.9037       5.952130      -0.00000
  32     8.786       31.9184        0.2955       37.5750       37.8705       5.952130       0.00000
  31     11.80       31.8710        0.3983       37.4249       37.8232       5.952130       0.00000
  30     15.07       31.8204        0.5083       37.2642       37.7725       5.952130      -0.00000
  29     18.79       31.7633        0.6321       37.0833       37.7154       5.952130      -0.00000
  28     23.16       31.6969        0.7760       36.8730       37.6491       5.952130       0.00000
  27     28.12       31.6213        0.9397       36.6338       37.5735       5.952130      -0.00000
  26     33.73       31.5372        1.1216       36.3677       37.4893       5.952130       0.00000
  25     40.54       31.4362        1.3398       36.0486       37.3883       5.952130      -0.00000
  24     48.69       31.3154        1.6003       35.6672       37.2675       5.952130       0.00000
  23     57.69       31.1838        1.8833       35.2527       37.1360       5.952130       0.00000
  22     68.43       31.0288        2.2160       34.7649       36.9809       5.952130      -0.00000
  21     81.20       30.8464        2.6063       34.1922       36.7986       5.952130       0.00000
  20     96.49       30.6324        3.0628       33.5218       36.5845       5.952130      -0.00000
  19     114.6       30.3829        3.5927       32.7424       36.3350       5.952130       0.00000
  18     136.5       30.0935        4.2041       31.8416       36.0457       5.952130       0.00000
  17     162.9       29.7578        4.9091       30.8008       35.7099       5.952130       0.00000
  16     196.4       29.3360        5.7875       29.5007       35.2882       5.952130      -0.00000
  15     218.7       29.0673        6.3427       28.6768       35.0195       5.952130       0.00000
  14     243.0       28.7824        6.9276       27.8069       34.7345       5.952130       0.00000
  13     269.0       28.4816        7.5402       26.8935       34.4337       5.952130      -0.00000
  12     297.5       28.1658        8.1782       25.9397       34.1179       5.952130       0.00000
  11     328.5       27.8346        8.8410       24.9457       33.7867       5.952130      -0.00000
  10     361.9       27.4894        9.5244       23.9170       33.4415       5.952130       0.00000
   9     398.1       27.1304       10.2268       22.8556       33.0825       5.952130      -0.00000
   8     437.6       26.7589       10.9437       21.7674       32.7111       5.952130       0.00000
   7     480.5       26.3759       11.6720       20.6560       32.3280       5.952130       0.00000
   6     533.0       25.9249       12.5136       19.3635       31.8770       5.952130      -0.00000
   5     589.8       25.4625       13.3572       18.0574       31.4146       5.952130       0.00000
   4     651.6       24.9906       14.1958       16.7469       30.9427       5.952130       0.00000
   3     718.7       24.5112       15.0226       15.4407       30.4633       5.952130       0.00000
   2     792.3       24.0274       15.8281       14.1515       29.9795       5.952130      -0.00000
   1     891.5       23.4186       16.7953       12.5754       29.3707       5.952130       0.00000
   0    1013.0       22.7473       17.7932       10.9062       28.6994       5.952130       0.00000



 Wavenumbers: 29000. - 38000. cm-1, ATM      1
 LEVEL PRESSURE   UPWARD FLUX   DIFDOWN FLUX  DIRDOWN FLUX  DOWNWARD FLUX   NET FLUX    HEATING RATE
          mb          W/m2          W/m2          W/m2        W/m2          W/m2       degree/day
  51    .06700        4.7042        0.0000       13.4026       13.4026       8.698383       0.00000
  50    .07753        4.7040        0.0003       13.3983       13.3986       8.694585       3.04421
  49    .09103        4.7037        0.0007       13.3921       13.3928       8.689066       3.44947
  48    0.1069        4.7034        0.0011       13.3840       13.3851       8.681690       3.92653
  47    0.1255        4.7031        0.0016       13.3733       13.3749       8.671845       4.46291
  46    0.1487        4.7026        0.0022       13.3579       13.3600       8.657404       5.26406
  45    0.1794        4.7021        0.0030       13.3340       13.3371       8.635006       6.14888
  44    0.2165        4.7014        0.0040       13.3024       13.3064       8.604989       6.82832
  43    0.2613        4.7006        0.0051       13.2604       13.2655       8.564937       7.54960
  42    0.3336        4.6994        0.0070       13.1833       13.1903       8.490936       8.62781
  41    0.4307        4.6978        0.0095       13.0729       13.0824       8.384572       9.24810
  40    0.5894        4.6954        0.0133       12.8796       12.8929       8.197545       9.94587
  39     1.339        4.6867        0.0295       11.9165       11.9460       7.259328      10.56262
  38     1.782        4.6832        0.0378       11.4399       11.4777       6.794450       8.85053
  37     2.292        4.6805        0.0466       10.9796       11.0262       6.345663       7.43308
  36     2.964        4.6788        0.0574       10.4786       10.5361       5.857262       6.13092
  35     3.853        4.6790        0.0708        9.9429       10.0137       5.334759       4.95865
  34     5.035        4.6817        0.0875        9.4007        9.4882       4.806545       3.77334
  33     6.613        4.6870        0.1087        8.8752        8.9839       4.296862       2.72476
  32     8.786        4.6945        0.1359        8.3786        8.5145       3.820045       1.85178
  31     11.80        4.7035        0.1734        7.8897        8.0630       3.359584       1.28915
  30     15.07        4.7110        0.2120        7.5108        7.7228       3.011825       0.89785
  29     18.79        4.7177        0.2540        7.1776        7.4317       2.713943       0.67539
  28     23.16        4.7235        0.3014        6.8664        7.1678       2.444253       0.52149
  27     28.12        4.7278        0.3537        6.5780        6.9317       2.203946       0.40850
  26     33.73        4.7280        0.4106        6.3195        6.7301       2.002109       0.30347
  25     40.54        4.7230        0.4778        6.0663        6.5441       1.821101       0.22456
  24     48.69        4.7121        0.5565        5.8128        6.3693       1.657235       0.16958
  23     57.69        4.6955        0.6404        5.5777        6.2181       1.522597       0.12620
  22     68.43        4.6707        0.7375        5.3379        6.0753       1.404590       0.09277
  21     81.20        4.6337        0.8500        5.0965        5.9465       1.312806       0.06065
  20     96.49        4.5831        0.9799        4.8476        5.8276       1.244509       0.03770
  19     114.6        4.5218        1.1270        4.5799        5.7069       1.185106       0.02774
  18     136.5        4.4508        1.2911        4.2891        5.5802       1.129479       0.02139
  17     162.9        4.3696        1.4729        3.9732        5.4461       1.076506       0.01693
  16     196.4        4.2669        1.6902        3.6080        5.2982       1.031285       0.01138
  15     218.7        4.2021        1.8221        3.3898        5.2119       1.009783       0.00816
  14     243.0        4.1347        1.9564        3.1686        5.1250       0.990298       0.00676
  13     269.0        4.0648        2.0918        2.9461        5.0379       0.973131       0.00557
  12     297.5        3.9929        2.2273        2.7239        4.9512       0.958297       0.00440
  11     328.5        3.9198        2.3613        2.5029        4.8642       0.944381       0.00378
  10     361.9        3.8458        2.4926        2.2846        4.7772       0.931405       0.00328
   9     398.1        3.7715        2.6200        2.0708        4.6908       0.919362       0.00281
   8     437.6        3.6972        2.7421        1.8631        4.6052       0.907993       0.00243
   7     480.5        3.6232        2.8580        1.6626        4.5206       0.897420       0.00208
   6     533.0        3.5395        2.9810        1.4446        4.4257       0.886147       0.00181
   5     589.8        3.4574        3.0926        1.2403        4.3329       0.875481       0.00158
   4     651.6        3.3774        3.1910        1.0517        4.2426       0.865279       0.00140
   3     718.7        3.2996        3.2752        0.8799        4.1551       0.855506       0.00123
   2     792.3        3.2244        3.3445        0.7261        4.0706       0.846143       0.00107
   1     891.5        3.1337        3.4097        0.5589        3.9686       0.834852       0.00096
   0    1013.0        3.0378        3.4540        0.4065        3.8606       0.822722       0.00084



 Wavenumbers: 38000. - 50000. cm-1, ATM      1
 LEVEL PRESSURE   UPWARD FLUX   DIFDOWN FLUX  DIRDOWN FLUX  DOWNWARD FLUX   NET FLUX    HEATING RATE
          mb          W/m2          W/m2          W/m2        W/m2          W/m2       degree/day
  51    .06700        0.0051        0.0000        0.8267        0.8267       0.821528       0.00000
  50    .07753        0.0051        0.0001        0.8242        0.8243       0.819196       1.86936
  49    .09103        0.0050        0.0002        0.8207        0.8209       0.815873       2.07705
  48    0.1069        0.0049        0.0002        0.8162        0.8164       0.811514       2.31984
  47    0.1255        0.0048        0.0004        0.8103        0.8106       0.805801       2.59006
  46    0.1487        0.0047        0.0005        0.8018        0.8023       0.797567       3.00143
  45    0.1794        0.0045        0.0007        0.7889        0.7896       0.785013       3.44648
  44    0.2165        0.0044        0.0009        0.7720        0.7729       0.768507       3.75474
  43    0.2613        0.0042        0.0011        0.7500        0.7511       0.746955       4.06246
  42    0.3336        0.0039        0.0015        0.7106        0.7121       0.708267       4.51071
  41    0.4307        0.0035        0.0019        0.6566        0.6584       0.654972       4.63387
  40    0.5894        0.0029        0.0024        0.5680        0.5704       0.567464       4.65357
  39     1.339        0.0015        0.0030        0.2422        0.2452       0.243720       3.64476
  38     1.782        0.0010        0.0026        0.1493        0.1519       0.150889       1.76735
  37     2.292        0.0007        0.0022        0.0924        0.0946       0.093932       0.94336
  36     2.964        0.0005        0.0018        0.0539        0.0557       0.055224       0.48589
  35     3.853        0.0003        0.0013        0.0295        0.0308       0.030502       0.23462
  34     5.035        0.0002        0.0010        0.0154        0.0164       0.016181       0.10230
  33     6.613        0.0001        0.0007        0.0073        0.0080       0.007912       0.04420
  32     8.786        0.0000        0.0004        0.0030        0.0034       0.003390       0.01756
  31     11.80        0.0000        0.0003        0.0010        0.0012       0.001199       0.00613
  30     15.07        0.0000        0.0001        0.0003        0.0005       0.000463       0.00190
  29     18.79        0.0000        0.0001        0.0001        0.0002       0.000182       0.00064
  28     23.16        0.0000        0.0000        0.0000        0.0001       0.000071       0.00022
  27     28.12        0.0000        0.0000        0.0000        0.0000       0.000028       0.00007
  26     33.73        0.0000        0.0000        0.0000        0.0000       0.000011       0.00002
  25     40.54        0.0000        0.0000        0.0000        0.0000       0.000005       0.00001
  24     48.69        0.0000        0.0000        0.0000        0.0000       0.000002       0.00000
  23     57.69        0.0000        0.0000        0.0000        0.0000       0.000001       0.00000
  22     68.43        0.0000        0.0000        0.0000        0.0000       0.000000       0.00000
  21     81.20        0.0000        0.0000        0.0000        0.0000       0.000000       0.00000
  20     96.49        0.0000        0.0000        0.0000        0.0000       0.000000       0.00000
  19     114.6        0.0000        0.0000        0.0000        0.0000       0.000000       0.00000
  18     136.5        0.0000        0.0000        0.0000        0.0000       0.000000       0.00000
  17     162.9        0.0000        0.0000        0.0000        0.0000       0.000000       0.00000
  16     196.4        0.0000        0.0000        0.0000        0.0000       0.000000       0.00000
  15     218.7        0.0000        0.0000        0.0000        0.0000       0.000000       0.00000
  14     243.0        0.0000        0.0000        0.0000        0.0000       0.000000       0.00000
  13     269.0        0.0000        0.0000        0.0000        0.0000       0.000000       0.00000
  12     297.5        0.0000        0.0000        0.0000        0.0000       0.000000       0.00000
  11     328.5        0.0000        0.0000        0.0000        0.0000       0.000000       0.00000
  10     361.9        0.0000        0.0000        0.0000        0.0000       0.000000       0.00000
   9     398.1        0.0000        0.0000        0.0000        0.0000       0.000000       0.00000
   8     437.6        0.0000        0.0000        0.0000        0.0000       0.000000       0.00000
   7     480.5        0.0000        0.0000        0.0000        0.0000       0.000000       0.00000
   6     533.0        0.0000        0.0000        0.0000        0.0000       0.000000       0.00000
   5     589.8        0.0000        0.0000        0.0000        0.0000       0.000000       0.00000
   4     651.6        0.0000        0.0000        0.0000        0.0000       0.000000       0.00000
   3     718.7        0.0000        0.0000        0.0000        0.0000       0.000000       0.00000
   2     792.3        0.0000        0.0000        0.0000        0.0000       0.000000       0.00000
   1     891.5        0.0000        0.0000        0.0000        0.0000       0.000000       0.00000
   0    1013.0        0.0000        0.0000        0.0000        0.0000       0.000000       0.00000



 Wavenumbers:   820. -  2600. cm-1, ATM      1
 LEVEL PRESSURE   UPWARD FLUX   DIFDOWN FLUX  DIRDOWN FLUX  DOWNWARD FLUX   NET FLUX    HEATING RATE
          mb          W/m2          W/m2          W/m2        W/m2          W/m2       degree/day
  51    .06700        0.3533        0.0000        3.8670        3.8670       3.513680       0.00000
  50    .07753        0.3533        0.0000        3.8643        3.8643       3.511001       2.14685
  49    .09103        0.3533        0.0000        3.8636        3.8636       3.510241       0.47496
  48    0.1069        0.3533        0.0000        3.8627        3.8627       3.509411       0.44216
  47    0.1255        0.3533        0.0000        3.8619        3.8619       3.508522       0.40307
  46    0.1487        0.3533        0.0000        3.8608        3.8608       3.507506       0.37009
  45    0.1794        0.3533        0.0000        3.8596        3.8596       3.506305       0.32983
  44    0.2165        0.3533        0.0000        3.8584        3.8584       3.505091       0.27611
  43    0.2613        0.3533        0.0000        3.8572        3.8572       3.503832       0.23740
  42    0.3336        0.3533        0.0000        3.8553        3.8553       3.501943       0.22023
  41    0.4307        0.3533        0.0000        3.8529        3.8529       3.499529       0.20991
  40    0.5894        0.3533        0.0000        3.8489        3.8489       3.495582       0.20990
  39     1.339        0.3533        0.0000        3.8312        3.8312       3.477873       0.19936
  38     1.782        0.3533        0.0000        3.8214        3.8214       3.468098       0.18612
  37     2.292        0.3533        0.0000        3.8106        3.8106       3.457244       0.17977
  36     2.964        0.3533        0.0000        3.7971        3.7971       3.443743       0.16948
  35     3.853        0.3533        0.0000        3.7802        3.7802       3.426813       0.16066
  34     5.035        0.3533        0.0000        3.7586        3.7586       3.405300       0.15368
  33     6.613        0.3533        0.0000        3.7310        3.7310       3.377637       0.14789
  32     8.786        0.3533        0.0000        3.6966        3.6966       3.343232       0.13362
  31     11.80        0.3533        0.0000        3.6570        3.6570       3.303627       0.11088
  30     15.07        0.3534        0.0000        3.6274        3.6274       3.274077       0.07629
  29     18.79        0.3534        0.0000        3.6056        3.6056       3.252219       0.04956
  28     23.16        0.3534        0.0000        3.5880        3.5880       3.234634       0.03400
  27     28.12        0.3534        0.0000        3.5715        3.5715       3.218146       0.02803
  26     33.73        0.3534        0.0000        3.5541        3.5541       3.200722       0.02620
  25     40.54        0.3534        0.0000        3.5334        3.5334       3.180011       0.02569
  24     48.69        0.3534        0.0000        3.5087        3.5087       3.155307       0.02556
  23     57.69        0.3534        0.0000        3.4820        3.4820       3.128614       0.02502
  22     68.43        0.3534        0.0000        3.4510        3.4510       3.097614       0.02437
  21     81.20        0.3534        0.0000        3.4160        3.4160       3.062590       0.02314
  20     96.49        0.3535        0.0000        3.3766        3.3766       3.023132       0.02178
  19     114.6        0.3535        0.0000        3.3327        3.3327       2.979247       0.02049
  18     136.5        0.3535        0.0000        3.2832        3.2832       2.929714       0.01905
  17     162.9        0.3536        0.0000        3.2225        3.2225       2.868960       0.01942
  16     196.4        0.3537        0.0000        3.1380        3.1380       2.784354       0.02130
  15     218.7        0.3537        0.0000        3.0834        3.0834       2.729708       0.02075
  14     243.0        0.3538        0.0000        3.0165        3.0165       2.662695       0.02324
  13     269.0        0.3540        0.0000        2.9272        2.9272       2.573219       0.02903
  12     297.5        0.3542        0.0000        2.8204        2.8205       2.466226       0.03173
  11     328.5        0.3546        0.0000        2.6830        2.6830       2.328405       0.03747
  10     361.9        0.3552        0.0000        2.5076        2.5076       2.152478       0.04451
   9     398.1        0.3559        0.0000        2.3197        2.3197       1.963860       0.04394
   8     437.6        0.3569        0.0000        2.1530        2.1530       1.796160       0.03586
   7     480.5        0.3581        0.0000        2.0284        2.0285       1.670330       0.02471
   6     533.0        0.3601        0.0000        1.9258        1.9258       1.565714       0.01683
   5     589.8        0.3628        0.0000        1.8255        1.8256       1.462806       0.01527
   4     651.6        0.3665        0.0000        1.7175        1.7175       1.351018       0.01529
   3     718.7        0.3712        0.0000        1.6149        1.6150       1.243732       0.01348
   2     792.3        0.3770        0.0000        1.5266        1.5266       1.149615       0.01079
   1     891.5        0.3863        0.0001        1.4296        1.4296       1.043322       0.00905
   0    1013.0        0.4024        0.0001        1.3194        1.3194       0.917004       0.00877

  Modules and versions used in this calculation:

       rrtmg_sw.1col.f90:  $Revision$                    rrtmg_sw_init.f90:  $Revision$        
     rrtmgsw_cldprop.f90:  $Revision$                  rrtmgsw_cldprmc.f90:  NOT USED          
     rrtmg_sw_reftra.f90:  $Revision$                  rrtmg_sw_spcvrt.f90:  NOT USED          
     rrtmg_sw_spcvmc.f90:  NOT USED                    rrtmgsw_setcoef.f90:  NOT USED          
     rrtmg_sw_taumol.f90:  $Revision$                  rrtmg_sw_vrtqdr.f90:  NOT USED          
                rrtatm.f:  NOT USED                             util_xxx.f:  NOT USED          
                 extra.f:  NOT USED                       rrtmg_sw_k_g.f90:  $Revision$        

