

 Wavenumbers:   820. - 50000. cm-1, ATM      1
 LEVEL PRESSURE   UPWARD FLUX   DIFDOWN FLUX  DIRDOWN FLUX  DOWNWARD FLUX   NET FLUX    HEATING RATE
          mb          W/m2          W/m2          W/m2        W/m2          W/m2       degree/day
  51    .06700      180.1018        0.0000      397.8738      397.8738     217.772004       0.00000
  50    .07753      180.1011        0.0011      397.8579      397.8591     217.757924      11.28520
  49    .09103      180.1004        0.0026      397.8423      397.8449     217.744490       8.39659
  48    0.1069      180.0995        0.0042      397.8237      397.8279     217.728422       8.55333
  47    0.1255      180.0985        0.0061      397.8007      397.8068     217.708292       9.12609
  46    0.1487      180.0973        0.0085      397.7690      397.7775     217.680224      10.23086
  45    0.1794      180.0957        0.0118      397.7224      397.7341     217.638466      11.46365
  44    0.2165      180.0938        0.0156      397.6627      397.6783     217.584465      12.28431
  43    0.2613      180.0917        0.0202      397.5860      397.6062     217.514463      13.19506
  42    0.3336      180.0885        0.0276      397.4492      397.4768     217.388389      14.69892
  41    0.4307      180.0844        0.0374      397.2584      397.2957     217.211391      15.38963
  40    0.5894      180.0782        0.0531      396.9339      396.9870     216.908733      16.09494
  39     1.339      180.0598        0.1233      395.4449      395.5682     215.508319      15.76612
  38     1.782      180.0560        0.1626      394.7541      394.9167     214.860720      12.32924
  37     2.292      180.0576        0.2072      394.0890      394.2962     214.238680      10.30260
  36     2.964      180.0687        0.2653      393.3407      393.6059     213.537265       8.80488
  35     3.853      180.0958        0.3411      392.4819      392.8230     212.727248       7.68721
  34     5.035      180.1441        0.4408      391.5065      391.9473     211.803193       6.60106
  33     6.613      180.2156        0.5729      390.4035      390.9764     210.760825       5.57250
  32     8.786      180.3072        0.7495      389.1554      389.9049     209.597742       4.51699
  31     11.80      180.4176        1.0002      387.6624      388.6626     208.245016       3.78721
  30     15.07      180.5120        1.2670      386.2866      387.5536     207.041550       3.10711
  29     18.79      180.5972        1.5660      384.9008      386.4668     205.869620       2.65713
  28     23.16      180.6719        1.9123      383.4409      385.3532     204.681260       2.29791
  27     28.12      180.7285        2.3050      381.9279      384.2328     203.504336       2.00069
  26     33.73      180.7493        2.7411      380.4159      383.1570     202.407716       1.64880
  25     40.54      180.7252        3.2640      378.7807      382.0447     201.319490       1.35007
  24     48.69      180.6492        3.8887      376.9903      380.8790     200.229849       1.12761
  23     57.69      180.5206        4.5682      375.1902      379.7584     199.237749       0.92994
  22     68.43      180.3194        5.3690      373.2192      378.5882     198.268789       0.76173
  21     81.20      180.0131        6.3124      371.0935      377.4059     197.392858       0.57880
  20     96.49      179.5883        7.4219      368.7744      376.1963     196.608043       0.43316
  19     114.6      179.0636        8.7170      366.1596      374.8766     195.812975       0.37124
  18     136.5      178.4306       10.2201      363.1885      373.4086     194.977983       0.32107
  17     162.9      177.6725       11.9661      359.7594      371.7255     194.052947       0.29568
  16     196.4      176.6691       14.1655      355.4448      369.6103     192.941278       0.27982
  15     218.7      176.0085       15.5710      352.6151      368.1861     192.177579       0.28995
  14     243.0      175.2961       17.0651      349.4324      366.4974     191.201377       0.33858
  13     269.0      174.5313       18.6458      345.6371      364.2829     189.751607       0.47030
  12     297.5      173.7150       20.3108      341.1891      361.4999     187.784879       0.58331
  11     328.5      172.8498       22.0613      336.1307      358.1920     185.342231       0.66415
  10     361.9      171.9387       23.8918      330.5693      354.4611     182.522381       0.71345
   9     398.1      170.9824       25.8023      324.5070      350.3093     179.326912       0.74447
   8     437.6      169.9861       27.7870      317.8662      345.6532     175.667149       0.78248
   7     480.5      168.9562       29.8416      310.5794      340.4211     171.464815       0.82532
   6     533.0      167.7453       32.2724      301.8100      334.0824     166.337011       0.82490
   5     589.8      166.5141       34.7782      292.7484      327.5266     161.012469       0.79034
   4     651.6      165.2840       37.3487      283.4316      320.7804     155.496405       0.75434
   3     718.7      164.0675       39.9744      274.1830      314.1574     150.089850       0.67945
   2     792.3      162.8781       42.6422      265.1811      307.8234     144.945297       0.59002
   1     891.5      161.4792       46.0238      253.9999      300.0237     138.544481       0.54468
   0    1013.0      160.2340       49.7763      241.2635      291.0397     130.805731       0.53734



 Wavenumbers:  2600. -  3250. cm-1, ATM      1
 LEVEL PRESSURE   UPWARD FLUX   DIFDOWN FLUX  DIRDOWN FLUX  DOWNWARD FLUX   NET FLUX    HEATING RATE
          mb          W/m2          W/m2          W/m2        W/m2          W/m2       degree/day
  51    .06700        0.4281        0.0000        3.5066        3.5066       3.078564       0.00000
  50    .07753        0.4281        0.0000        3.5066        3.5066       3.078556       0.00640
  49    .09103        0.4281        0.0000        3.5066        3.5066       3.078546       0.00627
  48    0.1069        0.4281        0.0000        3.5066        3.5066       3.078534       0.00613
  47    0.1255        0.4281        0.0000        3.5066        3.5066       3.078521       0.00599
  46    0.1487        0.4281        0.0000        3.5066        3.5066       3.078504       0.00607
  45    0.1794        0.4281        0.0000        3.5065        3.5065       3.078482       0.00624
  44    0.2165        0.4281        0.0000        3.5065        3.5065       3.078455       0.00611
  43    0.2613        0.4281        0.0000        3.5065        3.5065       3.078423       0.00598
  42    0.3336        0.4281        0.0000        3.5064        3.5064       3.078370       0.00615
  41    0.4307        0.4281        0.0000        3.5064        3.5064       3.078299       0.00618
  40    0.5894        0.4281        0.0000        3.5062        3.5062       3.078180       0.00633
  39     1.339        0.4281        0.0000        3.5055        3.5055       3.077481       0.00787
  38     1.782        0.4281        0.0000        3.5050        3.5050       3.076950       0.01011
  37     2.292        0.4281        0.0000        3.5043        3.5043       3.076258       0.01147
  36     2.964        0.4281        0.0000        3.5033        3.5033       3.075267       0.01245
  35     3.853        0.4281        0.0000        3.5019        3.5019       3.073889       0.01307
  34     5.035        0.4281        0.0000        3.5001        3.5001       3.072028       0.01329
  33     6.613        0.4281        0.0000        3.4977        3.4977       3.069619       0.01288
  32     8.786        0.4281        0.0000        3.4947        3.4947       3.066648       0.01154
  31     11.80        0.4281        0.0000        3.4911        3.4911       3.063012       0.01018
  30     15.07        0.4281        0.0000        3.4878        3.4878       3.059791       0.00832
  29     18.79        0.4281        0.0000        3.4848        3.4848       3.056727       0.00695
  28     23.16        0.4281        0.0000        3.4816        3.4816       3.053506       0.00623
  27     28.12        0.4281        0.0000        3.4779        3.4779       3.049887       0.00615
  26     33.73        0.4281        0.0000        3.4735        3.4735       3.045419       0.00672
  25     40.54        0.4281        0.0000        3.4671        3.4671       3.039090       0.00785
  24     48.69        0.4281        0.0000        3.4582        3.4583       3.030191       0.00921
  23     57.69        0.4281        0.0000        3.4472        3.4472       3.019138       0.01036
  22     68.43        0.4281        0.0000        3.4329        3.4329       3.004870       0.01122
  21     81.20        0.4281        0.0000        3.4152        3.4152       2.987129       0.01172
  20     96.49        0.4281        0.0000        3.3940        3.3941       2.965968       0.01168
  19     114.6        0.4281        0.0000        3.3697        3.3698       2.941620       0.01137
  18     136.5        0.4282        0.0001        3.3431        3.3432       2.915008       0.01023
  17     162.9        0.4283        0.0001        3.3152        3.3152       2.886982       0.00896
  16     196.4        0.4284        0.0001        3.2843        3.2844       2.856058       0.00778
  15     218.7        0.4284        0.0001        3.2663        3.2664       2.837939       0.00688
  14     243.0        0.4286        0.0001        3.2470        3.2470       2.818468       0.00675
  13     269.0        0.4288        0.0001        3.2226        3.2227       2.793853       0.00798
  12     297.5        0.4291        0.0001        3.1925        3.1926       2.763491       0.00900
  11     328.5        0.4296        0.0001        3.1538        3.1539       2.724329       0.01065
  10     361.9        0.4302        0.0001        3.1033        3.1034       2.673149       0.01295
   9     398.1        0.4311        0.0001        3.0379        3.0380       2.606849       0.01545
   8     437.6        0.4324        0.0002        2.9536        2.9538       2.521376       0.01827
   7     480.5        0.4342        0.0002        2.8457        2.8458       2.411683       0.02154
   6     533.0        0.4370        0.0002        2.7002        2.7004       2.263352       0.02386
   5     589.8        0.4411        0.0002        2.5421        2.5423       2.101241       0.02406
   4     651.6        0.4468        0.0002        2.3800        2.3802       1.933446       0.02295
   3     718.7        0.4545        0.0002        2.2227        2.2229       1.768392       0.02074
   2     792.3        0.4644        0.0002        2.0723        2.0725       1.608127       0.01838
   1     891.5        0.4813        0.0002        1.8864        1.8866       1.405311       0.01726
   0    1013.0        0.5107        0.0002        1.6743        1.6745       1.163816       0.01677



 Wavenumbers:  3250. -  4000. cm-1, ATM      1
 LEVEL PRESSURE   UPWARD FLUX   DIFDOWN FLUX  DIRDOWN FLUX  DOWNWARD FLUX   NET FLUX    HEATING RATE
          mb          W/m2          W/m2          W/m2        W/m2          W/m2       degree/day
  51    .06700        0.0136        0.0000        5.9117        5.9117       5.898080       0.00000
  50    .07753        0.0136        0.0000        5.9076        5.9076       5.893997       3.27314
  49    .09103        0.0136        0.0000        5.9052        5.9052       5.891670       1.45421
  48    0.1069        0.0136        0.0000        5.9035        5.9035       5.889916       0.93342
  47    0.1255        0.0136        0.0000        5.9018        5.9018       5.888270       0.74638
  46    0.1487        0.0136        0.0000        5.9001        5.9001       5.886506       0.64313
  45    0.1794        0.0136        0.0000        5.8981        5.8981       5.884510       0.54779
  44    0.2165        0.0136        0.0000        5.8961        5.8961       5.882568       0.44194
  43    0.2613        0.0136        0.0000        5.8942        5.8942       5.880618       0.36752
  42    0.3336        0.0136        0.0000        5.8914        5.8914       5.877811       0.32725
  41    0.4307        0.0136        0.0000        5.8880        5.8880       5.874435       0.29352
  40    0.5894        0.0136        0.0000        5.8829        5.8829       5.869289       0.27365
  39     1.339        0.0136        0.0000        5.8640        5.8640       5.850394       0.21273
  38     1.782        0.0136        0.0000        5.8561        5.8561       5.842525       0.14980
  37     2.292        0.0136        0.0000        5.8485        5.8485       5.834951       0.12544
  36     2.964        0.0136        0.0000        5.8397        5.8397       5.826137       0.11065
  35     3.853        0.0136        0.0000        5.8287        5.8287       5.815121       0.10454
  34     5.035        0.0136        0.0000        5.8141        5.8141       5.800575       0.10391
  33     6.613        0.0136        0.0000        5.7943        5.7943       5.780752       0.10597
  32     8.786        0.0136        0.0000        5.7665        5.7665       5.752987       0.10783
  31     11.80        0.0136        0.0000        5.7256        5.7256       5.712051       0.11461
  30     15.07        0.0136        0.0000        5.6809        5.6810       5.667403       0.11527
  29     18.79        0.0135        0.0000        5.6311        5.6311       5.617575       0.11298
  28     23.16        0.0135        0.0000        5.5758        5.5758       5.562269       0.10694
  27     28.12        0.0135        0.0000        5.5179        5.5180       5.504427       0.09833
  26     33.73        0.0135        0.0000        5.4602        5.4603       5.446757       0.08671
  25     40.54        0.0135        0.0001        5.3980        5.3981       5.384584       0.07713
  24     48.69        0.0135        0.0001        5.3294        5.3294       5.315923       0.07105
  23     57.69        0.0135        0.0001        5.2572        5.2573       5.243799       0.06761
  22     68.43        0.0135        0.0001        5.1731        5.1732       5.159680       0.06613
  21     81.20        0.0135        0.0001        5.0755        5.0756       5.062116       0.06447
  20     96.49        0.0134        0.0001        4.9655        4.9656       4.952193       0.06067
  19     114.6        0.0134        0.0001        4.8434        4.8436       4.830139       0.05699
  18     136.5        0.0134        0.0002        4.7116        4.7117       4.698337       0.05068
  17     162.9        0.0134        0.0002        4.5620        4.5622       4.548811       0.04779
  16     196.4        0.0133        0.0002        4.3634        4.3636       4.350292       0.04997
  15     218.7        0.0133        0.0002        4.2155        4.2157       4.202430       0.05614
  14     243.0        0.0133        0.0003        4.0279        4.0281       4.014819       0.06507
  13     269.0        0.0133        0.0003        3.7823        3.7826       3.769315       0.07964
  12     297.5        0.0133        0.0003        3.4809        3.4812       3.467891       0.08940
  11     328.5        0.0133        0.0003        3.1196        3.1199       3.106656       0.09822
  10     361.9        0.0133        0.0003        2.7315        2.7317       2.718441       0.09822
   9     398.1        0.0133        0.0003        2.3625        2.3628       2.349418       0.08597
   8     437.6        0.0135        0.0003        2.0242        2.0244       2.010963       0.07236
   7     480.5        0.0137        0.0002        1.7043        1.7045       1.690850       0.06287
   6     533.0        0.0141        0.0002        1.3771        1.3773       1.363255       0.05270
   5     589.8        0.0147        0.0002        1.0905        1.0907       1.075971       0.04264
   4     651.6        0.0159        0.0002        0.8311        0.8312       0.815350       0.03564
   3     718.7        0.0177        0.0001        0.6101        0.6102       0.592524       0.02800
   2     792.3        0.0205        0.0001        0.4375        0.4376       0.417144       0.02011
   1     891.5        0.0262        0.0001        0.2721        0.2722       0.246060       0.01456
   0    1013.0        0.0399        0.0001        0.1307        0.1307       0.090855       0.01078



 Wavenumbers:  4000. -  4650. cm-1, ATM      1
 LEVEL PRESSURE   UPWARD FLUX   DIFDOWN FLUX  DIRDOWN FLUX  DOWNWARD FLUX   NET FLUX    HEATING RATE
          mb          W/m2          W/m2          W/m2        W/m2          W/m2       degree/day
  51    .06700        1.4196        0.0000        6.9421        6.9421       5.522505       0.00000
  50    .07753        1.4196        0.0000        6.9421        6.9421       5.522504       0.00080
  49    .09103        1.4196        0.0000        6.9421        6.9421       5.522502       0.00079
  48    0.1069        1.4196        0.0000        6.9421        6.9421       5.522501       0.00077
  47    0.1255        1.4196        0.0000        6.9421        6.9421       5.522499       0.00075
  46    0.1487        1.4196        0.0000        6.9421        6.9421       5.522497       0.00076
  45    0.1794        1.4196        0.0000        6.9421        6.9421       5.522494       0.00078
  44    0.2165        1.4196        0.0000        6.9421        6.9421       5.522491       0.00077
  43    0.2613        1.4196        0.0000        6.9421        6.9421       5.522487       0.00075
  42    0.3336        1.4196        0.0000        6.9420        6.9420       5.522480       0.00078
  41    0.4307        1.4196        0.0000        6.9420        6.9420       5.522471       0.00078
  40    0.5894        1.4196        0.0000        6.9420        6.9420       5.522456       0.00080
  39     1.339        1.4196        0.0000        6.9419        6.9419       5.522366       0.00101
  38     1.782        1.4196        0.0000        6.9418        6.9419       5.522296       0.00134
  37     2.292        1.4196        0.0000        6.9418        6.9418       5.522201       0.00157
  36     2.964        1.4196        0.0000        6.9416        6.9416       5.522060       0.00177
  35     3.853        1.4196        0.0000        6.9414        6.9414       5.521850       0.00199
  34     5.035        1.4196        0.0000        6.9411        6.9411       5.521542       0.00220
  33     6.613        1.4195        0.0000        6.9406        6.9406       5.521088       0.00243
  32     8.786        1.4195        0.0000        6.9399        6.9400       5.520419       0.00260
  31     11.80        1.4195        0.0000        6.9389        6.9389       5.519370       0.00294
  30     15.07        1.4195        0.0001        6.9376        6.9377       5.518143       0.00317
  29     18.79        1.4195        0.0001        6.9361        6.9362       5.516664       0.00335
  28     23.16        1.4195        0.0001        6.9342        6.9343       5.514834       0.00354
  27     28.12        1.4195        0.0001        6.9320        6.9321       5.512628       0.00375
  26     33.73        1.4195        0.0001        6.9293        6.9294       5.509920       0.00407
  25     40.54        1.4195        0.0002        6.9256        6.9257       5.506267       0.00453
  24     48.69        1.4195        0.0002        6.9207        6.9209       5.501429       0.00501
  23     57.69        1.4195        0.0002        6.9150        6.9152       5.495733       0.00534
  22     68.43        1.4195        0.0003        6.9078        6.9081       5.488646       0.00557
  21     81.20        1.4195        0.0003        6.8991        6.8995       5.479975       0.00573
  20     96.49        1.4195        0.0004        6.8886        6.8890       5.469494       0.00578
  19     114.6        1.4195        0.0004        6.8759        6.8763       5.456792       0.00593
  18     136.5        1.4196        0.0005        6.8606        6.8612       5.441544       0.00586
  17     162.9        1.4198        0.0006        6.8421        6.8428       5.423007       0.00593
  16     196.4        1.4200        0.0007        6.8172        6.8180       5.397994       0.00630
  15     218.7        1.4202        0.0008        6.7999        6.8007       5.380516       0.00664
  14     243.0        1.4205        0.0009        6.7794        6.7803       5.359766       0.00720
  13     269.0        1.4210        0.0010        6.7534        6.7544       5.333450       0.00854
  12     297.5        1.4216        0.0011        6.7208        6.7219       5.300334       0.00982
  11     328.5        1.4226        0.0012        6.6798        6.6810       5.258432       0.01139
  10     361.9        1.4238        0.0013        6.6276        6.6289       5.205069       0.01350
   9     398.1        1.4256        0.0015        6.5612        6.5626       5.137047       0.01585
   8     437.6        1.4279        0.0016        6.4775        6.4791       5.051158       0.01836
   7     480.5        1.4308        0.0017        6.3741        6.3759       4.945026       0.02084
   6     533.0        1.4353        0.0019        6.2404        6.2423       4.807063       0.02219
   5     589.8        1.4412        0.0021        6.0964        6.0984       4.657218       0.02224
   4     651.6        1.4493        0.0022        5.9360        5.9382       4.488914       0.02302
   3     718.7        1.4599        0.0024        5.7578        5.7602       4.300330       0.02370
   2     792.3        1.4734        0.0026        5.5683        5.5709       4.097462       0.02327
   1     891.5        1.4962        0.0028        5.3208        5.3236       3.827362       0.02298
   0    1013.0        1.5359        0.0030        5.0331        5.0361       3.500283       0.02271



 Wavenumbers:  4650. -  5150. cm-1, ATM      1
 LEVEL PRESSURE   UPWARD FLUX   DIFDOWN FLUX  DIRDOWN FLUX  DOWNWARD FLUX   NET FLUX    HEATING RATE
          mb          W/m2          W/m2          W/m2        W/m2          W/m2       degree/day
  51    .06700        0.9526        0.0000        6.5710        6.5710       5.618378       0.00000
  50    .07753        0.9526        0.0000        6.5708        6.5708       5.618145       0.18627
  49    .09103        0.9526        0.0000        6.5705        6.5705       5.617856       0.18110
  48    0.1069        0.9526        0.0000        6.5701        6.5701       5.617526       0.17562
  47    0.1255        0.9526        0.0000        6.5698        6.5698       5.617151       0.17003
  46    0.1487        0.9526        0.0000        6.5693        6.5693       5.616683       0.17034
  45    0.1794        0.9526        0.0000        6.5687        6.5687       5.616055       0.17237
  44    0.2165        0.9526        0.0000        6.5679        6.5679       5.615327       0.16562
  43    0.2613        0.9526        0.0000        6.5671        6.5671       5.614486       0.15863
  42    0.3336        0.9526        0.0000        6.5657        6.5658       5.613141       0.15683
  41    0.4307        0.9526        0.0000        6.5640        6.5641       5.611442       0.14774
  40    0.5894        0.9526        0.0000        6.5615        6.5615       5.608859       0.13732
  39     1.339        0.9526        0.0000        6.5518        6.5518       5.599204       0.10870
  38     1.782        0.9526        0.0000        6.5476        6.5476       5.595038       0.07931
  37     2.292        0.9526        0.0000        6.5438        6.5438       5.591195       0.06365
  36     2.964        0.9526        0.0000        6.5399        6.5399       5.587283       0.04912
  35     3.853        0.9526        0.0000        6.5359        6.5360       5.583376       0.03707
  34     5.035        0.9526        0.0000        6.5320        6.5320       5.579405       0.02837
  33     6.613        0.9526        0.0000        6.5276        6.5276       5.575037       0.02335
  32     8.786        0.9526        0.0001        6.5221        6.5221       5.569568       0.02124
  31     11.80        0.9526        0.0001        6.5140        6.5141       5.561523       0.02252
  30     15.07        0.9526        0.0001        6.5047        6.5047       5.552192       0.02409
  29     18.79        0.9525        0.0001        6.4932        6.4933       5.540721       0.02601
  28     23.16        0.9525        0.0001        6.4786        6.4787       5.526186       0.02811
  27     28.12        0.9525        0.0002        6.4606        6.4608       5.508280       0.03044
  26     33.73        0.9525        0.0002        6.4393        6.4394       5.486930       0.03210
  25     40.54        0.9525        0.0002        6.4122        6.4124       5.459906       0.03353
  24     48.69        0.9525        0.0003        6.3786        6.3789       5.426392       0.03468
  23     57.69        0.9525        0.0003        6.3416        6.3420       5.389431       0.03464
  22     68.43        0.9526        0.0004        6.2986        6.2989       5.346388       0.03384
  21     81.20        0.9526        0.0005        6.2499        6.2503       5.297728       0.03215
  20     96.49        0.9527        0.0005        6.1967        6.1972       5.244511       0.02937
  19     114.6        0.9528        0.0006        6.1403        6.1409       5.188120       0.02633
  18     136.5        0.9530        0.0007        6.0815        6.0822       5.129247       0.02264
  17     162.9        0.9532        0.0009        6.0190        6.0199       5.066635       0.02001
  16     196.4        0.9537        0.0011        5.9438        5.9449       4.991194       0.01899
  15     218.7        0.9540        0.0012        5.8949        5.8960       4.942001       0.01868
  14     243.0        0.9545        0.0013        5.8402        5.8415       4.887039       0.01906
  13     269.0        0.9551        0.0014        5.7779        5.7793       4.824247       0.02037
  12     297.5        0.9559        0.0015        5.7056        5.7071       4.751257       0.02165
  11     328.5        0.9570        0.0017        5.6209        5.6226       4.665643       0.02328
  10     361.9        0.9585        0.0018        5.5210        5.5229       4.564422       0.02561
   9     398.1        0.9604        0.0020        5.4064        5.4084       4.447997       0.02712
   8     437.6        0.9630        0.0022        5.2755        5.2776       4.314655       0.02851
   7     480.5        0.9663        0.0023        5.1260        5.1283       4.161951       0.02999
   6     533.0        0.9715        0.0025        4.9357        4.9382       3.966689       0.03141
   5     589.8        0.9783        0.0027        4.7299        4.7326       3.754274       0.03153
   4     651.6        0.9875        0.0028        4.5132        4.5160       3.528573       0.03087
   3     718.7        0.9994        0.0030        4.2957        4.2987       3.299293       0.02881
   2     792.3        1.0146        0.0032        4.0842        4.0873       3.072753       0.02598
   1     891.5        1.0398        0.0034        3.8261        3.8295       2.789679       0.02409
   0    1013.0        1.0808        0.0036        3.5405        3.5441       2.463353       0.02266



 Wavenumbers:  5150. -  6150. cm-1, ATM      1
 LEVEL PRESSURE   UPWARD FLUX   DIFDOWN FLUX  DIRDOWN FLUX  DOWNWARD FLUX   NET FLUX    HEATING RATE
          mb          W/m2          W/m2          W/m2        W/m2          W/m2       degree/day
  51    .06700        2.4968        0.0000       16.4735       16.4735      13.976740       0.00000
  50    .07753        2.4968        0.0000       16.4735       16.4735      13.976729       0.00842
  49    .09103        2.4968        0.0000       16.4735       16.4735      13.976715       0.00857
  48    0.1069        2.4968        0.0000       16.4735       16.4735      13.976699       0.00871
  47    0.1255        2.4968        0.0000       16.4734       16.4734      13.976679       0.00885
  46    0.1487        2.4968        0.0000       16.4734       16.4734      13.976654       0.00932
  45    0.1794        2.4968        0.0000       16.4734       16.4734      13.976618       0.00995
  44    0.2165        2.4968        0.0000       16.4733       16.4733      13.976573       0.01014
  43    0.2613        2.4968        0.0000       16.4733       16.4733      13.976518       0.01028
  42    0.3336        2.4968        0.0000       16.4732       16.4732      13.976425       0.01086
  41    0.4307        2.4968        0.0000       16.4730       16.4731      13.976297       0.01112
  40    0.5894        2.4968        0.0000       16.4728       16.4728      13.976083       0.01141
  39     1.339        2.4967        0.0000       16.4717       16.4718      13.975029       0.01187
  38     1.782        2.4967        0.0000       16.4711       16.4711      13.974401       0.01196
  37     2.292        2.4967        0.0001       16.4703       16.4704      13.973672       0.01207
  36     2.964        2.4967        0.0001       16.4693       16.4694      13.972715       0.01202
  35     3.853        2.4967        0.0001       16.4680       16.4681      13.971451       0.01200
  34     5.035        2.4967        0.0001       16.4663       16.4664      13.969775       0.01197
  33     6.613        2.4966        0.0002       16.4640       16.4642      13.967546       0.01192
  32     8.786        2.4966        0.0002       16.4609       16.4612      13.964571       0.01155
  31     11.80        2.4966        0.0003       16.4566       16.4569      13.960380       0.01173
  30     15.07        2.4965        0.0004       16.4521       16.4525      13.955970       0.01139
  29     18.79        2.4965        0.0005       16.4471       16.4476      13.951103       0.01104
  28     23.16        2.4964        0.0006       16.4413       16.4420      13.945569       0.01070
  27     28.12        2.4963        0.0007       16.4350       16.4357      13.939426       0.01044
  26     33.73        2.4963        0.0009       16.4281       16.4290      13.932757       0.01003
  25     40.54        2.4962        0.0011       16.4201       16.4212      13.925003       0.00962
  24     48.69        2.4961        0.0013       16.4109       16.4121      13.916046       0.00927
  23     57.69        2.4960        0.0015       16.4012       16.4028      13.906744       0.00872
  22     68.43        2.4959        0.0018       16.3906       16.3924      13.896454       0.00809
  21     81.20        2.4958        0.0021       16.3785       16.3807      13.884833       0.00768
  20     96.49        2.4957        0.0025       16.3647       16.3672      13.871486       0.00737
  19     114.6        2.4956        0.0030       16.3484       16.3514      13.855819       0.00732
  18     136.5        2.4955        0.0036       16.3270       16.3306      13.835112       0.00796
  17     162.9        2.4954        0.0043       16.2910       16.2952      13.799866       0.01127
  16     196.4        2.4952        0.0051       16.2180       16.2231      13.727885       0.01812
  15     218.7        2.4951        0.0057       16.1453       16.1509      13.655793       0.02737
  14     243.0        2.4951        0.0063       16.0170       16.0233      13.528222       0.04425
  13     269.0        2.4951        0.0069       15.7490       15.7559      13.260798       0.08675
  12     297.5        2.4952        0.0075       15.3565       15.3640      12.868834       0.11625
  11     328.5        2.4954        0.0080       14.9031       14.9111      12.415740       0.12319
  10     361.9        2.4958        0.0086       14.3922       14.4008      11.905035       0.12921
   9     398.1        2.4964        0.0092       13.7910       13.8001      11.303707       0.14010
   8     437.6        2.4975        0.0097       13.1143       13.1241      10.626521       0.14479
   7     480.5        2.4993        0.0102       12.3795       12.3896       9.890334       0.14458
   6     533.0        2.5026        0.0106       11.5591       11.5698       9.067208       0.13241
   5     589.8        2.5077        0.0111       10.8301       10.8412       8.333508       0.10891
   4     651.6        2.5158        0.0116       10.2147       10.2263       7.710490       0.08520
   3     718.7        2.5276        0.0122        9.7386        9.7508       7.223196       0.06124
   2     792.3        2.5437        0.0129        9.3773        9.3902       6.846499       0.04320
   1     891.5        2.5727        0.0140        9.0059        9.0199       6.447209       0.03398
   0    1013.0        2.6273        0.0152        8.6015        8.6168       5.989478       0.03178



 Wavenumbers:  6150. -  7700. cm-1, ATM      1
 LEVEL PRESSURE   UPWARD FLUX   DIFDOWN FLUX  DIRDOWN FLUX  DOWNWARD FLUX   NET FLUX    HEATING RATE
          mb          W/m2          W/m2          W/m2        W/m2          W/m2       degree/day
  51    .06700        4.0894        0.0000       30.4684       30.4684      26.378944       0.00000
  50    .07753        4.0894        0.0000       30.4684       30.4684      26.378917       0.02155
  49    .09103        4.0894        0.0000       30.4683       30.4683      26.378883       0.02146
  48    0.1069        4.0894        0.0000       30.4683       30.4683      26.378843       0.02135
  47    0.1255        4.0894        0.0000       30.4682       30.4682      26.378796       0.02124
  46    0.1487        4.0894        0.0000       30.4682       30.4682      26.378736       0.02192
  45    0.1794        4.0894        0.0000       30.4681       30.4681      26.378652       0.02295
  44    0.2165        4.0894        0.0000       30.4680       30.4680      26.378551       0.02291
  43    0.2613        4.0894        0.0000       30.4678       30.4678      26.378430       0.02284
  42    0.3336        4.0894        0.0000       30.4676       30.4676      26.378227       0.02373
  41    0.4307        4.0894        0.0000       30.4673       30.4674      26.377952       0.02387
  40    0.5894        4.0894        0.0001       30.4668       30.4669      26.377498       0.02415
  39     1.339        4.0893        0.0001       30.4645       30.4646      26.375315       0.02458
  38     1.782        4.0893        0.0002       30.4631       30.4633      26.374030       0.02446
  37     2.292        4.0892        0.0002       30.4615       30.4618      26.372548       0.02454
  36     2.964        4.0892        0.0003       30.4594       30.4598      26.370611       0.02432
  35     3.853        4.0891        0.0004       30.4567       30.4571      26.368066       0.02415
  34     5.035        4.0889        0.0006       30.4531       30.4537      26.364710       0.02397
  33     6.613        4.0888        0.0007       30.4483       30.4491      26.360270       0.02373
  32     8.786        4.0886        0.0010       30.4420       30.4430      26.354372       0.02291
  31     11.80        4.0883        0.0013       30.4331       30.4344      26.346101       0.02316
  30     15.07        4.0880        0.0017       30.4237       30.4254      26.337434       0.02238
  29     18.79        4.0876        0.0021       30.4134       30.4155      26.327897       0.02162
  28     23.16        4.0872        0.0026       30.4017       30.4042      26.317078       0.02092
  27     28.12        4.0867        0.0031       30.3887       30.3918      26.305097       0.02037
  26     33.73        4.0861        0.0037       30.3746       30.3783      26.292164       0.01944
  25     40.54        4.0855        0.0045       30.3582       30.3627      26.277216       0.01855
  24     48.69        4.0847        0.0054       30.3394       30.3447      26.260067       0.01775
  23     57.69        4.0838        0.0064       30.3197       30.3261      26.242294       0.01666
  22     68.43        4.0828        0.0076       30.2977       30.3053      26.222536       0.01553
  21     81.20        4.0815        0.0090       30.2728       30.2818      26.200292       0.01470
  20     96.49        4.0800        0.0106       30.2444       30.2551      26.175044       0.01394
  19     114.6        4.0783        0.0126       30.2116       30.2243      26.146009       0.01356
  18     136.5        4.0762        0.0150       30.1710       30.1860      26.109891       0.01389
  17     162.9        4.0737        0.0178       30.1103       30.1281      26.054433       0.01773
  16     196.4        4.0705        0.0215       29.9938       30.0152      25.944756       0.02761
  15     218.7        4.0684        0.0238       29.8777       29.9015      25.833125       0.04238
  14     243.0        4.0662        0.0263       29.6897       29.7161      25.649845       0.06357
  13     269.0        4.0640        0.0290       29.3303       29.3593      25.295301       0.11501
  12     297.5        4.0617        0.0316       28.7539       28.7855      24.723808       0.16950
  11     328.5        4.0597        0.0342       27.9778       28.0120      23.952302       0.20977
  10     361.9        4.0579        0.0367       27.0879       27.1246      23.066711       0.22406
   9     398.1        4.0568        0.0392       26.0941       26.1333      22.076473       0.23070
   8     437.6        4.0567        0.0416       24.9322       24.9738      20.917048       0.24789
   7     480.5        4.0585        0.0436       23.5908       23.6345      19.575978       0.26338
   6     533.0        4.0639        0.0457       22.0191       22.0649      18.000957       0.25337
   5     589.8        4.0746        0.0477       20.4999       20.5475      16.472954       0.22681
   4     651.6        4.0933        0.0495       19.0685       19.1179      15.024611       0.19806
   3     718.7        4.1221        0.0514       17.8089       17.8602      13.738131       0.16167
   2     792.3        4.1625        0.0535       16.7361       16.7896      12.627112       0.12742
   1     891.5        4.2377        0.0564       15.5583       15.6147      11.376975       0.10638
   0    1013.0        4.3869        0.0596       14.3345       14.3940      10.007076       0.09512



 Wavenumbers:  7700. -  8050. cm-1, ATM      1
 LEVEL PRESSURE   UPWARD FLUX   DIFDOWN FLUX  DIRDOWN FLUX  DOWNWARD FLUX   NET FLUX    HEATING RATE
          mb          W/m2          W/m2          W/m2        W/m2          W/m2       degree/day
  51    .06700        1.7263        0.0000        7.2006        7.2006       5.474263       0.00000
  50    .07753        1.7263        0.0000        7.2006        7.2006       5.474244       0.01513
  49    .09103        1.7263        0.0000        7.2005        7.2005       5.474220       0.01483
  48    0.1069        1.7263        0.0000        7.2005        7.2005       5.474193       0.01452
  47    0.1255        1.7263        0.0000        7.2005        7.2005       5.474161       0.01421
  46    0.1487        1.7263        0.0000        7.2004        7.2005       5.474122       0.01442
  45    0.1794        1.7263        0.0000        7.2004        7.2004       5.474068       0.01483
  44    0.2165        1.7263        0.0000        7.2003        7.2003       5.474004       0.01455
  43    0.2613        1.7263        0.0000        7.2003        7.2003       5.473928       0.01428
  42    0.3336        1.7263        0.0000        7.2001        7.2001       5.473803       0.01461
  41    0.4307        1.7263        0.0000        7.2000        7.2000       5.473637       0.01445
  40    0.5894        1.7264        0.0000        7.1997        7.1997       5.473365       0.01443
  39     1.339        1.7264        0.0001        7.1984        7.1985       5.472082       0.01445
  38     1.782        1.7264        0.0001        7.1977        7.1978       5.471328       0.01435
  37     2.292        1.7265        0.0001        7.1968        7.1969       5.470456       0.01444
  36     2.964        1.7265        0.0001        7.1957        7.1958       5.469311       0.01437
  35     3.853        1.7266        0.0002        7.1942        7.1944       5.467800       0.01434
  34     5.035        1.7267        0.0002        7.1922        7.1924       5.465794       0.01433
  33     6.613        1.7268        0.0003        7.1896        7.1899       5.463116       0.01431
  32     8.786        1.7269        0.0004        7.1860        7.1864       5.459514       0.01399
  31     11.80        1.7271        0.0005        7.1810        7.1815       5.454372       0.01439
  30     15.07        1.7273        0.0007        7.1755        7.1762       5.448868       0.01421
  29     18.79        1.7276        0.0008        7.1694        7.1702       5.442670       0.01405
  28     23.16        1.7279        0.0010        7.1623        7.1633       5.435457       0.01395
  27     28.12        1.7282        0.0013        7.1542        7.1554       5.427247       0.01396
  26     33.73        1.7286        0.0015        7.1452        7.1467       5.418106       0.01374
  25     40.54        1.7290        0.0018        7.1344        7.1362       5.407129       0.01362
  24     48.69        1.7296        0.0022        7.1214        7.1236       5.393994       0.01359
  23     57.69        1.7302        0.0026        7.1073        7.1099       5.379689       0.01341
  22     68.43        1.7309        0.0030        7.0907        7.0938       5.362818       0.01326
  21     81.20        1.7318        0.0036        7.0712        7.0748       5.342950       0.01313
  20     96.49        1.7329        0.0043        7.0482        7.0525       5.319600       0.01289
  19     114.6        1.7342        0.0050        7.0215        7.0265       5.292318       0.01274
  18     136.5        1.7357        0.0060        6.9903        6.9963       5.260576       0.01221
  17     162.9        1.7376        0.0071        6.9541        6.9612       5.223571       0.01183
  16     196.4        1.7401        0.0085        6.9084        6.9169       5.176800       0.01177
  15     218.7        1.7418        0.0094        6.8791        6.8885       5.146738       0.01141
  14     243.0        1.7437        0.0105        6.8478        6.8583       5.114609       0.01114
  13     269.0        1.7457        0.0115        6.8145        6.8261       5.080367       0.01111
  12     297.5        1.7480        0.0127        6.7792        6.7919       5.043913       0.01081
  11     328.5        1.7505        0.0140        6.7417        6.7556       5.005118       0.01055
  10     361.9        1.7533        0.0153        6.7019        6.7173       4.963922       0.01042
   9     398.1        1.7565        0.0168        6.6597        6.6765       4.920031       0.01023
   8     437.6        1.7600        0.0184        6.6148        6.6332       4.873226       0.01001
   7     480.5        1.7640        0.0200        6.5670        6.5870       4.823051       0.00985
   6     533.0        1.7692        0.0221        6.5080        6.5301       4.760897       0.01000
   5     589.8        1.7753        0.0243        6.4443        6.4686       4.693301       0.01003
   4     651.6        1.7823        0.0266        6.3752        6.4017       4.619447       0.01010
   3     718.7        1.7905        0.0291        6.3003        6.3294       4.538900       0.01012
   2     792.3        1.7998        0.0317        6.2198        6.2515       4.451661       0.01001
   1     891.5        1.8136        0.0352        6.1100        6.1452       4.331683       0.01021
   0    1013.0        1.8321        0.0393        5.9745        6.0138       4.181754       0.01041



 Wavenumbers:  8050. - 12850. cm-1, ATM      1
 LEVEL PRESSURE   UPWARD FLUX   DIFDOWN FLUX  DIRDOWN FLUX  DOWNWARD FLUX   NET FLUX    HEATING RATE
          mb          W/m2          W/m2          W/m2        W/m2          W/m2       degree/day
  51    .06700       25.1411        0.0000      100.8135      100.8135      75.672461       0.00000
  50    .07753       25.1410        0.0000      100.8135      100.8135      75.672461       0.00000
  49    .09103       25.1410        0.0001      100.8134      100.8135      75.672461       0.00000
  48    0.1069       25.1410        0.0001      100.8134      100.8134      75.672461       0.00000
  47    0.1255       25.1410        0.0001      100.8133      100.8134      75.672461       0.00000
  46    0.1487       25.1409        0.0002      100.8132      100.8134      75.672461      -0.00000
  45    0.1794       25.1409        0.0002      100.8131      100.8133      75.672461       0.00000
  44    0.2165       25.1408        0.0003      100.8129      100.8133      75.672461       0.00000
  43    0.2613       25.1407        0.0004      100.8127      100.8132      75.672461       0.00000
  42    0.3336       25.1406        0.0006      100.8125      100.8130      75.672461      -0.00000
  41    0.4307       25.1404        0.0008      100.8121      100.8129      75.672461       0.00000
  40    0.5894       25.1401        0.0012      100.8115      100.8126      75.672461      -0.00000
  39     1.339       25.1388        0.0028      100.8085      100.8113      75.672461       0.00000
  38     1.782       25.1381        0.0038      100.8068      100.8105      75.672461       0.00000
  37     2.292       25.1372        0.0049      100.8047      100.8096      75.672461      -0.00000
  36     2.964       25.1360        0.0064      100.8021      100.8085      75.672461       0.00000
  35     3.853       25.1345        0.0083      100.7986      100.8069      75.672461      -0.00000
  34     5.035       25.1324        0.0109      100.7940      100.8049      75.672461       0.00000
  33     6.613       25.1297        0.0144      100.7878      100.8021      75.672461      -0.00000
  32     8.786       25.1260        0.0190      100.7794      100.7984      75.672461      -0.00000
  31     11.80       25.1207        0.0257      100.7674      100.7931      75.672461       0.00000
  30     15.07       25.1150        0.0329      100.7546      100.7874      75.672461       0.00000
  29     18.79       25.1085        0.0410      100.7400      100.7810      75.672461       0.00000
  28     23.16       25.1010        0.0505      100.7230      100.7735      75.672461       0.00000
  27     28.12       25.0924        0.0613      100.7035      100.7648      75.672461      -0.00000
  26     33.73       25.0827        0.0735      100.6817      100.7552      75.672461       0.00000
  25     40.54       25.0710        0.0882      100.6552      100.7435      75.672461      -0.00000
  24     48.69       25.0569        0.1060      100.6234      100.7294      75.672461       0.00000
  23     57.69       25.0414        0.1256      100.5883      100.7138      75.672461      -0.00000
  22     68.43       25.0229        0.1489      100.5464      100.6953      75.672461       0.00000
  21     81.20       25.0008        0.1767      100.4965      100.6732      75.672461       0.00000
  20     96.49       24.9744        0.2099      100.4370      100.6468      75.672461       0.00000
  19     114.6       24.9430        0.2493      100.3638      100.6132      75.670141       0.00108
  18     136.5       24.9058        0.2962      100.2763      100.5725      75.666779       0.00129
  17     162.9       24.8613        0.3521      100.1691      100.5212      75.659875       0.00221
  16     196.4       24.8035        0.4247      100.0197      100.4444      75.640907       0.00477
  15     218.7       24.7655        0.4725       99.9087      100.3812      75.615682       0.00958
  14     243.0       24.7242        0.5245       99.7620      100.2865      75.562279       0.01852
  13     269.0       24.6798        0.5807       99.5364      100.1171      75.437334       0.04053
  12     297.5       24.6322        0.6413       99.2144       99.8557      75.223433       0.06344
  11     328.5       24.5819        0.7065       98.7879       99.4944      74.912555       0.08453
  10     361.9       24.5292        0.7764       98.2583       99.0348      74.505531       0.10298
   9     398.1       24.4749        0.8512       97.6043       98.4555      73.980515       0.12232
   8     437.6       24.4205        0.9306       96.7686       97.6992      73.278680       0.15006
   7     480.5       24.3689        1.0144       95.6730       96.6873      72.318377       0.18860
   6     533.0       24.3167        1.1152       94.1324       95.2477      70.930943       0.22319
   5     589.8       24.2771        1.2212       92.3039       93.5251      69.248031       0.24980
   4     651.6       24.2587        1.3317       90.1958       91.5275      67.268855       0.27066
   3     718.7       24.2663        1.4473       87.9660       89.4134      65.147046       0.26665
   2     792.3       24.3036        1.5687       85.7380       87.3068      63.003151       0.24588
   1     891.5       24.4139        1.7284       82.8773       84.6057      60.191821       0.23923
   0    1013.0       24.6978        1.9111       79.4054       81.3165      56.618724       0.24810



 Wavenumbers: 12850. - 16000. cm-1, ATM      1
 LEVEL PRESSURE   UPWARD FLUX   DIFDOWN FLUX  DIRDOWN FLUX  DOWNWARD FLUX   NET FLUX    HEATING RATE
          mb          W/m2          W/m2          W/m2        W/m2          W/m2       degree/day
  51    .06700       32.6818        0.0000       63.1686       63.1686      30.486737       0.00000
  50    .07753       32.6818        0.0001       63.1677       63.1678      30.485957       0.62472
  49    .09103       32.6818        0.0001       63.1666       63.1668      30.484986       0.60711
  48    0.1069       32.6817        0.0002       63.1654       63.1656      30.483880       0.58870
  47    0.1255       32.6817        0.0003       63.1640       63.1643      30.482622       0.57021
  46    0.1487       32.6817        0.0004       63.1623       63.1627      30.481054       0.57175
  45    0.1794       32.6816        0.0006       63.1600       63.1606      30.478951       0.57738
  44    0.2165       32.6815        0.0008       63.1573       63.1581      30.476519       0.55322
  43    0.2613       32.6815        0.0010       63.1542       63.1552      30.473714       0.52869
  42    0.3336       32.6814        0.0014       63.1493       63.1507      30.469246       0.52094
  41    0.4307       32.6813        0.0019       63.1431       63.1450      30.463659       0.48576
  40    0.5894       32.6813        0.0027       63.1338       63.1365      30.455199       0.44988
  39     1.339       32.6824        0.0065       63.0956       63.1021      30.419717       0.39946
  38     1.782       32.6839        0.0088       63.0740       63.0828      30.398869       0.39692
  37     2.292       32.6866        0.0114       63.0477       63.0590      30.372451       0.43755
  36     2.964       32.6914        0.0148       63.0095       63.0243      30.332914       0.49631
  35     3.853       32.6996        0.0193       62.9533       62.9725      30.272927       0.56928
  34     5.035       32.7124        0.0253       62.8725       62.8978      30.185395       0.62529
  33     6.613       32.7304        0.0332       62.7621       62.7953      30.064950       0.64390
  32     8.786       32.7536        0.0440       62.6183       62.6622      29.908612       0.60716
  31     11.80       32.7833        0.0593       62.4284       62.4877      29.704398       0.57174
  30     15.07       32.8109        0.0757       62.2426       62.3183      29.507447       0.50849
  29     18.79       32.8383        0.0942       62.0493       62.1435      29.305236       0.45848
  28     23.16       32.8659        0.1157       61.8425       61.9582      29.092312       0.41172
  27     28.12       32.8923        0.1403       61.6278       61.7681      28.875782       0.36809
  26     33.73       32.9147        0.1677       61.4177       61.5854      28.670764       0.30825
  25     40.54       32.9332        0.2009       61.1983       61.3992      28.465982       0.25406
  24     48.69       32.9473        0.2407       60.9680       61.2087      28.261391       0.21172
  23     57.69       32.9549        0.2844       60.7478       61.0322      28.077340       0.17252
  22     68.43       32.9553        0.3364       60.5202       60.8566      27.901291       0.13840
  21     81.20       32.9441        0.3983       60.2939       60.6922      27.748094       0.10123
  20     96.49       32.9198        0.4721       60.0643       60.5364      27.616553       0.07260
  19     114.6       32.8899        0.5600       59.8079       60.3679      27.477978       0.06470
  18     136.5       32.8499        0.6640       59.5159       60.1799      27.330066       0.05688
  17     162.9       32.7980        0.7876       59.1775       59.9651      27.167049       0.05211
  16     196.4       32.7219        0.9473       58.7615       59.7088      26.986945       0.04533
  15     218.7       32.6687        1.0520       58.4968       59.5488      26.880054       0.04058
  14     243.0       32.6095        1.1655       58.2128       59.3783      26.768768       0.03860
  13     269.0       32.5440        1.2881       57.9094       59.1976      26.653551       0.03738
  12     297.5       32.4721        1.4204       57.5854       59.0058      26.533617       0.03557
  11     328.5       32.3943        1.5629       57.2365       58.7994      26.405128       0.03494
  10     361.9       32.3106        1.7159       56.8607       58.5766      26.266065       0.03518
   9     398.1       32.2210        1.8800       56.4552       58.3352      26.114211       0.03538
   8     437.6       32.1262        2.0556       56.0149       58.0704      25.944278       0.03633
   7     480.5       32.0270        2.2430       55.5327       57.7757      25.748667       0.03842
   6     533.0       31.9093        2.4724       54.9239       57.3963      25.486974       0.04210
   5     589.8       31.7891        2.7179       54.2494       56.9674      25.178276       0.04582
   4     651.6       31.6693        2.9797       53.5035       56.4831      24.813803       0.04984
   3     718.7       31.5513        3.2579       52.6934       55.9513      24.400023       0.05200
   2     792.3       31.4364        3.5525       51.8310       55.3835      23.947134       0.05194
   1     891.5       31.3042        3.9446       50.6759       54.6205      23.316244       0.05369
   0    1013.0       31.1946        4.4062       49.2837       53.6899      22.495221       0.05701



 Wavenumbers: 16000. - 22650. cm-1, ATM      1
 LEVEL PRESSURE   UPWARD FLUX   DIFDOWN FLUX  DIRDOWN FLUX  DOWNWARD FLUX   NET FLUX    HEATING RATE
          mb          W/m2          W/m2          W/m2        W/m2          W/m2       degree/day
  51    .06700       74.0014        0.0000      100.7153      100.7153      26.713904       0.00000
  50    .07753       74.0013        0.0003      100.7147      100.7151      26.713788       0.09348
  49    .09103       74.0011        0.0007      100.7140      100.7147      26.713618       0.10603
  48    0.1069       74.0009        0.0012      100.7131      100.7143      26.713391       0.12091
  47    0.1255       74.0008        0.0017      100.7121      100.7138      26.713087       0.13782
  46    0.1487       74.0005        0.0024      100.7108      100.7132      26.712639       0.16331
  45    0.1794       74.0003        0.0033      100.7089      100.7122      26.711938       0.19228
  44    0.2165       74.0000        0.0044      100.7066      100.7110      26.710988       0.21610
  43    0.2613       73.9997        0.0057      100.7037      100.7094      26.709699       0.24295
  42    0.3336       73.9993        0.0079      100.6987      100.7066      26.707249       0.28570
  41    0.4307       73.9990        0.0108      100.6918      100.7025      26.703555       0.32115
  40    0.5894       73.9986        0.0154      100.6797      100.6952      26.696511       0.37459
  39     1.339       74.0025        0.0375      100.6095      100.6470      26.644480       0.58578
  38     1.782       74.0087        0.0504      100.5585      100.6089      26.600170       0.84360
  37     2.292       74.0196        0.0654      100.4903      100.5557      26.536050       1.06198
  36     2.964       74.0396        0.0851      100.3868      100.4719      26.432226       1.30331
  35     3.853       74.0740        0.1110      100.2306      100.3416      26.267603       1.56230
  34     5.035       74.1276        0.1455      100.0045      100.1499      26.022269       1.75256
  33     6.613       74.2033        0.1913       99.6939       99.8852      25.681860       1.81983
  32     8.786       74.3012        0.2530       99.2881       99.5411      25.239837       1.71666
  31     11.80       74.4258        0.3409       98.7496       99.0905      24.664693       1.61022
  30     15.07       74.5417        0.4350       98.2198       98.6548      24.113127       1.42404
  29     18.79       74.6565        0.5409       97.6651       98.2060      23.549575       1.27775
  28     23.16       74.7719        0.6641       97.0671       97.7313      22.959361       1.14128
  27     28.12       74.8822        0.8045       96.4406       97.2451      22.362838       1.01405
  26     33.73       74.9745        0.9610       95.8179       96.7789      21.804452       0.83955
  25     40.54       75.0499        1.1495       95.1548       96.3044      21.254472       0.68231
  24     48.69       75.1059        1.3759       94.4420       95.8178      20.711941       0.56143
  23     57.69       75.1337        1.6234       93.7416       95.3651      20.231306       0.45052
  22     68.43       75.1307        1.9171       92.9954       94.9124      19.781712       0.35344
  21     81.20       75.0775        2.2655       92.2231       94.4887      19.411109       0.24489
  20     96.49       74.9685        2.6788       91.4110       94.0898      19.121288       0.15996
  19     114.6       74.8162        3.1660       90.5070       93.6730      18.856794       0.12350
  18     136.5       74.6213        3.7386       89.4803       93.2189      18.597608       0.09966
  17     162.9       74.3768        4.4136       88.3023       92.7159      18.339120       0.08262
  16     196.4       74.0316        5.2786       86.8608       92.1395      18.107854       0.05821
  15     218.7       73.7955        5.8405       85.9495       91.7900      17.994526       0.04303
  14     243.0       73.5353        6.4455       84.9796       91.4252      17.889836       0.03631
  13     269.0       73.2500        7.0948       83.9508       91.0456      17.795625       0.03056
  12     297.5       72.9386        7.7888       82.8622       90.6510      17.712370       0.02469
  11     328.5       72.6025        8.5302       81.7044       90.2346      17.632166       0.02181
  10     361.9       72.2413        9.3185       80.4780       89.7965      17.555183       0.01948
   9     398.1       71.8542       10.1555       79.1797       89.3352      17.481043       0.01727
   8     437.6       71.4411       11.0416       77.8074       88.8490      17.407860       0.01565
   7     480.5       71.0019       11.9768       76.3603       88.3371      17.335165       0.01428
   6     533.0       70.4668       13.1078       74.6101       87.7178      17.250982       0.01354
   5     589.8       69.8981       14.3023       72.7587       87.0610      17.162958       0.01307
   4     651.6       69.2966       15.5585       70.8067       86.3652      17.068610       0.01290
   3     718.7       68.6624       16.8744       68.7564       85.6308      16.968403       0.01259
   2     792.3       67.9970       18.2454       66.6140       84.8594      16.862465       0.01215
   1     891.5       67.1222       20.0349       63.8045       83.8394      16.717181       0.01236
   0    1013.0       66.1085       22.0924       60.5495       82.6419      16.533371       0.01276



 Wavenumbers: 22650. - 29000. cm-1, ATM      1
 LEVEL PRESSURE   UPWARD FLUX   DIFDOWN FLUX  DIRDOWN FLUX  DOWNWARD FLUX   NET FLUX    HEATING RATE
          mb          W/m2          W/m2          W/m2        W/m2          W/m2       degree/day
  51    .06700       32.0539        0.0000       38.0063       38.0063       5.952386       0.00000
  50    .07753       32.0537        0.0004       38.0057       38.0061       5.952386      -0.00000
  49    .09103       32.0535        0.0009       38.0050       38.0059       5.952386       0.00000
  48    0.1069       32.0533        0.0014       38.0042       38.0056       5.952386       0.00000
  47    0.1255       32.0530        0.0020       38.0033       38.0054       5.952386      -0.00000
  46    0.1487       32.0526        0.0028       38.0022       38.0050       5.952386       0.00000
  45    0.1794       32.0521        0.0039       38.0006       38.0045       5.952386      -0.00000
  44    0.2165       32.0515        0.0052       37.9987       38.0039       5.952386      -0.00000
  43    0.2613       32.0508        0.0067       37.9965       38.0032       5.952386       0.00000
  42    0.3336       32.0497        0.0092       37.9928       38.0021       5.952386       0.00000
  41    0.4307       32.0481        0.0125       37.9880       38.0005       5.952386       0.00000
  40    0.5894       32.0456        0.0180       37.9800       37.9980       5.952386      -0.00000
  39     1.339       32.0338        0.0437       37.9425       37.9862       5.952386       0.00000
  38     1.782       32.0269        0.0588       37.9204       37.9793       5.952386      -0.00000
  37     2.292       32.0189        0.0763       37.8949       37.9712       5.952386      -0.00000
  36     2.964       32.0083        0.0993       37.8614       37.9607       5.952386       0.00000
  35     3.853       31.9944        0.1295       37.8172       37.9468       5.952386      -0.00000
  34     5.035       31.9759        0.1697       37.7586       37.9283       5.952386      -0.00000
  33     6.613       31.9513        0.2234       37.6803       37.9037       5.952386      -0.00000
  32     8.786       31.9181        0.2955       37.5750       37.8705       5.952386       0.00000
  31     11.80       31.8708        0.3983       37.4249       37.8232       5.952386       0.00000
  30     15.07       31.8201        0.5083       37.2642       37.7725       5.952386      -0.00000
  29     18.79       31.7631        0.6321       37.0833       37.7154       5.952386      -0.00000
  28     23.16       31.6967        0.7760       36.8730       37.6491       5.952386      -0.00000
  27     28.12       31.6211        0.9397       36.6338       37.5735       5.952386       0.00000
  26     33.73       31.5370        1.1216       36.3677       37.4893       5.952386       0.00000
  25     40.54       31.4360        1.3398       36.0486       37.3883       5.952386       0.00000
  24     48.69       31.3151        1.6003       35.6672       37.2675       5.952386      -0.00000
  23     57.69       31.1836        1.8833       35.2527       37.1360       5.952386       0.00000
  22     68.43       31.0286        2.2160       34.7649       36.9809       5.952386       0.00000
  21     81.20       30.8462        2.6063       34.1922       36.7986       5.952386       0.00000
  20     96.49       30.6321        3.0628       33.5218       36.5845       5.952386       0.00000
  19     114.6       30.3826        3.5927       32.7424       36.3350       5.952386      -0.00000
  18     136.5       30.0933        4.2041       31.8416       36.0457       5.952386       0.00000
  17     162.9       29.7575        4.9091       30.8008       35.7099       5.952386      -0.00000
  16     196.4       29.3358        5.7874       29.5007       35.2881       5.952386       0.00000
  15     218.7       29.0671        6.3427       28.6768       35.0194       5.952386       0.00000
  14     243.0       28.7821        6.9276       27.8069       34.7345       5.952386       0.00000
  13     269.0       28.4813        7.5402       26.8935       34.4337       5.952386       0.00000
  12     297.5       28.1655        8.1782       25.9397       34.1179       5.952386      -0.00000
  11     328.5       27.8343        8.8409       24.9458       33.7867       5.952386       0.00000
  10     361.9       27.4891        9.5243       23.9172       33.4415       5.952386      -0.00000
   9     398.1       27.1302       10.2267       22.8559       33.0825       5.952386       0.00000
   8     437.6       26.7588       10.9435       21.7677       32.7112       5.952386       0.00000
   7     480.5       26.3758       11.6716       20.6565       32.3282       5.952386      -0.00000
   6     533.0       25.9249       12.5131       19.3641       31.8773       5.952386       0.00000
   5     589.8       25.4625       13.3566       18.0583       31.4149       5.952386      -0.00000
   4     651.6       24.9907       14.1952       16.7479       30.9431       5.952386       0.00000
   3     718.7       24.5116       15.0215       15.4425       30.4640       5.952386       0.00000
   2     792.3       24.0279       15.8271       14.1532       29.9803       5.952386       0.00000
   1     891.5       23.4194       16.7943       12.5775       29.3717       5.952386       0.00000
   0    1013.0       22.7485       17.7916       10.9093       28.7009       5.952386      -0.00000



 Wavenumbers: 29000. - 38000. cm-1, ATM      1
 LEVEL PRESSURE   UPWARD FLUX   DIFDOWN FLUX  DIRDOWN FLUX  DOWNWARD FLUX   NET FLUX    HEATING RATE
          mb          W/m2          W/m2          W/m2        W/m2          W/m2       degree/day
  51    .06700        4.7042        0.0000       13.4026       13.4026       8.698434       0.00000
  50    .07753        4.7039        0.0003       13.3983       13.3986       8.694636       3.04421
  49    .09103        4.7037        0.0007       13.3921       13.3928       8.689117       3.44947
  48    0.1069        4.7034        0.0011       13.3840       13.3851       8.681741       3.92653
  47    0.1255        4.7030        0.0016       13.3733       13.3749       8.671896       4.46291
  46    0.1487        4.7026        0.0022       13.3579       13.3600       8.657455       5.26406
  45    0.1794        4.7020        0.0030       13.3340       13.3371       8.635057       6.14888
  44    0.2165        4.7013        0.0040       13.3024       13.3064       8.605040       6.82832
  43    0.2613        4.7006        0.0051       13.2604       13.2655       8.564988       7.54960
  42    0.3336        4.6993        0.0070       13.1833       13.1903       8.490987       8.62781
  41    0.4307        4.6977        0.0095       13.0729       13.0824       8.384623       9.24810
  40    0.5894        4.6953        0.0133       12.8796       12.8929       8.197596       9.94587
  39     1.339        4.6867        0.0295       11.9165       11.9460       7.259379      10.56262
  38     1.782        4.6832        0.0378       11.4399       11.4777       6.794501       8.85052
  37     2.292        4.6805        0.0466       10.9796       11.0262       6.345714       7.43308
  36     2.964        4.6788        0.0574       10.4786       10.5361       5.857313       6.13091
  35     3.853        4.6789        0.0708        9.9429       10.0137       5.334810       4.95865
  34     5.035        4.6816        0.0875        9.4007        9.4882       4.806596       3.77334
  33     6.613        4.6870        0.1087        8.8752        8.9839       4.296914       2.72476
  32     8.786        4.6944        0.1359        8.3786        8.5145       3.820097       1.85178
  31     11.80        4.7034        0.1734        7.8897        8.0630       3.359636       1.28915
  30     15.07        4.7109        0.2120        7.5108        7.7228       3.011878       0.89784
  29     18.79        4.7177        0.2540        7.1776        7.4317       2.713996       0.67539
  28     23.16        4.7235        0.3014        6.8664        7.1678       2.444306       0.52149
  27     28.12        4.7277        0.3537        6.5780        6.9317       2.204000       0.40850
  26     33.73        4.7280        0.4106        6.3195        6.7301       2.002163       0.30347
  25     40.54        4.7229        0.4778        6.0663        6.5441       1.821156       0.22456
  24     48.69        4.7120        0.5565        5.8128        6.3693       1.657290       0.16958
  23     57.69        4.6954        0.6404        5.5777        6.2181       1.522653       0.12620
  22     68.43        4.6707        0.7375        5.3379        6.0753       1.404646       0.09277
  21     81.20        4.6336        0.8500        5.0965        5.9465       1.312862       0.06065
  20     96.49        4.5830        0.9799        4.8476        5.8276       1.244565       0.03770
  19     114.6        4.5217        1.1270        4.5799        5.7069       1.185163       0.02774
  18     136.5        4.4507        1.2911        4.2891        5.5802       1.129537       0.02139
  17     162.9        4.3695        1.4729        3.9732        5.4461       1.076564       0.01693
  16     196.4        4.2668        1.6901        3.6080        5.2982       1.031343       0.01138
  15     218.7        4.2020        1.8221        3.3898        5.2119       1.009841       0.00816
  14     243.0        4.1346        1.9564        3.1686        5.1249       0.990356       0.00676
  13     269.0        4.0647        2.0918        2.9461        5.0379       0.973189       0.00557
  12     297.5        3.9928        2.2272        2.7239        4.9512       0.958355       0.00440
  11     328.5        3.9197        2.3613        2.5029        4.8641       0.944439       0.00378
  10     361.9        3.8458        2.4925        2.2848        4.7773       0.931471       0.00328
   9     398.1        3.7714        2.6199        2.0710        4.6909       0.919427       0.00281
   8     437.6        3.6972        2.7419        1.8633        4.6052       0.908057       0.00243
   7     480.5        3.6233        2.8575        1.6632        4.5208       0.897484       0.00208
   6     533.0        3.5396        2.9807        1.4452        4.4258       0.886210       0.00181
   5     589.8        3.4576        3.0920        1.2411        4.3332       0.875544       0.00158
   4     651.6        3.3775        3.1905        1.0524        4.2429       0.865341       0.00140
   3     718.7        3.2998        3.2749        0.8805        4.1553       0.855566       0.00123
   2     792.3        3.2246        3.3442        0.7266        4.0708       0.846201       0.00107
   1     891.5        3.1339        3.4095        0.5593        3.9688       0.834910       0.00096
   0    1013.0        3.0381        3.4539        0.4070        3.8609       0.822777       0.00084



 Wavenumbers: 38000. - 50000. cm-1, ATM      1
 LEVEL PRESSURE   UPWARD FLUX   DIFDOWN FLUX  DIRDOWN FLUX  DOWNWARD FLUX   NET FLUX    HEATING RATE
          mb          W/m2          W/m2          W/m2        W/m2          W/m2       degree/day
  51    .06700        0.0051        0.0000        0.8267        0.8267       0.821528       0.00000
  50    .07753        0.0051        0.0001        0.8242        0.8243       0.819196       1.86936
  49    .09103        0.0050        0.0002        0.8207        0.8209       0.815873       2.07705
  48    0.1069        0.0049        0.0002        0.8162        0.8164       0.811514       2.31984
  47    0.1255        0.0048        0.0004        0.8103        0.8106       0.805801       2.59006
  46    0.1487        0.0047        0.0005        0.8018        0.8023       0.797567       3.00143
  45    0.1794        0.0045        0.0007        0.7889        0.7896       0.785013       3.44648
  44    0.2165        0.0044        0.0009        0.7720        0.7729       0.768507       3.75474
  43    0.2613        0.0042        0.0011        0.7500        0.7511       0.746955       4.06246
  42    0.3336        0.0039        0.0015        0.7106        0.7121       0.708267       4.51071
  41    0.4307        0.0035        0.0019        0.6566        0.6584       0.654972       4.63387
  40    0.5894        0.0029        0.0024        0.5680        0.5704       0.567464       4.65357
  39     1.339        0.0015        0.0030        0.2422        0.2452       0.243720       3.64476
  38     1.782        0.0010        0.0026        0.1493        0.1519       0.150889       1.76735
  37     2.292        0.0007        0.0022        0.0924        0.0946       0.093932       0.94336
  36     2.964        0.0005        0.0018        0.0539        0.0557       0.055224       0.48589
  35     3.853        0.0003        0.0013        0.0295        0.0308       0.030502       0.23462
  34     5.035        0.0002        0.0010        0.0154        0.0164       0.016181       0.10230
  33     6.613        0.0001        0.0007        0.0073        0.0080       0.007912       0.04420
  32     8.786        0.0000        0.0004        0.0030        0.0034       0.003390       0.01756
  31     11.80        0.0000        0.0003        0.0010        0.0012       0.001199       0.00613
  30     15.07        0.0000        0.0001        0.0003        0.0005       0.000463       0.00190
  29     18.79        0.0000        0.0001        0.0001        0.0002       0.000182       0.00064
  28     23.16        0.0000        0.0000        0.0000        0.0001       0.000071       0.00022
  27     28.12        0.0000        0.0000        0.0000        0.0000       0.000028       0.00007
  26     33.73        0.0000        0.0000        0.0000        0.0000       0.000011       0.00002
  25     40.54        0.0000        0.0000        0.0000        0.0000       0.000005       0.00001
  24     48.69        0.0000        0.0000        0.0000        0.0000       0.000002       0.00000
  23     57.69        0.0000        0.0000        0.0000        0.0000       0.000001       0.00000
  22     68.43        0.0000        0.0000        0.0000        0.0000       0.000000       0.00000
  21     81.20        0.0000        0.0000        0.0000        0.0000       0.000000       0.00000
  20     96.49        0.0000        0.0000        0.0000        0.0000       0.000000       0.00000
  19     114.6        0.0000        0.0000        0.0000        0.0000       0.000000       0.00000
  18     136.5        0.0000        0.0000        0.0000        0.0000       0.000000       0.00000
  17     162.9        0.0000        0.0000        0.0000        0.0000       0.000000       0.00000
  16     196.4        0.0000        0.0000        0.0000        0.0000       0.000000       0.00000
  15     218.7        0.0000        0.0000        0.0000        0.0000       0.000000       0.00000
  14     243.0        0.0000        0.0000        0.0000        0.0000       0.000000       0.00000
  13     269.0        0.0000        0.0000        0.0000        0.0000       0.000000       0.00000
  12     297.5        0.0000        0.0000        0.0000        0.0000       0.000000       0.00000
  11     328.5        0.0000        0.0000        0.0000        0.0000       0.000000       0.00000
  10     361.9        0.0000        0.0000        0.0000        0.0000       0.000000       0.00000
   9     398.1        0.0000        0.0000        0.0000        0.0000       0.000000       0.00000
   8     437.6        0.0000        0.0000        0.0000        0.0000       0.000000       0.00000
   7     480.5        0.0000        0.0000        0.0000        0.0000       0.000000       0.00000
   6     533.0        0.0000        0.0000        0.0000        0.0000       0.000000       0.00000
   5     589.8        0.0000        0.0000        0.0000        0.0000       0.000000       0.00000
   4     651.6        0.0000        0.0000        0.0000        0.0000       0.000000       0.00000
   3     718.7        0.0000        0.0000        0.0000        0.0000       0.000000       0.00000
   2     792.3        0.0000        0.0000        0.0000        0.0000       0.000000       0.00000
   1     891.5        0.0000        0.0000        0.0000        0.0000       0.000000       0.00000
   0    1013.0        0.0000        0.0000        0.0000        0.0000       0.000000       0.00000



 Wavenumbers:   820. -  2600. cm-1, ATM      1
 LEVEL PRESSURE   UPWARD FLUX   DIFDOWN FLUX  DIRDOWN FLUX  DOWNWARD FLUX   NET FLUX    HEATING RATE
          mb          W/m2          W/m2          W/m2        W/m2          W/m2       degree/day
  51    .06700        0.3879        0.0000        3.8670        3.8670       3.479082       0.00000
  50    .07753        0.3879        0.0000        3.8643        3.8643       3.476410       2.14171
  49    .09103        0.3879        0.0000        3.8636        3.8636       3.475659       0.46972
  48    0.1069        0.3879        0.0000        3.8628        3.8628       3.474838       0.43682
  47    0.1255        0.3879        0.0000        3.8619        3.8619       3.473961       0.39765
  46    0.1487        0.3879        0.0000        3.8609        3.8609       3.472961       0.36437
  45    0.1794        0.3879        0.0000        3.8597        3.8597       3.471782       0.32372
  44    0.2165        0.3879        0.0000        3.8585        3.8585       3.470596       0.26988
  43    0.2613        0.3879        0.0000        3.8573        3.8573       3.469370       0.23108
  42    0.3336        0.3879        0.0000        3.8555        3.8555       3.467538       0.21356
  41    0.4307        0.3879        0.0000        3.8531        3.8531       3.465202       0.20309
  40    0.5894        0.3879        0.0000        3.8493        3.8493       3.461386       0.20294
  39     1.339        0.3879        0.0000        3.8322        3.8322       3.444305       0.19230
  38     1.782        0.3879        0.0000        3.8228        3.8228       3.434876       0.17952
  37     2.292        0.3879        0.0000        3.8123        3.8123       3.424405       0.17343
  36     2.964        0.3879        0.0000        3.7993        3.7993       3.411360       0.16375
  35     3.853        0.3879        0.0000        3.7829        3.7829       3.395007       0.15520
  34     5.035        0.3879        0.0000        3.7620        3.7620       3.374078       0.14950
  33     6.613        0.3879        0.0000        3.7349        3.7349       3.346915       0.14522
  32     8.786        0.3879        0.0000        3.7008        3.7008       3.312881       0.13217
  31     11.80        0.3879        0.0000        3.6614        3.6614       3.273434       0.11044
  30     15.07        0.3879        0.0000        3.6319        3.6319       3.243987       0.07603
  29     18.79        0.3880        0.0000        3.6104        3.6104       3.222429       0.04888
  28     23.16        0.3880        0.0000        3.5934        3.5934       3.205464       0.03281
  27     28.12        0.3880        0.0000        3.5778        3.5778       3.189851       0.02654
  26     33.73        0.3880        0.0000        3.5614        3.5614       3.173426       0.02470
  25     40.54        0.3880        0.0000        3.5418        3.5418       3.153835       0.02430
  24     48.69        0.3880        0.0000        3.5183        3.5183       3.130337       0.02432
  23     57.69        0.3880        0.0000        3.4928        3.4928       3.104776       0.02396
  22     68.43        0.3880        0.0000        3.4629        3.4629       3.074902       0.02348
  21     81.20        0.3880        0.0000        3.4289        3.4290       3.040921       0.02245
  20     96.49        0.3881        0.0000        3.3905        3.3906       3.002495       0.02121
  19     114.6        0.3881        0.0000        3.3478        3.3478       2.959697       0.01998
  18     136.5        0.3881        0.0000        3.3000        3.3000       2.911892       0.01838
  17     162.9        0.3882        0.0000        3.2428        3.2428       2.854650       0.01830
  16     196.4        0.3883        0.0000        3.1651        3.1652       2.776864       0.01958
  15     218.7        0.3884        0.0000        3.1149        3.1149       2.726548       0.01910
  14     243.0        0.3885        0.0000        3.0534        3.0535       2.664984       0.02135
  13     269.0        0.3886        0.0000        2.9708        2.9708       2.582192       0.02686
  12     297.5        0.3889        0.0000        2.8740        2.8741       2.485189       0.02877
  11     328.5        0.3893        0.0000        2.7566        2.7566       2.367338       0.03204
  10     361.9        0.3898        0.0000        2.6047        2.6048       2.214996       0.03854
   9     398.1        0.3905        0.0000        2.4282        2.4283       2.037808       0.04128
   8     437.6        0.3914        0.0000        2.2523        2.2523       1.860940       0.03782
   7     480.5        0.3926        0.0000        2.1064        2.1064       1.713864       0.02889
   6     533.0        0.3944        0.0000        1.9945        1.9945       1.600095       0.01830
   5     589.8        0.3968        0.0000        1.9036        1.9037       1.506808       0.01385
   4     651.6        0.4002        0.0000        1.8068        1.8068       1.406579       0.01371
   3     718.7        0.4045        0.0000        1.7101        1.7102       1.305661       0.01268
   2     792.3        0.4097        0.0001        1.6229        1.6229       1.213203       0.01060
   1     891.5        0.4182        0.0001        1.5258        1.5258       1.107661       0.00898
   0    1013.0        0.4330        0.0001        1.4196        1.4196       0.986637       0.00840

  Modules and versions used in this calculation:

       rrtmg_sw.1col.f90:  $Revision$                    rrtmg_sw_init.f90:  $Revision$        
     rrtmgsw_cldprop.f90:  $Revision$                  rrtmgsw_cldprmc.f90:  NOT USED          
     rrtmg_sw_reftra.f90:  $Revision$                  rrtmg_sw_spcvrt.f90:  NOT USED          
     rrtmg_sw_spcvmc.f90:  NOT USED                    rrtmgsw_setcoef.f90:  NOT USED          
     rrtmg_sw_taumol.f90:  $Revision$                  rrtmg_sw_vrtqdr.f90:  NOT USED          
                rrtatm.f:  NOT USED                             util_xxx.f:  NOT USED          
                 extra.f:  NOT USED                       rrtmg_sw_k_g.f90:  $Revision$        

