

 Wavenumbers:   820. - 50000. cm-1, ATM      1
 LEVEL PRESSURE   UPWARD FLUX   DIFDOWN FLUX  DIRDOWN FLUX  DOWNWARD FLUX   NET FLUX    HEATING RATE
          mb          W/m2          W/m2          W/m2        W/m2          W/m2       degree/day
  60   .000300       37.8001        0.0000      236.3090      236.3090     198.508848       0.00000
  59    0.1000       37.7926        0.0090      236.2160      236.2250     198.432414       6.46976
  58    0.1403       37.7896        0.0126      236.1638      236.1764     198.386789       9.55427
  57    0.1968       37.7855        0.0177      236.0782      236.0959     198.310364      11.41526
  56    0.2760       37.7799        0.0246      235.9427      235.9673     198.187455      13.09652
  55    0.3871       37.7722        0.0342      235.7418      235.7760     198.003826      13.94845
  54    0.5430       37.7617        0.0473      235.4609      235.5082     197.746457      13.93184
  53    0.7617       37.7477        0.0650      235.0841      235.1490     197.401369      13.31617
  52     1.069       37.7290        0.0890      234.6254      234.7144     196.985399      11.44210
  51     1.499       37.7046        0.1213      234.1152      234.2364     196.531884       8.89443
  50     2.102       37.6733        0.1649      233.5346      233.6995     196.026139       7.07100
  49     2.949       37.6332        0.2257      232.8257      233.0514     195.418157       6.06054
  48     4.137       37.5825        0.3095      231.9665      232.2760     194.693512       5.14936
  47     5.803       37.5162        0.4248      230.9442      231.3690     193.852804       4.25888
  46     8.139       37.4248        0.5838      229.7473      230.3312     192.906390       3.41803
  45     11.42       37.2939        0.8030      228.3495      229.1525     191.858623       2.69762
  44     16.01       37.1061        1.1042      226.6916      227.7958     190.689696       2.14558
  43     22.46       36.8369        1.5171      224.6996      226.2167     189.379829       1.71401
  42     31.51       36.4484        2.0817      222.3497      224.4314     187.982959       1.30309
  41     44.20       35.8850        2.8519      219.6348      222.4867     186.601700       0.91859
  40     62.00       35.0899        3.8871      216.4480      220.3350     185.245070       0.64320
  39     85.78       34.0245        5.2098      212.9140      218.1238     184.099300       0.40670
  38     109.5       32.9603        6.4893      209.7504      216.2398     183.279444       0.29102
  37     133.1       31.9645        7.6633      206.9107      214.5739     182.609450       0.24060
  36     156.8       31.0226        8.7542      204.2914      213.0456     182.023011       0.20795
  35     180.6       30.0480        9.8624      201.6304      211.4928     181.444795       0.20528
  34     202.8       29.1334       10.8833      199.0926      209.9758     180.842397       0.22872
  33     228.4       28.2247       11.8803      196.3902      208.2704     180.045686       0.26286
  32     252.2       27.3371       12.8377      193.5018      206.3396     179.002456       0.37030
  31     276.0       26.4817       13.7448      190.4738      204.2186     177.736895       0.44922
  30     299.8       25.6407       14.6211      187.2728      201.8939     176.253140       0.52667
  29     323.5       24.8183       15.4634      183.9407      199.4041     174.585743       0.59186
  28     347.3       24.0223       16.2645      180.5165      196.7810     172.758654       0.64854
  27     371.1       23.2541       17.0243      177.1139      194.1382     170.884032       0.66541
  26     394.9       22.4926       17.7639      173.6761      191.4400     168.947370       0.68744
  25     418.6       21.7494       18.4726      170.2819      188.7546     167.005161       0.68940
  24     442.4       21.0226       19.1528      166.9259      186.0787     165.056111       0.69183
  23     466.2       20.3090       19.8081      163.6363      183.4445     163.135474       0.68175
  22     489.9       19.6176       20.4308      160.4548      180.8856     161.267942       0.66290
  21     513.7       18.9358       21.0329      157.3103      178.3432     159.407402       0.66041
  20     537.5       18.2733       21.6062      154.2433      175.8496     157.576288       0.64997
  19     561.3       17.6282       22.1531      151.2433      173.3964     155.768156       0.64181
  18     585.0       16.9860       22.6863      148.2677      170.9539     153.967899       0.63902
  17     608.8       16.3617       23.1937      145.3842      168.5779     152.216244       0.62177
  16     632.6       15.7542       23.6769      142.5768      166.2538     150.499578       0.60935
  15     656.4       15.1506       24.1463      139.7562      163.9025     148.751807       0.62039
  14     680.1       14.5629       24.5927      136.9543      161.5470     146.984148       0.62745
  13     703.9       13.9902       25.0172      134.1760      159.1932     145.203013       0.63223
  12     727.7       13.4237       25.4264      131.3784      156.8048     143.381076       0.64671
  11     751.5       12.8636       25.8202      128.5422      154.3624     141.498880       0.66810
  10     775.2       12.3164       26.1938      125.7077      151.9015     139.585117       0.67931
   9     799.0       11.7821       26.5478      122.8834      149.4312     137.649086       0.68721
   8     822.8       11.2518       26.8888      120.0769      146.9657     135.713857       0.68693
   7     846.6       10.7311       27.2147      117.4177      144.6324     133.901250       0.64340
   6     870.4       10.2225       27.5245      114.8984      142.4229     132.200389       0.60374
   5     894.1        9.7254       27.8189      112.4975      140.3165     130.591105       0.57123
   4     917.9        9.2342       28.1015      110.1705      138.2720     129.037854       0.55134
   3     941.7        8.7505       28.3715      107.9049      136.2764     127.525980       0.53665
   2     965.5        8.2778       28.6272      105.7109      134.3381     126.060288       0.52026
   1     989.2        7.8159       28.8691      103.5824      132.4516     124.635669       0.50557
   0    1013.0        7.3645       29.0979      101.5155      130.6134     123.248904       0.49235



 Wavenumbers:  2600. -  3250. cm-1, ATM      1
 LEVEL PRESSURE   UPWARD FLUX   DIFDOWN FLUX  DIRDOWN FLUX  DOWNWARD FLUX   NET FLUX    HEATING RATE
          mb          W/m2          W/m2          W/m2        W/m2          W/m2       degree/day
  60   .000300        0.0179        0.0000        2.0827        2.0827       2.064817       0.00000
  59    0.1000        0.0179        0.0000        2.0826        2.0826       2.064745       0.00612
  58    0.1403        0.0179        0.0000        2.0826        2.0826       2.064716       0.00610
  57    0.1968        0.0179        0.0000        2.0825        2.0825       2.064675       0.00612
  56    0.2760        0.0179        0.0000        2.0825        2.0825       2.064618       0.00607
  55    0.3871        0.0179        0.0000        2.0824        2.0824       2.064534       0.00632
  54    0.5430        0.0179        0.0000        2.0823        2.0823       2.064412       0.00665
  53    0.7617        0.0179        0.0000        2.0821        2.0821       2.064220       0.00739
  52     1.069        0.0179        0.0000        2.0818        2.0818       2.063904       0.00869
  51     1.499        0.0179        0.0000        2.0812        2.0812       2.063338       0.01112
  50     2.102        0.0179        0.0000        2.0802        2.0802       2.062369       0.01354
  49     2.949        0.0179        0.0000        2.0787        2.0787       2.060827       0.01537
  48     4.137        0.0179        0.0000        2.0765        2.0765       2.058671       0.01532
  47     5.803        0.0179        0.0000        2.0739        2.0739       2.056066       0.01320
  46     8.139        0.0179        0.0000        2.0712        2.0712       2.053289       0.01003
  45     11.42        0.0179        0.0000        2.0683        2.0683       2.050424       0.00738
  44     16.01        0.0179        0.0000        2.0649        2.0649       2.047054       0.00619
  43     22.46        0.0179        0.0000        2.0601        2.0601       2.042205       0.00635
  42     31.51        0.0179        0.0000        2.0523        2.0523       2.034418       0.00726
  41     44.20        0.0179        0.0000        2.0390        2.0390       2.021186       0.00880
  40     62.00        0.0178        0.0000        2.0180        2.0180       2.000199       0.00995
  39     85.78        0.0178        0.0000        1.9909        1.9909       1.973087       0.00962
  38     109.5        0.0178        0.0000        1.9671        1.9672       1.949324       0.00843
  37     133.1        0.0178        0.0000        1.9489        1.9490       1.931169       0.00652
  36     156.8        0.0178        0.0001        1.9347        1.9347       1.916908       0.00506
  35     180.6        0.0178        0.0001        1.9217        1.9218       1.903946       0.00460
  34     202.8        0.0178        0.0001        1.9096        1.9097       1.891900       0.00457
  33     228.4        0.0178        0.0001        1.8956        1.8956       1.877828       0.00464
  32     252.2        0.0178        0.0001        1.8778        1.8779       1.860061       0.00631
  31     276.0        0.0178        0.0001        1.8563        1.8564       1.838563       0.00763
  30     299.8        0.0178        0.0001        1.8290        1.8291       1.811335       0.00966
  29     323.5        0.0178        0.0001        1.7953        1.7954       1.777592       0.01198
  28     347.3        0.0178        0.0001        1.7549        1.7550       1.737188       0.01434
  27     371.1        0.0178        0.0001        1.7094        1.7095       1.691673       0.01616
  26     394.9        0.0178        0.0001        1.6582        1.6583       1.640497       0.01817
  25     418.6        0.0178        0.0001        1.6036        1.6037       1.585845       0.01940
  24     442.4        0.0179        0.0001        1.5466        1.5467       1.528876       0.02022
  23     466.2        0.0179        0.0001        1.4898        1.4899       1.472022       0.02018
  22     489.9        0.0179        0.0001        1.4343        1.4344       1.416543       0.01969
  21     513.7        0.0179        0.0001        1.3789        1.3790       1.361097       0.01968
  20     537.5        0.0180        0.0001        1.3237        1.3238       1.305870       0.01960
  19     561.3        0.0180        0.0001        1.2688        1.2689       1.250914       0.01951
  18     585.0        0.0181        0.0002        1.2135        1.2136       1.195562       0.01965
  17     608.8        0.0181        0.0002        1.1591        1.1592       1.141108       0.01933
  16     632.6        0.0182        0.0002        1.1055        1.1056       1.087458       0.01904
  15     656.4        0.0182        0.0002        1.0513        1.0515       1.033257       0.01924
  14     680.1        0.0183        0.0002        0.9976        0.9978       0.979450       0.01910
  13     703.9        0.0184        0.0002        0.9448        0.9449       0.926508       0.01879
  12     727.7        0.0185        0.0002        0.8924        0.8925       0.873994       0.01864
  11     751.5        0.0187        0.0001        0.8399        0.8401       0.821437       0.01866
  10     775.2        0.0188        0.0001        0.7883        0.7885       0.769691       0.01837
   9     799.0        0.0190        0.0001        0.7376        0.7377       0.718736       0.01809
   8     822.8        0.0192        0.0001        0.6879        0.6881       0.668864       0.01770
   7     846.6        0.0194        0.0001        0.6423        0.6424       0.622970       0.01629
   6     870.4        0.0197        0.0001        0.6003        0.6004       0.580694       0.01501
   5     894.1        0.0200        0.0001        0.5613        0.5615       0.541482       0.01392
   4     917.9        0.0203        0.0001        0.5247        0.5249       0.504551       0.01311
   3     941.7        0.0207        0.0001        0.4902        0.4904       0.469711       0.01237
   2     965.5        0.0211        0.0001        0.4580        0.4581       0.437051       0.01159
   1     989.2        0.0215        0.0001        0.4278        0.4279       0.406438       0.01086
   0    1013.0        0.0220        0.0001        0.3996        0.3997       0.377698       0.01020



 Wavenumbers:  3250. -  4000. cm-1, ATM      1
 LEVEL PRESSURE   UPWARD FLUX   DIFDOWN FLUX  DIRDOWN FLUX  DOWNWARD FLUX   NET FLUX    HEATING RATE
          mb          W/m2          W/m2          W/m2        W/m2          W/m2       degree/day
  60   .000300        0.0004        0.0000        3.5111        3.5111       3.510700       0.00000
  59    0.1000        0.0004        0.0000        3.5014        3.5014       3.500999       0.82114
  58    0.1403        0.0004        0.0000        3.4998        3.4998       3.499437       0.32719
  57    0.1968        0.0004        0.0000        3.4979        3.4979       3.497489       0.29089
  56    0.2760        0.0004        0.0000        3.4954        3.4954       3.494948       0.27081
  55    0.3871        0.0004        0.0000        3.4920        3.4920       3.491576       0.25610
  54    0.5430        0.0004        0.0000        3.4877        3.4877       3.487320       0.23038
  53    0.7617        0.0004        0.0000        3.4826        3.4826       3.482236       0.19619
  52     1.069        0.0004        0.0000        3.4770        3.4770       3.476579       0.15562
  51     1.499        0.0004        0.0000        3.4708        3.4708       3.470406       0.12107
  50     2.102        0.0004        0.0000        3.4634        3.4634       3.463045       0.10291
  49     2.949        0.0004        0.0000        3.4536        3.4536       3.453246       0.09768
  48     4.137        0.0004        0.0000        3.4401        3.4401       3.439669       0.09648
  47     5.803        0.0004        0.0000        3.4209        3.4209       3.420537       0.09692
  46     8.139        0.0004        0.0000        3.3938        3.3938       3.393410       0.09797
  45     11.42        0.0004        0.0000        3.3560        3.3560       3.355589       0.09738
  44     16.01        0.0004        0.0000        3.3066        3.3066       3.306232       0.09059
  43     22.46        0.0004        0.0000        3.2480        3.2481       3.247676       0.07662
  42     31.51        0.0004        0.0000        3.1805        3.1805       3.180170       0.06297
  41     44.20        0.0003        0.0001        3.0940        3.0940       3.093702       0.05750
  40     62.00        0.0003        0.0001        2.9788        2.9789       2.978578       0.05458
  39     85.78        0.0003        0.0001        2.8443        2.8444       2.844093       0.04774
  38     109.5        0.0003        0.0001        2.7214        2.7216       2.721307       0.04358
  37     133.1        0.0002        0.0002        2.6191        2.6192       2.618990       0.03674
  36     156.8        0.0002        0.0002        2.5313        2.5315       2.531255       0.03111
  35     180.6        0.0002        0.0002        2.4444        2.4446       2.444424       0.03083
  34     202.8        0.0002        0.0002        2.3477        2.3479       2.347751       0.03670
  33     228.4        0.0001        0.0002        2.2271        2.2273       2.227186       0.03978
  32     252.2        0.0001        0.0002        2.0778        2.0780       2.077866       0.05300
  31     276.0        0.0001        0.0003        1.8943        1.8946       1.894450       0.06511
  30     299.8        0.0001        0.0003        1.6850        1.6852       1.685127       0.07430
  29     323.5        0.0001        0.0002        1.4794        1.4797       1.479589       0.07296
  28     347.3        0.0001        0.0002        1.2938        1.2940       1.293941       0.06590
  27     371.1        0.0001        0.0002        1.1349        1.1352       1.135094       0.05638
  26     394.9        0.0000        0.0002        0.9928        0.9930       0.992982       0.05044
  25     418.6        0.0000        0.0002        0.8671        0.8673       0.867247       0.04463
  24     442.4        0.0000        0.0002        0.7541        0.7543       0.754220       0.04012
  23     466.2        0.0000        0.0002        0.6527        0.6529       0.652868       0.03598
  22     489.9        0.0000        0.0002        0.5608        0.5610       0.561001       0.03261
  21     513.7        0.0000        0.0002        0.4743        0.4744       0.474404       0.03074
  20     537.5        0.0000        0.0001        0.3946        0.3948       0.394750       0.02827
  19     561.3        0.0000        0.0001        0.3229        0.3231       0.323062       0.02545
  18     585.0        0.0000        0.0001        0.2596        0.2597       0.259683       0.02250
  17     608.8        0.0000        0.0001        0.2054        0.2055       0.205529       0.01922
  16     632.6        0.0000        0.0001        0.1590        0.1591       0.159100       0.01648
  15     656.4        0.0000        0.0001        0.1181        0.1182       0.118166       0.01453
  14     680.1        0.0000        0.0001        0.0832        0.0832       0.083241       0.01240
  13     703.9        0.0000        0.0001        0.0549        0.0550       0.054949       0.01004
  12     727.7        0.0000        0.0001        0.0332        0.0332       0.033240       0.00771
  11     751.5        0.0000        0.0000        0.0179        0.0179       0.017913       0.00544
  10     775.2        0.0000        0.0000        0.0084        0.0085       0.008470       0.00335
   9     799.0        0.0000        0.0000        0.0034        0.0034       0.003437       0.00179
   8     822.8        0.0000        0.0000        0.0012        0.0012       0.001181       0.00080
   7     846.6        0.0000        0.0000        0.0004        0.0004       0.000367       0.00029
   6     870.4        0.0000        0.0000        0.0001        0.0001       0.000105       0.00009
   5     894.1        0.0000        0.0000        0.0000        0.0000       0.000028       0.00003
   4     917.9        0.0000        0.0000        0.0000        0.0000       0.000008       0.00001
   3     941.7        0.0000        0.0000        0.0000        0.0000       0.000002       0.00000
   2     965.5        0.0000        0.0000        0.0000        0.0000       0.000001       0.00000
   1     989.2        0.0000        0.0000        0.0000        0.0000       0.000000       0.00000
   0    1013.0        0.0000        0.0000        0.0000        0.0000       0.000000       0.00000



 Wavenumbers:  4000. -  4650. cm-1, ATM      1
 LEVEL PRESSURE   UPWARD FLUX   DIFDOWN FLUX  DIRDOWN FLUX  DOWNWARD FLUX   NET FLUX    HEATING RATE
          mb          W/m2          W/m2          W/m2        W/m2          W/m2       degree/day
  60   .000300        0.0534        0.0000        4.1231        4.1231       4.069653       0.00000
  59    0.1000        0.0534        0.0000        4.1231        4.1231       4.069644       0.00076
  58    0.1403        0.0534        0.0000        4.1231        4.1231       4.069640       0.00076
  57    0.1968        0.0534        0.0000        4.1231        4.1231       4.069635       0.00077
  56    0.2760        0.0534        0.0000        4.1231        4.1231       4.069628       0.00076
  55    0.3871        0.0534        0.0000        4.1231        4.1231       4.069618       0.00080
  54    0.5430        0.0534        0.0000        4.1230        4.1230       4.069602       0.00085
  53    0.7617        0.0534        0.0000        4.1230        4.1230       4.069577       0.00095
  52     1.069        0.0534        0.0000        4.1230        4.1230       4.069536       0.00114
  51     1.499        0.0534        0.0000        4.1229        4.1229       4.069459       0.00151
  50     2.102        0.0534        0.0000        4.1227        4.1228       4.069318       0.00197
  49     2.949        0.0534        0.0000        4.1225        4.1225       4.069066       0.00251
  48     4.137        0.0534        0.0000        4.1221        4.1221       4.068640       0.00303
  47     5.803        0.0534        0.0000        4.1214        4.1214       4.067956       0.00346
  46     8.139        0.0534        0.0000        4.1203        4.1203       4.066895       0.00383
  45     11.42        0.0534        0.0000        4.1186        4.1187       4.065276       0.00417
  44     16.01        0.0534        0.0001        4.1162        4.1163       4.062862       0.00443
  43     22.46        0.0534        0.0001        4.1126        4.1127       4.059341       0.00461
  42     31.51        0.0533        0.0001        4.1075        4.1076       4.054230       0.00477
  41     44.20        0.0533        0.0002        4.0996        4.0997       4.046446       0.00518
  40     62.00        0.0532        0.0002        4.0879        4.0881       4.034844       0.00550
  39     85.78        0.0532        0.0003        4.0719        4.0722       4.019082       0.00559
  38     109.5        0.0531        0.0004        4.0552        4.0556       4.002504       0.00588
  37     133.1        0.0530        0.0005        4.0392        4.0396       3.986628       0.00570
  36     156.8        0.0529        0.0005        4.0236        4.0241       3.971198       0.00547
  35     180.6        0.0528        0.0006        4.0068        4.0074       3.954542       0.00591
  34     202.8        0.0528        0.0007        3.9898        3.9905       3.937732       0.00638
  33     228.4        0.0527        0.0008        3.9709        3.9717       3.918968       0.00619
  32     252.2        0.0526        0.0009        3.9498        3.9506       3.898024       0.00743
  31     276.0        0.0526        0.0009        3.9261        3.9271       3.874524       0.00834
  30     299.8        0.0525        0.0010        3.8983        3.8993       3.846839       0.00983
  29     323.5        0.0524        0.0011        3.8655        3.8666       3.814169       0.01160
  28     347.3        0.0524        0.0012        3.8272        3.8284       3.776035       0.01354
  27     371.1        0.0523        0.0012        3.7855        3.7868       3.734462       0.01476
  26     394.9        0.0523        0.0013        3.7401        3.7414       3.689169       0.01608
  25     418.6        0.0522        0.0014        3.6928        3.6942       3.641999       0.01674
  24     442.4        0.0522        0.0014        3.6441        3.6455       3.593368       0.01726
  23     466.2        0.0521        0.0015        3.5941        3.5956       3.543467       0.01771
  22     489.9        0.0521        0.0016        3.5423        3.5439       3.491773       0.01835
  21     513.7        0.0521        0.0016        3.4864        3.4880       3.435962       0.01981
  20     537.5        0.0520        0.0017        3.4263        3.4279       3.375898       0.02132
  19     561.3        0.0520        0.0017        3.3617        3.3634       3.311397       0.02290
  18     585.0        0.0520        0.0018        3.2927        3.2944       3.242422       0.02448
  17     608.8        0.0520        0.0018        3.2221        3.2239       3.171930       0.02502
  16     632.6        0.0520        0.0019        3.1511        3.1529       3.100926       0.02520
  15     656.4        0.0520        0.0019        3.0782        3.0801       3.028125       0.02584
  14     680.1        0.0520        0.0019        3.0051        3.0070       2.954982       0.02596
  13     703.9        0.0521        0.0020        2.9323        2.9342       2.882183       0.02584
  12     727.7        0.0521        0.0020        2.8589        2.8609       2.808786       0.02605
  11     751.5        0.0522        0.0020        2.7836        2.7856       2.733459       0.02674
  10     775.2        0.0523        0.0020        2.7065        2.7086       2.656311       0.02738
   9     799.0        0.0524        0.0021        2.6269        2.6290       2.576590       0.02830
   8     822.8        0.0526        0.0021        2.5453        2.5474       2.494813       0.02903
   7     846.6        0.0527        0.0021        2.4675        2.4696       2.416860       0.02767
   6     870.4        0.0529        0.0021        2.3940        2.3960       2.343100       0.02618
   5     894.1        0.0532        0.0021        2.3245        2.3266       2.273461       0.02472
   4     917.9        0.0534        0.0021        2.2585        2.2606       2.207158       0.02353
   3     941.7        0.0537        0.0021        2.1956        2.1977       2.143972       0.02243
   2     965.5        0.0540        0.0021        2.1361        2.1382       2.084155       0.02123
   1     989.2        0.0544        0.0021        2.0799        2.0820       2.027579       0.02008
   0    1013.0        0.0548        0.0021        2.0266        2.0287       1.973910       0.01905



 Wavenumbers:  4650. -  5150. cm-1, ATM      1
 LEVEL PRESSURE   UPWARD FLUX   DIFDOWN FLUX  DIRDOWN FLUX  DOWNWARD FLUX   NET FLUX    HEATING RATE
          mb          W/m2          W/m2          W/m2        W/m2          W/m2       degree/day
  60   .000300        0.0402        0.0000        3.9027        3.9027       3.862490       0.00000
  59    0.1000        0.0402        0.0000        3.9007        3.9007       3.860450       0.17270
  58    0.1403        0.0402        0.0000        3.8999        3.8999       3.859686       0.15998
  57    0.1968        0.0402        0.0000        3.8989        3.8989       3.858663       0.15284
  56    0.2760        0.0402        0.0000        3.8975        3.8975       3.857333       0.14172
  55    0.3871        0.0402        0.0000        3.8958        3.8958       3.855623       0.12988
  54    0.5430        0.0402        0.0000        3.8937        3.8937       3.853519       0.11390
  53    0.7617        0.0402        0.0000        3.8912        3.8912       3.851022       0.09633
  52     1.069        0.0402        0.0000        3.8884        3.8884       3.848197       0.07772
  51     1.499        0.0402        0.0000        3.8855        3.8855       3.845261       0.05757
  50     2.102        0.0402        0.0000        3.8826        3.8826       3.842386       0.04020
  49     2.949        0.0402        0.0000        3.8797        3.8798       3.839553       0.02825
  48     4.137        0.0402        0.0000        3.8767        3.8767       3.836543       0.02139
  47     5.803        0.0402        0.0000        3.8729        3.8730       3.832783       0.01905
  46     8.139        0.0402        0.0000        3.8676        3.8676       3.827441       0.01929
  45     11.42        0.0402        0.0001        3.8595        3.8595       3.819382       0.02075
  44     16.01        0.0401        0.0001        3.8470        3.8471       3.806977       0.02277
  43     22.46        0.0401        0.0001        3.8278        3.8279       3.787791       0.02511
  42     31.51        0.0400        0.0002        3.7984        3.7986       3.758529       0.02730
  41     44.20        0.0400        0.0002        3.7561        3.7564       3.716378       0.02803
  40     62.00        0.0399        0.0003        3.7013        3.7016       3.661713       0.02592
  39     85.78        0.0398        0.0004        3.6410        3.6415       3.601688       0.02131
  38     109.5        0.0397        0.0006        3.5925        3.5931       3.553438       0.01713
  37     133.1        0.0396        0.0007        3.5518        3.5525       3.512969       0.01453
  36     156.8        0.0394        0.0008        3.5136        3.5144       3.474904       0.01350
  35     180.6        0.0393        0.0009        3.4720        3.4729       3.433590       0.01467
  34     202.8        0.0392        0.0010        3.4301        3.4311       3.391878       0.01584
  33     228.4        0.0391        0.0011        3.3849        3.3860       3.346858       0.01485
  32     252.2        0.0390        0.0012        3.3369        3.3381       3.299047       0.01697
  31     276.0        0.0389        0.0013        3.2864        3.2877       3.248752       0.01785
  30     299.8        0.0389        0.0014        3.2314        3.2328       3.193937       0.01946
  29     323.5        0.0388        0.0015        3.1720        3.1735       3.134741       0.02101
  28     347.3        0.0387        0.0016        3.1100        3.1117       3.072970       0.02193
  27     371.1        0.0386        0.0017        3.0461        3.0478       3.009227       0.02263
  26     394.9        0.0385        0.0018        2.9793        2.9811       2.942583       0.02366
  25     418.6        0.0385        0.0019        2.9109        2.9128       2.874314       0.02423
  24     442.4        0.0384        0.0019        2.8414        2.8433       2.804894       0.02464
  23     466.2        0.0384        0.0020        2.7715        2.7735       2.735171       0.02475
  22     489.9        0.0383        0.0021        2.7024        2.7045       2.666139       0.02450
  21     513.7        0.0383        0.0021        2.6332        2.6354       2.597071       0.02452
  20     537.5        0.0383        0.0022        2.5651        2.5673       2.529009       0.02416
  19     561.3        0.0383        0.0022        2.4976        2.4999       2.461593       0.02393
  18     585.0        0.0383        0.0023        2.4301        2.4324       2.394130       0.02395
  17     608.8        0.0383        0.0023        2.3642        2.3666       2.328336       0.02335
  16     632.6        0.0383        0.0024        2.2998        2.3021       2.263879       0.02288
  15     656.4        0.0383        0.0024        2.2347        2.2371       2.198819       0.02309
  14     680.1        0.0383        0.0024        2.1703        2.1727       2.134374       0.02288
  13     703.9        0.0384        0.0025        2.1066        2.1090       2.070664       0.02261
  12     727.7        0.0385        0.0025        2.0425        2.0450       2.006593       0.02274
  11     751.5        0.0385        0.0025        1.9777        1.9802       1.941646       0.02305
  10     775.2        0.0387        0.0025        1.9127        1.9152       1.876569       0.02310
   9     799.0        0.0388        0.0025        1.8480        1.8505       1.811707       0.02302
   8     822.8        0.0390        0.0026        1.7853        1.7879       1.748898       0.02229
   7     846.6        0.0392        0.0026        1.7269        1.7295       1.690331       0.02079
   6     870.4        0.0394        0.0026        1.6726        1.6752       1.635788       0.01936
   5     894.1        0.0396        0.0026        1.6217        1.6243       1.584689       0.01814
   4     917.9        0.0398        0.0026        1.5731        1.5757       1.535860       0.01733
   3     941.7        0.0401        0.0026        1.5265        1.5291       1.488987       0.01664
   2     965.5        0.0404        0.0026        1.4818        1.4844       1.443999       0.01597
   1     989.2        0.0407        0.0026        1.4388        1.4414       1.400674       0.01538
   0    1013.0        0.0411        0.0026        1.3973        1.3998       1.358758       0.01488



 Wavenumbers:  5150. -  6150. cm-1, ATM      1
 LEVEL PRESSURE   UPWARD FLUX   DIFDOWN FLUX  DIRDOWN FLUX  DOWNWARD FLUX   NET FLUX    HEATING RATE
          mb          W/m2          W/m2          W/m2        W/m2          W/m2       degree/day
  60   .000300        0.1335        0.0000        9.7841        9.7841       9.650601       0.00000
  59    0.1000        0.1335        0.0000        9.7836        9.7836       9.650106       0.04190
  58    0.1403        0.1335        0.0000        9.7834        9.7834       9.649907       0.04173
  57    0.1968        0.1335        0.0000        9.7831        9.7831       9.649627       0.04182
  56    0.2760        0.1335        0.0000        9.7827        9.7827       9.649239       0.04129
  55    0.3871        0.1335        0.0000        9.7822        9.7822       9.648696       0.04125
  54    0.5430        0.1335        0.0000        9.7814        9.7814       9.647943       0.04077
  53    0.7617        0.1335        0.0000        9.7804        9.7804       9.646898       0.04032
  52     1.069        0.1335        0.0000        9.7789        9.7789       9.645440       0.04012
  51     1.499        0.1335        0.0000        9.7769        9.7769       9.643441       0.03919
  50     2.102        0.1334        0.0001        9.7741        9.7742       9.640727       0.03795
  49     2.949        0.1334        0.0001        9.7703        9.7704       9.636987       0.03728
  48     4.137        0.1334        0.0001        9.7653        9.7654       9.631959       0.03573
  47     5.803        0.1334        0.0001        9.7586        9.7587       9.625347       0.03350
  46     8.139        0.1333        0.0002        9.7499        9.7501       9.616824       0.03078
  45     11.42        0.1332        0.0003        9.7391        9.7394       9.606199       0.02736
  44     16.01        0.1331        0.0004        9.7262        9.7266       9.593501       0.02331
  43     22.46        0.1330        0.0006        9.7114        9.7120       9.579042       0.01892
  42     31.51        0.1327        0.0008        9.6953        9.6961       9.563352       0.01464
  41     44.20        0.1324        0.0011        9.6779        9.6790       9.546605       0.01114
  40     62.00        0.1320        0.0015        9.6585        9.6601       9.528047       0.00880
  39     85.78        0.1314        0.0021        9.6352        9.6373       9.505880       0.00787
  38     109.5        0.1309        0.0027        9.6114        9.6141       9.483176       0.00806
  37     133.1        0.1303        0.0033        9.5870        9.5903       9.459984       0.00833
  36     156.8        0.1298        0.0038        9.5611        9.5649       9.435139       0.00881
  35     180.6        0.1292        0.0044        9.5246        9.5290       9.399720       0.01257
  34     202.8        0.1287        0.0049        9.4590        9.4639       9.335232       0.02448
  33     228.4        0.1282        0.0055        9.3276        9.3331       9.204947       0.04299
  32     252.2        0.1276        0.0060        9.1305        9.1365       9.008829       0.06961
  31     276.0        0.1271        0.0064        8.8960        8.9024       8.775287       0.08290
  30     299.8        0.1266        0.0068        8.6265        8.6334       8.506757       0.09532
  29     323.5        0.1261        0.0072        8.3096        8.3168       8.190651       0.11220
  28     347.3        0.1257        0.0075        7.9598        7.9673       7.841584       0.12390
  27     371.1        0.1253        0.0078        7.6161        7.6239       7.498579       0.12175
  26     394.9        0.1249        0.0080        7.2782        7.2862       7.161315       0.11971
  25     418.6        0.1245        0.0082        6.9587        6.9669       6.842394       0.11320
  24     442.4        0.1241        0.0083        6.6640        6.6723       6.548194       0.10443
  23     466.2        0.1238        0.0085        6.4036        6.4121       6.288286       0.09226
  22     489.9        0.1235        0.0086        6.1785        6.1871       6.063657       0.07973
  21     513.7        0.1231        0.0087        5.9807        5.9894       5.866270       0.07006
  20     537.5        0.1228        0.0088        5.8101        5.8189       5.696073       0.06041
  19     561.3        0.1226        0.0089        5.6625        5.6714       5.548812       0.05227
  18     585.0        0.1223        0.0090        5.5325        5.5415       5.419219       0.04600
  17     608.8        0.1221        0.0092        5.4177        5.4269       5.304811       0.04061
  16     632.6        0.1218        0.0093        5.3119        5.3212       5.199388       0.03742
  15     656.4        0.1216        0.0095        5.2067        5.2162       5.094531       0.03722
  14     680.1        0.1214        0.0096        5.0997        5.1093       4.987830       0.03787
  13     703.9        0.1213        0.0098        4.9900        4.9998       4.878473       0.03882
  12     727.7        0.1212        0.0099        4.8767        4.8866       4.765475       0.04011
  11     751.5        0.1211        0.0100        4.7605        4.7705       4.649480       0.04117
  10     775.2        0.1210        0.0102        4.6459        4.6560       4.535034       0.04062
   9     799.0        0.1210        0.0103        4.5361        4.5464       4.425388       0.03892
   8     822.8        0.1211        0.0104        4.4342        4.4446       4.323491       0.03617
   7     846.6        0.1212        0.0104        4.3462        4.3567       4.235527       0.03122
   6     870.4        0.1213        0.0105        4.2694        4.2800       4.158661       0.02728
   5     894.1        0.1215        0.0106        4.2001        4.2108       4.089295       0.02462
   4     917.9        0.1217        0.0107        4.1347        4.1455       4.023776       0.02326
   3     941.7        0.1220        0.0108        4.0708        4.0816       3.959652       0.02276
   2     965.5        0.1223        0.0109        4.0071        4.0180       3.895695       0.02270
   1     989.2        0.1227        0.0110        3.9425        3.9536       3.830876       0.02300
   0    1013.0        0.1232        0.0111        3.8765        3.8877       3.764520       0.02356



 Wavenumbers:  6150. -  7700. cm-1, ATM      1
 LEVEL PRESSURE   UPWARD FLUX   DIFDOWN FLUX  DIRDOWN FLUX  DOWNWARD FLUX   NET FLUX    HEATING RATE
          mb          W/m2          W/m2          W/m2        W/m2          W/m2       degree/day
  60   .000300        0.2309        0.0000       18.0961       18.0961      17.865155       0.00000
  59    0.1000        0.2309        0.0000       18.0954       18.0954      17.864496       0.05578
  58    0.1403        0.2309        0.0000       18.0951       18.0951      17.864229       0.05578
  57    0.1968        0.2309        0.0000       18.0947       18.0947      17.863854       0.05605
  56    0.2760        0.2309        0.0000       18.0942       18.0942      17.863333       0.05551
  55    0.3871        0.2309        0.0000       18.0934       18.0935      17.862601       0.05564
  54    0.5430        0.2309        0.0001       18.0924       18.0924      17.861581       0.05522
  53    0.7617        0.2308        0.0001       18.0909       18.0910      17.860159       0.05485
  52     1.069        0.2308        0.0001       18.0889       18.0890      17.858166       0.05483
  51     1.499        0.2308        0.0002       18.0860       18.0862      17.855424       0.05377
  50     2.102        0.2307        0.0002       18.0822       18.0824      17.851679       0.05236
  49     2.949        0.2306        0.0003       18.0768       18.0771      17.846475       0.05188
  48     4.137        0.2305        0.0004       18.0694       18.0699      17.839385       0.05038
  47     5.803        0.2303        0.0006       18.0596       18.0602      17.829866       0.04822
  46     8.139        0.2301        0.0009       18.0464       18.0473      17.817243       0.04559
  45     11.42        0.2297        0.0012       18.0294       18.0306      17.800886       0.04211
  44     16.01        0.2292        0.0017       18.0078       18.0095      17.780217       0.03794
  43     22.46        0.2286        0.0024       17.9811       17.9834      17.754853       0.03319
  42     31.51        0.2276        0.0033       17.9492       17.9525      17.724908       0.02793
  41     44.20        0.2263        0.0046       17.9123       17.9169      17.690590       0.02282
  40     62.00        0.2245        0.0065       17.8701       17.8765      17.652038       0.01828
  39     85.78        0.2221        0.0089       17.8221       17.8310      17.608929       0.01530
  38     109.5        0.2196        0.0114       17.7766       17.7881      17.568464       0.01436
  37     133.1        0.2172        0.0138       17.7331       17.7469      17.529721       0.01391
  36     156.8        0.2149        0.0161       17.6884       17.7045      17.489599       0.01423
  35     180.6        0.2125        0.0186       17.6289       17.6475      17.435045       0.01937
  34     202.8        0.2101        0.0209       17.5339       17.5548      17.344728       0.03429
  33     228.4        0.2078        0.0232       17.3560       17.3793      17.171500       0.05715
  32     252.2        0.2054        0.0254       17.0708       17.0962      16.890815       0.09963
  31     276.0        0.2032        0.0274       16.6840       16.7115      16.508314       0.13577
  30     299.8        0.2010        0.0293       16.2182       16.2475      16.046485       0.16393
  29     323.5        0.1989        0.0309       15.6977       15.7286      15.529698       0.18344
  28     347.3        0.1968        0.0323       15.1148       15.1471      14.950248       0.20568
  27     371.1        0.1949        0.0336       14.5056       14.5392      14.344240       0.21511
  26     394.9        0.1931        0.0346       13.8813       13.9159      13.722841       0.22057
  25     418.6        0.1913        0.0355       13.2727       13.3082      13.116865       0.21510
  24     442.4        0.1897        0.0362       12.6836       12.7198      12.530183       0.20825
  23     466.2        0.1881        0.0368       12.1291       12.1660      11.977896       0.19604
  22     489.9        0.1866        0.0373       11.6170       11.6543      11.467779       0.18107
  21     513.7        0.1851        0.0377       11.1327       11.1704      10.985292       0.17126
  20     537.5        0.1838        0.0381       10.6791       10.7172      10.533390       0.16041
  19     561.3        0.1825        0.0383       10.2524       10.2907      10.108225       0.15092
  18     585.0        0.1813        0.0386        9.8492        9.8878       9.706501       0.14260
  17     608.8        0.1801        0.0387        9.4766        9.5154       9.335222       0.13179
  16     632.6        0.1791        0.0389        9.1302        9.1691       8.990050       0.12252
  15     656.4        0.1780        0.0390        8.7964        8.8355       8.657434       0.11806
  14     680.1        0.1771        0.0391        8.4770        8.5161       8.338966       0.11304
  13     703.9        0.1762        0.0391        8.1723        8.2114       8.035173       0.10783
  12     727.7        0.1755        0.0391        7.8756        7.9147       7.739235       0.10505
  11     751.5        0.1748        0.0390        7.5826        7.6217       7.446908       0.10376
  10     775.2        0.1742        0.0389        7.2980        7.3369       7.162708       0.10088
   9     799.0        0.1737        0.0387        7.0237        7.0624       6.888646       0.09728
   8     822.8        0.1734        0.0385        6.7633        6.8018       6.628377       0.09238
   7     846.6        0.1731        0.0384        6.5318        6.5702       6.397030       0.08212
   6     870.4        0.1730        0.0383        6.3243        6.3625       6.189544       0.07365
   5     894.1        0.1730        0.0382        6.1348        6.1730       6.000016       0.06727
   4     917.9        0.1730        0.0381        5.9574        5.9955       5.822455       0.06303
   3     941.7        0.1732        0.0381        5.7896        5.8277       5.654460       0.05963
   2     965.5        0.1736        0.0380        5.6315        5.6696       5.495943       0.05627
   1     989.2        0.1741        0.0380        5.4828        5.5208       5.346645       0.05298
   0    1013.0        0.1749        0.0380        5.3431        5.3811       5.206266       0.04984



 Wavenumbers:  7700. -  8050. cm-1, ATM      1
 LEVEL PRESSURE   UPWARD FLUX   DIFDOWN FLUX  DIRDOWN FLUX  DOWNWARD FLUX   NET FLUX    HEATING RATE
          mb          W/m2          W/m2          W/m2        W/m2          W/m2       degree/day
  60   .000300        0.1248        0.0000        4.2766        4.2766       4.151806       0.00000
  59    0.1000        0.1248        0.0000        4.2765        4.2765       4.151645       0.01365
  58    0.1403        0.1248        0.0000        4.2764        4.2764       4.151579       0.01373
  57    0.1968        0.1248        0.0000        4.2763        4.2763       4.151487       0.01380
  56    0.2760        0.1248        0.0000        4.2762        4.2762       4.151359       0.01368
  55    0.3871        0.1248        0.0000        4.2760        4.2760       4.151178       0.01374
  54    0.5430        0.1248        0.0000        4.2757        4.2757       4.150925       0.01368
  53    0.7617        0.1248        0.0000        4.2753        4.2754       4.150571       0.01365
  52     1.069        0.1248        0.0000        4.2748        4.2749       4.150072       0.01374
  51     1.499        0.1248        0.0001        4.2741        4.2742       4.149378       0.01361
  50     2.102        0.1248        0.0001        4.2731        4.2732       4.148417       0.01344
  49     2.949        0.1247        0.0001        4.2717        4.2718       4.147055       0.01357
  48     4.137        0.1247        0.0002        4.2697        4.2698       4.145148       0.01355
  47     5.803        0.1246        0.0002        4.2669        4.2671       4.142490       0.01347
  46     8.139        0.1246        0.0003        4.2630        4.2634       4.138785       0.01338
  45     11.42        0.1245        0.0005        4.2576        4.2581       4.133627       0.01328
  44     16.01        0.1243        0.0007        4.2501        4.2508       4.126471       0.01314
  43     22.46        0.1241        0.0009        4.2397        4.2407       4.116561       0.01297
  42     31.51        0.1238        0.0013        4.2254        4.2267       4.102898       0.01275
  41     44.20        0.1234        0.0018        4.2058        4.2075       4.084148       0.01247
  40     62.00        0.1228        0.0025        4.1791        4.1816       4.058793       0.01202
  39     85.78        0.1221        0.0034        4.1450        4.1485       4.026381       0.01150
  38     109.5        0.1213        0.0044        4.1119        4.1162       3.994919       0.01117
  37     133.1        0.1206        0.0053        4.0812        4.0865       3.965903       0.01042
  36     156.8        0.1199        0.0061        4.0525        4.0586       3.938747       0.00963
  35     180.6        0.1191        0.0071        4.0231        4.0301       3.910960       0.00986
  34     202.8        0.1184        0.0079        3.9957        4.0036       3.885148       0.00980
  33     228.4        0.1177        0.0088        3.9685        3.9774       3.859635       0.00842
  32     252.2        0.1170        0.0097        3.9422        3.9518       3.834835       0.00880
  31     276.0        0.1163        0.0105        3.9167        3.9273       3.810953       0.00848
  30     299.8        0.1156        0.0114        3.8916        3.9030       3.787440       0.00835
  29     323.5        0.1149        0.0123        3.8669        3.8792       3.764295       0.00822
  28     347.3        0.1142        0.0131        3.8428        3.8559       3.741687       0.00803
  27     371.1        0.1136        0.0139        3.8192        3.8332       3.719614       0.00783
  26     394.9        0.1129        0.0148        3.7955        3.8103       3.697392       0.00789
  25     418.6        0.1122        0.0156        3.7719        3.7875       3.675263       0.00785
  24     442.4        0.1116        0.0164        3.7483        3.7647       3.653140       0.00785
  23     466.2        0.1109        0.0172        3.7246        3.7419       3.630937       0.00788
  22     489.9        0.1103        0.0180        3.7011        3.7191       3.608851       0.00784
  21     513.7        0.1097        0.0188        3.6772        3.6960       3.586385       0.00797
  20     537.5        0.1090        0.0196        3.6533        3.6728       3.563801       0.00802
  19     561.3        0.1084        0.0204        3.6291        3.6494       3.541001       0.00809
  18     585.0        0.1078        0.0211        3.6041        3.6253       3.517421       0.00837
  17     608.8        0.1073        0.0219        3.5790        3.6008       3.493574       0.00846
  16     632.6        0.1067        0.0226        3.5535        3.5761       3.469386       0.00859
  15     656.4        0.1062        0.0234        3.5270        3.5504       3.444216       0.00893
  14     680.1        0.1056        0.0241        3.4999        3.5240       3.418351       0.00918
  13     703.9        0.1051        0.0248        3.4720        3.4967       3.391639       0.00948
  12     727.7        0.1046        0.0255        3.4427        3.4682       3.363571       0.00996
  11     751.5        0.1041        0.0262        3.4118        3.4379       3.333805       0.01057
  10     775.2        0.1037        0.0269        3.3792        3.4061       3.302427       0.01114
   9     799.0        0.1033        0.0275        3.3450        3.3725       3.269259       0.01177
   8     822.8        0.1029        0.0282        3.3086        3.3368       3.233931       0.01254
   7     846.6        0.1025        0.0288        3.2714        3.3002       3.197656       0.01288
   6     870.4        0.1022        0.0294        3.2334        3.2628       3.160652       0.01314
   5     894.1        0.1019        0.0300        3.1947        3.2247       3.122859       0.01341
   4     917.9        0.1016        0.0306        3.1547        3.1853       3.083764       0.01388
   3     941.7        0.1013        0.0312        3.1134        3.1446       3.043264       0.01438
   2     965.5        0.1011        0.0317        3.0709        3.1026       3.001564       0.01480
   1     989.2        0.1009        0.0322        3.0273        3.0596       2.958680       0.01522
   0    1013.0        0.1007        0.0328        2.9826        3.0153       2.914601       0.01565



 Wavenumbers:  8050. - 12850. cm-1, ATM      1
 LEVEL PRESSURE   UPWARD FLUX   DIFDOWN FLUX  DIRDOWN FLUX  DOWNWARD FLUX   NET FLUX    HEATING RATE
          mb          W/m2          W/m2          W/m2        W/m2          W/m2       degree/day
  60   .000300        2.8720        0.0000       59.8761       59.8761      57.004139       0.00000
  59    0.1000        2.8718        0.0002       59.8757       59.8759      57.004139      -0.00000
  58    0.1403        2.8717        0.0003       59.8756       59.8758      57.004139       0.00000
  57    0.1968        2.8716        0.0004       59.8753       59.8757      57.004139      -0.00000
  56    0.2760        2.8714        0.0006       59.8750       59.8756      57.004139       0.00000
  55    0.3871        2.8712        0.0008       59.8746       59.8754      57.004139      -0.00000
  54    0.5430        2.8709        0.0011       59.8740       59.8751      57.004139       0.00000
  53    0.7617        2.8705        0.0015       59.8731       59.8746      57.004139       0.00000
  52     1.069        2.8699        0.0021       59.8719       59.8740      57.004139       0.00000
  51     1.499        2.8691        0.0030       59.8702       59.8732      57.004139       0.00000
  50     2.102        2.8679        0.0042       59.8678       59.8720      57.004139      -0.00000
  49     2.949        2.8662        0.0059       59.8645       59.8704      57.004139      -0.00000
  48     4.137        2.8639        0.0083       59.8598       59.8681      57.004139       0.00000
  47     5.803        2.8607        0.0116       59.8532       59.8648      57.004139       0.00000
  46     8.139        2.8562        0.0162       59.8441       59.8603      57.004139       0.00000
  45     11.42        2.8498        0.0228       59.8312       59.8540      57.004139      -0.00000
  44     16.01        2.8409        0.0319       59.8132       59.8451      57.004139       0.00000
  43     22.46        2.8285        0.0447       59.7879       59.8326      57.004139       0.00000
  42     31.51        2.8110        0.0626       59.7525       59.8151      57.004139      -0.00000
  41     44.20        2.7865        0.0878       59.7028       59.7906      57.004139      -0.00000
  40     62.00        2.7522        0.1229       59.6335       59.7564      57.004139       0.00000
  39     85.78        2.7065        0.1697       59.5410       59.7107      57.004139       0.00000
  38     109.5        2.6602        0.2171       59.4346       59.6517      56.991562       0.00446
  37     133.1        2.6155        0.2628       59.3324       59.5952      56.979710       0.00426
  36     156.8        2.5721        0.3072       59.2327       59.5398      56.967712       0.00425
  35     180.6        2.5260        0.3543       59.1226       59.4768      56.950825       0.00600
  34     202.8        2.4817        0.3995       59.0015       59.4010      56.919328       0.01196
  33     228.4        2.4365        0.4455       58.8443       59.2899      56.853399       0.02175
  32     252.2        2.3913        0.4915       58.6431       59.1346      56.743311       0.03908
  31     276.0        2.3467        0.5366       58.3959       58.9325      56.585837       0.05590
  30     299.8        2.3020        0.5817       58.0957       58.6774      56.375422       0.07469
  29     323.5        2.2573        0.6264       57.7369       58.3633      56.105999       0.09563
  28     347.3        2.2134        0.6702       57.3082       57.9784      55.764991       0.12104
  27     371.1        2.1703        0.7129       56.8200       57.5329      55.362584       0.14284
  26     394.9        2.1270        0.7554       56.2604       57.0157      54.888755       0.16819
  25     418.6        2.0841        0.7969       55.6421       56.4391      54.354939       0.18948
  24     442.4        2.0418        0.8375       54.9649       55.8024      53.760669       0.21094
  23     466.2        1.9998        0.8773       54.2409       55.1182      53.118410       0.22798
  22     489.9        1.9587        0.9156       53.4888       54.4044      52.445748       0.23877
  21     513.7        1.9179        0.9530       52.6977       53.6507      51.732792       0.25307
  20     537.5        1.8781        0.9890       51.8831       52.8721      50.994012       0.26224
  19     561.3        1.8391        1.0234       51.0468       52.0702      50.231084       0.27081
  18     585.0        1.8002        1.0572       50.1839       51.2411      49.440962       0.28046
  17     608.8        1.7622        1.0896       49.3172       50.4069      48.644627       0.28267
  16     632.6        1.7253        1.1207       48.4456       49.5663      47.841021       0.28525
  15     656.4        1.6886        1.1508       47.5387       48.6895      47.000913       0.29820
  14     680.1        1.6529        1.1793       46.6055       47.7848      46.131865       0.30848
  13     703.9        1.6184        1.2061       45.6532       46.8593      45.240933       0.31624
  12     727.7        1.5845        1.2314       44.6717       45.9032      44.318696       0.32736
  11     751.5        1.5513        1.2551       43.6531       44.9082      43.356835       0.34142
  10     775.2        1.5195        1.2767       42.6161       43.8928      42.373345       0.34910
   9     799.0        1.4890        1.2962       41.5689       42.8651      41.376067       0.35399
   8     822.8        1.4594        1.3143       40.5244       41.8387      40.379272       0.35382
   7     846.6        1.4308        1.3317       39.5484       40.8802      39.449394       0.33007
   6     870.4        1.4033        1.3486       38.6362       39.9847      38.581485       0.30807
   5     894.1        1.3769        1.3648       37.7781       39.1429      37.766031       0.28945
   4     917.9        1.3513        1.3805       36.9556       38.3360      36.984722       0.27733
   3     941.7        1.3268        1.3955       36.1612       37.5567      36.229852       0.26795
   2     965.5        1.3036        1.4097       35.3974       36.8072      35.503597       0.25779
   1     989.2        1.2816        1.4232       34.6606       36.0838      34.802157       0.24893
   0    1013.0        1.2611        1.4360       33.9477       35.3837      34.122565       0.24128



 Wavenumbers: 12850. - 16000. cm-1, ATM      1
 LEVEL PRESSURE   UPWARD FLUX   DIFDOWN FLUX  DIRDOWN FLUX  DOWNWARD FLUX   NET FLUX    HEATING RATE
          mb          W/m2          W/m2          W/m2        W/m2          W/m2       degree/day
  60   .000300        4.3751        0.0000       37.5177       37.5177      33.142612       0.00000
  59    0.1000        4.3747        0.0004       37.5105       37.5110      33.136301       0.53414
  58    0.1403        4.3745        0.0006       37.5079       37.5085      33.133996       0.48286
  57    0.1968        4.3743        0.0009       37.5044       37.5053      33.130954       0.45427
  56    0.2760        4.3740        0.0012       37.4999       37.5011      33.127076       0.41322
  55    0.3871        4.3736        0.0017       37.4941       37.4958      33.122203       0.37018
  54    0.5430        4.3730        0.0024       37.4869       37.4892      33.116203       0.32480
  53    0.7617        4.3722        0.0033       37.4775       37.4808      33.108586       0.29393
  52     1.069        4.3712        0.0046       37.4648       37.4695      33.098271       0.28373
  51     1.499        4.3698        0.0065       37.4466       37.4530      33.083216       0.29525
  50     2.102        4.3681        0.0090       37.4180       37.4270      33.058951       0.33926
  49     2.949        4.3659        0.0127       37.3701       37.3827      33.016851       0.41967
  48     4.137        4.3632        0.0178       37.2925       37.3103      32.947080       0.49580
  47     5.803        4.3598        0.0249       37.1775       37.2024      32.842563       0.52946
  46     8.139        4.3549        0.0347       37.0218       37.0565      32.701538       0.50932
  45     11.42        4.3476        0.0485       36.8246       36.8730      32.525480       0.45329
  44     16.01        4.3363        0.0676       36.5814       36.6489      32.312640       0.39067
  43     22.46        4.3193        0.0941       36.2858       36.3799      32.060585       0.32982
  42     31.51        4.2934        0.1309       35.9460       36.0770      31.783545       0.25844
  41     44.20        4.2537        0.1821       35.5826       35.7647      31.511071       0.18121
  40     62.00        4.1949        0.2527       35.1928       35.4455      31.250551       0.12352
  39     85.78        4.1125        0.3460       34.8066       35.1526      31.040150       0.07468
  38     109.5        4.0273        0.4402       34.4775       34.9177      30.890326       0.05318
  37     133.1        3.9451        0.5300       34.1788       34.7087      30.763605       0.04551
  36     156.8        3.8652        0.6165       33.8987       34.5152      30.650033       0.04027
  35     180.6        3.7801        0.7077       33.6155       34.3232      30.543148       0.03795
  34     202.8        3.6981        0.7948       33.3574       34.1522      30.454113       0.03380
  33     228.4        3.6146        0.8829       33.1019       33.9848      30.370212       0.02768
  32     252.2        3.5311        0.9705       32.8510       33.8215      30.290420       0.02832
  31     276.0        3.4488        1.0564       32.6079       33.6643      30.215467       0.02661
  30     299.8        3.3662        1.1422       32.3657       33.5080      30.141776       0.02616
  29     323.5        3.2837        1.2276       32.1234       33.3509      30.067220       0.02646
  28     347.3        3.2023        1.3114       31.8819       33.1933      29.991035       0.02704
  27     371.1        3.1222        1.3936       31.6418       33.0354      29.913153       0.02764
  26     394.9        3.0414        1.4762       31.3957       32.8719      29.830439       0.02936
  25     418.6        2.9612        1.5578       31.1466       32.7044      29.743182       0.03097
  24     442.4        2.8814        1.6386       30.8930       32.5316      29.650209       0.03300
  23     466.2        2.8018        1.7188       30.6345       32.3533      29.551533       0.03503
  22     489.9        2.7235        1.7973       30.3745       32.1718      29.448309       0.03664
  21     513.7        2.6451        1.8754       30.1073       31.9827      29.337631       0.03929
  20     537.5        2.5678        1.9518       29.8363       31.7881      29.220292       0.04165
  19     561.3        2.4916        2.0268       29.5604       31.5872      29.095546       0.04428
  18     585.0        2.4148        2.1018       29.2748       31.3767      28.961892       0.04744
  17     608.8        2.3392        2.1751       28.9896       31.1647      28.825484       0.04842
  16     632.6        2.2649        2.2465       28.7045       30.9511      28.686122       0.04947
  15     656.4        2.1904        2.3176       28.4119       30.7295      28.539047       0.05221
  14     680.1        2.1172        2.3867       28.1153       30.5020      28.384768       0.05476
  13     703.9        2.0453        2.4538       27.8136       30.2675      28.222152       0.05772
  12     727.7        1.9737        2.5198       27.5007       30.0205      28.046866       0.06222
  11     751.5        1.9024        2.5845       27.1747       29.7592      27.856864       0.06744
  10     775.2        1.8324        2.6470       26.8380       29.4850      27.652594       0.07251
   9     799.0        1.7637        2.7071       26.4891       29.1963      27.432549       0.07811
   8     822.8        1.6953        2.7659       26.1261       28.8920      27.196718       0.08371
   7     846.6        1.6278        2.8232       25.7644       28.5876      26.959850       0.08408
   6     870.4        1.5615        2.8787       25.4065       28.2852      26.723691       0.08383
   5     894.1        1.4965        2.9326       25.0521       27.9847      26.488210       0.08359
   4     917.9        1.4320        2.9852       24.6973       27.6825      26.250498       0.08438
   3     941.7        1.3682        3.0364       24.3412       27.3777      26.009452       0.08556
   2     965.5        1.3057        3.0859       23.9878       27.0736      25.767897       0.08574
   1     989.2        1.2445        3.1335       23.6369       26.7705      25.525982       0.08585
   0    1013.0        1.1844        3.1794       23.2900       26.4695      25.285007       0.08555



 Wavenumbers: 16000. - 22650. cm-1, ATM      1
 LEVEL PRESSURE   UPWARD FLUX   DIFDOWN FLUX  DIRDOWN FLUX  DOWNWARD FLUX   NET FLUX    HEATING RATE
          mb          W/m2          W/m2          W/m2        W/m2          W/m2       degree/day
  60   .000300       16.5497        0.0000       59.8178       59.8178      43.268122       0.00000
  59    0.1000       16.5477        0.0024       59.8127       59.8150      43.267366       0.06398
  58    0.1403       16.5469        0.0034       59.8103       59.8137      43.266760       0.12680
  57    0.1968       16.5458        0.0047       59.8068       59.8115      43.265665       0.16357
  56    0.2760       16.5443        0.0066       59.8015       59.8081      43.263740       0.20518
  55    0.3871       16.5423        0.0093       59.7935       59.8028      43.260493       0.24657
  54    0.5430       16.5395        0.0130       59.7815       59.7945      43.255051       0.29459
  53    0.7617       16.5357        0.0183       59.7629       59.7812      43.245451       0.37047
  52     1.069       16.5306        0.0256       59.7332       59.7588      43.228198       0.47458
  51     1.499       16.5241        0.0359       59.6855       59.7214      43.197331       0.60537
  50     2.102       16.5160        0.0501       59.6070       59.6571      43.141078       0.78649
  49     2.949       16.5064        0.0702       59.4727       59.5429      43.036574       1.04173
  48     4.137       16.4953        0.0983       59.2541       59.3524      42.857153       1.27498
  47     5.803       16.4816        0.1375       58.9283       59.0658      42.584281       1.38232
  46     8.139       16.4619        0.1920       58.4849       58.6769      42.214972       1.33378
  45     11.42       16.4310        0.2676       57.9191       58.1867      41.755671       1.18253
  44     16.01       16.3824        0.3724       57.2132       57.5856      41.203204       1.01406
  43     22.46       16.3072        0.5173       56.3417       56.8591      40.551888       0.85227
  42     31.51       16.1896        0.7174       55.3146       56.0321      39.842514       0.66175
  41     44.20       16.0050        0.9935       54.1698       55.1633      39.158221       0.45508
  40     62.00       15.7294        1.3703       52.8836       54.2539      38.524451       0.30048
  39     85.78       15.3404        1.8614       51.5387       53.4001      38.059652       0.16498
  38     109.5       14.9377        2.3478       50.3839       52.7317      37.793972       0.09431
  37     133.1       14.5530        2.8043       49.3428       52.1471      37.594093       0.07178
  36     156.8       14.1826        3.2379       48.3756       51.6135      37.430856       0.05788
  35     180.6       13.7926        3.6880       47.4008       51.0887      37.296185       0.04781
  34     202.8       13.4203        4.1114       46.5117       50.6231      37.202788       0.03546
  33     228.4       13.0450        4.5334       45.6379       50.1713      37.126265       0.02525
  32     252.2       12.6736        4.9469       44.7880       49.7349      37.061278       0.02307
  31     276.0       12.3112        5.3462       43.9731       49.3194      37.008175       0.01885
  30     299.8       11.9506        5.7397       43.1742       48.9139      36.963298       0.01593
  29     323.5       11.5940        6.1249       42.3915       48.5164      36.922396       0.01452
  28     347.3       11.2454        6.4981       41.6322       48.1304      36.884972       0.01328
  27     371.1       10.9057        6.8583       40.8983       47.7566      36.850890       0.01210
  26     394.9       10.5658        7.2153       40.1690       47.3843      36.818484       0.01150
  25     418.6       10.2312        7.5633       39.4554       47.0187      36.787499       0.01100
  24     442.4        9.9013        7.9031       38.7557       46.6588      36.757487       0.01065
  23     466.2        9.5749        8.2360       38.0672       46.3032      36.728295       0.01036
  22     489.9        9.2563        8.5575       37.3988       45.9563      36.700014       0.01004
  21     513.7        8.9400        8.8736       36.7380       45.6116      36.671648       0.01007
  20     537.5        8.6305        9.1794       36.0942       45.2737      36.643111       0.01013
  19     561.3        8.3274        9.4759       35.4655       44.9415      36.614084       0.01030
  18     585.0        8.0239        9.7696       34.8382       44.6078      36.583852       0.01073
  17     608.8        7.7271       10.0535       34.2266       44.2802      36.553048       0.01093
  16     632.6        7.4368       10.3282       33.6301       43.9583      36.521526       0.01119
  15     656.4        7.1468       10.5992       33.0358       43.6350      36.488201       0.01183
  14     680.1        6.8630       10.8614       32.4547       43.3161      36.453037       0.01248
  13     703.9        6.5852       11.1149       31.8859       43.0008      36.415630       0.01328
  12     727.7        6.3089       11.3638       31.3201       42.6838      36.374905       0.01446
  11     751.5        6.0344       11.6078       30.7565       42.3643      36.329932       0.01596
  10     775.2        5.7648       11.8440       30.2015       42.0455      36.280674       0.01748
   9     799.0        5.5001       12.0725       29.6544       41.7269      36.226789       0.01913
   8     822.8        5.2361       12.2971       29.1073       41.4045      36.168354       0.02074
   7     846.6        4.9757       12.5153       28.5694       41.0848      36.109042       0.02105
   6     870.4        4.7203       12.7262       28.0436       40.7698      36.049424       0.02116
   5     894.1        4.4697       12.9299       27.5296       40.4596      35.989882       0.02113
   4     917.9        4.2210       13.1289       27.0217       40.1505      35.929532       0.02142
   3     941.7        3.9751       13.3224       26.5211       39.8435      35.868402       0.02170
   2     965.5        3.7337       13.5092       26.0316       39.5408      35.807091       0.02176
   1     989.2        3.4967       13.6894       25.5531       39.2425      35.745817       0.02175
   0    1013.0        3.2640       13.8634       25.0853       38.9487      35.684689       0.02170



 Wavenumbers: 22650. - 29000. cm-1, ATM      1
 LEVEL PRESSURE   UPWARD FLUX   DIFDOWN FLUX  DIRDOWN FLUX  DOWNWARD FLUX   NET FLUX    HEATING RATE
          mb          W/m2          W/m2          W/m2        W/m2          W/m2       degree/day
  60   .000300       11.4326        0.0000       22.5731       22.5731      11.140499       0.00000
  59    0.1000       11.4304        0.0029       22.5680       22.5709      11.140499      -0.00000
  58    0.1403       11.4295        0.0040       22.5660       22.5700      11.140499       0.00000
  57    0.1968       11.4283        0.0056       22.5631       22.5688      11.140499       0.00000
  56    0.2760       11.4265        0.0079       22.5592       22.5670      11.140499       0.00000
  55    0.3871       11.4241        0.0111       22.5535       22.5646      11.140499       0.00000
  54    0.5430       11.4207        0.0155       22.5457       22.5612      11.140499       0.00000
  53    0.7617       11.4160        0.0218       22.5347       22.5565      11.140499      -0.00000
  52     1.069       11.4093        0.0306       22.5192       22.5498      11.140499      -0.00000
  51     1.499       11.4000        0.0428       22.4977       22.5405      11.140499      -0.00000
  50     2.102       11.3871        0.0597       22.4679       22.5276      11.140499       0.00000
  49     2.949       11.3688        0.0837       22.4256       22.5093      11.140499       0.00000
  48     4.137       11.3432        0.1172       22.3665       22.4837      11.140499       0.00000
  47     5.803       11.3075        0.1640       22.2840       22.4480      11.140499      -0.00000
  46     8.139       11.2577        0.2291       22.1691       22.3982      11.140499       0.00000
  45     11.42       11.1884        0.3197       22.0092       22.3289      11.140499       0.00000
  44     16.01       11.0921        0.4451       21.7875       22.2326      11.140499      -0.00000
  43     22.46       10.9585        0.6185       21.4805       22.0990      11.140499       0.00000
  42     31.51       10.7741        0.8567       21.0578       21.9146      11.140499      -0.00000
  41     44.20       10.5205        1.1819       20.4790       21.6610      11.140499       0.00000
  40     62.00       10.1772        1.6176       19.7002       21.3177      11.140499       0.00000
  39     85.78        9.7369        2.1685       18.7089       20.8774      11.140499      -0.00000
  38     109.5        9.3098        2.6935       17.7568       20.4503      11.140499      -0.00000
  37     133.1        8.9163        3.1685       16.8883       20.0568      11.140499      -0.00000
  36     156.8        8.5495        3.6033       16.0867       19.6900      11.140499       0.00000
  35     180.6        8.1761        4.0373       15.2793       19.3166      11.140499      -0.00000
  34     202.8        7.8316        4.4292       14.5429       18.9721      11.140499       0.00000
  33     228.4        7.4945        4.8044       13.8306       18.6350      11.140499       0.00000
  32     252.2        7.1700        5.1573       13.1533       18.3105      11.140499       0.00000
  31     276.0        6.8620        5.4843       12.5183       18.0025      11.140499       0.00000
  30     299.8        6.5638        5.7928       11.9115       17.7043      11.140499      -0.00000
  29     323.5        6.2762        6.0825       11.3342       17.4167      11.140499       0.00000
  28     347.3        6.0018        6.3513       10.7910       17.1423      11.140499      -0.00000
  27     371.1        5.7407        6.5997       10.2814       16.8812      11.140499       0.00000
  26     394.9        5.4855        6.8350        9.7910       16.6260      11.140499       0.00000
  25     418.6        5.2398        7.0542        9.3261       16.3803      11.140499      -0.00000
  24     442.4        5.0027        7.2585        8.8847       16.1432      11.140499       0.00000
  23     466.2        4.7731        7.4495        8.4641       15.9136      11.140499       0.00000
  22     489.9        4.5535        7.6253        8.0687       15.6940      11.140499      -0.00000
  21     513.7        4.3396        7.7898        7.6903       15.4801      11.140499       0.00000
  20     537.5        4.1343        7.9411        7.3338       15.2748      11.140499      -0.00000
  19     561.3        3.9369        8.0803        6.9970       15.0774      11.140499       0.00000
  18     585.0        3.7426        8.2112        6.6719       14.8831      11.140499       0.00000
  17     608.8        3.5558        8.3307        6.3655       14.6963      11.140499       0.00000
  16     632.6        3.3759        8.4400        6.0764       14.5164      11.140499      -0.00000
  15     656.4        3.1990        8.5417        5.7979       14.3395      11.140499      -0.00000
  14     680.1        3.0284        8.6341        5.5349       14.1689      11.140499       0.00000
  13     703.9        2.8636        8.7179        5.2862       14.0041      11.140499       0.00000
  12     727.7        2.7019        8.7948        5.0476       13.8424      11.140499      -0.00000
  11     751.5        2.5431        8.8650        4.8185       13.6836      11.140499       0.00000
  10     775.2        2.3890        8.9280        4.6014       13.5295      11.140499      -0.00000
   9     799.0        2.2392        8.9843        4.3954       13.3797      11.140499       0.00000
   8     822.8        2.0913        9.0349        4.1969       13.2318      11.140499       0.00000
   7     846.6        1.9469        9.0795        4.0079       13.0874      11.140499       0.00000
   6     870.4        1.8066        9.1182        3.8289       12.9471      11.140499       0.00000
   5     894.1        1.6701        9.1514        3.6591       12.8106      11.140499       0.00000
   4     917.9        1.5357        9.1797        3.4965       12.6762      11.140499       0.00000
   3     941.7        1.4037        9.2032        3.3410       12.5442      11.140499       0.00000
   2     965.5        1.2751        9.2220        3.1936       12.4156      11.140499      -0.00000
   1     989.2        1.1496        9.2364        3.0537       12.2901      11.140499      -0.00000
   0    1013.0        1.0271        9.2467        2.9210       12.1676      11.140499       0.00000



 Wavenumbers: 29000. - 38000. cm-1, ATM      1
 LEVEL PRESSURE   UPWARD FLUX   DIFDOWN FLUX  DIRDOWN FLUX  DOWNWARD FLUX   NET FLUX    HEATING RATE
          mb          W/m2          W/m2          W/m2        W/m2          W/m2       degree/day
  60   .000300        1.9596        0.0000        7.9602        7.9602       6.000555       0.00000
  59    0.1000        1.9574        0.0025        7.9239        7.9264       5.968964       2.67408
  58    0.1403        1.9566        0.0035        7.8973        7.9008       5.944195       5.18675
  57    0.1968        1.9554        0.0049        7.8512        7.8561       5.900660       6.50257
  56    0.2760        1.9538        0.0068        7.7749        7.7816       5.827846       7.75868
  55    0.3871        1.9516        0.0094        7.6577        7.6671       5.715448       8.53776
  54    0.5430        1.9487        0.0129        7.4875        7.5003       5.551583       8.87029
  53    0.7617        1.9450        0.0174        7.2481        7.2655       5.320510       8.91659
  52     1.069        1.9402        0.0232        6.9437        6.9669       5.026743       8.08067
  51     1.499        1.9343        0.0306        6.5993        6.6298       4.695559       6.49524
  50     2.102        1.9273        0.0397        6.2202        6.2599       4.332640       5.07410
  49     2.949        1.9193        0.0515        5.7974        5.8489       3.929629       4.01733
  48     4.137        1.9105        0.0663        5.3604        5.4268       3.516296       2.93717
  47     5.803        1.9006        0.0854        4.9422        5.0276       3.126991       1.97215
  46     8.139        1.8884        0.1100        4.5596        4.6697       2.781274       1.24858
  45     11.42        1.8721        0.1423        4.2076        4.3500       2.477847       0.78122
  44     16.01        1.8501        0.1843        3.8715        4.0558       2.205706       0.49952
  43     22.46        1.8202        0.2385        3.5431        3.7815       1.961290       0.31983
  42     31.51        1.7788        0.3083        3.2248        3.5331       1.754309       0.19309
  41     44.20        1.7199        0.3986        2.9149        3.3135       1.593559       0.10691
  40     62.00        1.6397        0.5125        2.5969        3.1094       1.469703       0.05872
  39     85.78        1.5357        0.6489        2.2787        2.9277       1.391966       0.02759
  38     109.5        1.4369        0.7711        2.0186        2.7897       1.352845       0.01389
  37     133.1        1.3499        0.8739        1.8019        2.6758       1.325903       0.00967
  36     156.8        1.2724        0.9616        1.6161        2.5777       1.305352       0.00729
  35     180.6        1.1965        1.0434        1.4425        2.4859       1.289426       0.00565
  34     202.8        1.1288        1.1126        1.2952        2.4078       1.278971       0.00397
  33     228.4        1.0650        1.1743        1.1615        2.3358       1.270831       0.00269
  32     252.2        1.0057        1.2281        1.0418        2.2699       1.264238       0.00234
  31     276.0        0.9511        1.2743        0.9359        2.2102       1.259095       0.00183
  30     299.8        0.9000        1.3144        0.8406        2.1549       1.254954       0.00147
  29     323.5        0.8522        1.3486        0.7550        2.1036       1.251369       0.00127
  28     347.3        0.8079        1.3773        0.6788        2.0562       1.248258       0.00110
  27     371.1        0.7668        1.4012        0.6112        2.0124       1.245582       0.00095
  26     394.9        0.7276        1.4212        0.5496        1.9708       1.243192       0.00085
  25     418.6        0.6907        1.4375        0.4942        1.9317       1.241054       0.00076
  24     442.4        0.6557        1.4503        0.4445        1.8949       1.239132       0.00068
  23     466.2        0.6225        1.4602        0.3997        1.8599       1.237407       0.00061
  22     489.9        0.5912        1.4672        0.3599        1.8271       1.235872       0.00054
  21     513.7        0.5612        1.4718        0.3238        1.7957       1.234469       0.00050
  20     537.5        0.5327        1.4742        0.2916        1.7659       1.233188       0.00045
  19     561.3        0.5055        1.4747        0.2629        1.7375       1.232015       0.00042
  18     585.0        0.4790        1.4734        0.2365        1.7099       1.230908       0.00039
  17     608.8        0.4536        1.4704        0.2131        1.6835       1.229884       0.00036
  16     632.6        0.4293        1.4661        0.1921        1.6583       1.228934       0.00034
  15     656.4        0.4055        1.4605        0.1730        1.6335       1.228032       0.00032
  14     680.1        0.3825        1.4538        0.1559        1.6097       1.227191       0.00030
  13     703.9        0.3602        1.4461        0.1406        1.5867       1.226407       0.00028
  12     727.7        0.3384        1.4374        0.1267        1.5641       1.225662       0.00026
  11     751.5        0.3169        1.4277        0.1141        1.5418       1.224955       0.00025
  10     775.2        0.2959        1.4174        0.1028        1.5202       1.224292       0.00024
   9     799.0        0.2754        1.4064        0.0927        1.4991       1.223670       0.00022
   8     822.8        0.2551        1.3947        0.0834        1.4781       1.223074       0.00021
   7     846.6        0.2350        1.3824        0.0751        1.4575       1.222506       0.00020
   6     870.4        0.2154        1.3697        0.0677        1.4374       1.221967       0.00019
   5     894.1        0.1961        1.3566        0.0610        1.4176       1.221456       0.00018
   4     917.9        0.1770        1.3430        0.0549        1.3979       1.220964       0.00017
   3     941.7        0.1580        1.3290        0.0495        1.3785       1.220493       0.00017
   2     965.5        0.1393        1.3148        0.0446        1.3594       1.220045       0.00016
   1     989.2        0.1209        1.3003        0.0402        1.3405       1.219619       0.00015
   0    1013.0        0.1027        1.2857        0.0362        1.3219       1.219213       0.00014



 Wavenumbers: 38000. - 50000. cm-1, ATM      1
 LEVEL PRESSURE   UPWARD FLUX   DIFDOWN FLUX  DIRDOWN FLUX  DOWNWARD FLUX   NET FLUX    HEATING RATE
          mb          W/m2          W/m2          W/m2        W/m2          W/m2       degree/day
  60   .000300        0.0042        0.0000        0.4910        0.4910       0.486795       0.00000
  59    0.1000        0.0036        0.0006        0.4704        0.4710       0.467371       1.64419
  58    0.1403        0.0034        0.0008        0.4560        0.4568       0.453428       2.91971
  57    0.1968        0.0031        0.0011        0.4319        0.4330       0.429878       3.51752
  56    0.2760        0.0028        0.0015        0.3938        0.3953       0.392530       3.97962
  55    0.3871        0.0024        0.0019        0.3393        0.3413       0.338884       4.07498
  54    0.5430        0.0019        0.0023        0.2689        0.2712       0.269323       3.76542
  53    0.7617        0.0014        0.0026        0.1874        0.1900       0.188603       3.11482
  52     1.069        0.0009        0.0026        0.1125        0.1151       0.114152       2.04794
  51     1.499        0.0006        0.0023        0.0610        0.0633       0.062685       1.00937
  50     2.102        0.0003        0.0017        0.0303        0.0321       0.031728       0.43282
  49     2.949        0.0002        0.0012        0.0132        0.0144       0.014251       0.17422
  48     4.137        0.0001        0.0008        0.0050        0.0059       0.005780       0.06020
  47     5.803        0.0000        0.0005        0.0015        0.0020       0.001957       0.01936
  46     8.139        0.0000        0.0003        0.0003        0.0006       0.000594       0.00492
  45     11.42        0.0000        0.0001        0.0000        0.0002       0.000187       0.00105
  44     16.01        0.0000        0.0001        0.0000        0.0001       0.000063       0.00023
  43     22.46        0.0000        0.0000        0.0000        0.0000       0.000020       0.00006
  42     31.51        0.0000        0.0000        0.0000        0.0000       0.000006       0.00001
  41     44.20        0.0000        0.0000        0.0000        0.0000       0.000001       0.00000
  40     62.00        0.0000        0.0000        0.0000        0.0000       0.000000       0.00000
  39     85.78        0.0000        0.0000        0.0000        0.0000       0.000000       0.00000
  38     109.5        0.0000        0.0000        0.0000        0.0000       0.000000       0.00000
  37     133.1        0.0000        0.0000        0.0000        0.0000       0.000000       0.00000
  36     156.8        0.0000        0.0000        0.0000        0.0000       0.000000       0.00000
  35     180.6        0.0000        0.0000        0.0000        0.0000       0.000000       0.00000
  34     202.8        0.0000        0.0000        0.0000        0.0000       0.000000       0.00000
  33     228.4        0.0000        0.0000        0.0000        0.0000       0.000000       0.00000
  32     252.2        0.0000        0.0000        0.0000        0.0000       0.000000       0.00000
  31     276.0        0.0000        0.0000        0.0000        0.0000       0.000000       0.00000
  30     299.8        0.0000        0.0000        0.0000        0.0000       0.000000       0.00000
  29     323.5        0.0000        0.0000        0.0000        0.0000       0.000000       0.00000
  28     347.3        0.0000        0.0000        0.0000        0.0000       0.000000       0.00000
  27     371.1        0.0000        0.0000        0.0000        0.0000       0.000000       0.00000
  26     394.9        0.0000        0.0000        0.0000        0.0000       0.000000       0.00000
  25     418.6        0.0000        0.0000        0.0000        0.0000       0.000000       0.00000
  24     442.4        0.0000        0.0000        0.0000        0.0000       0.000000       0.00000
  23     466.2        0.0000        0.0000        0.0000        0.0000       0.000000       0.00000
  22     489.9        0.0000        0.0000        0.0000        0.0000       0.000000       0.00000
  21     513.7        0.0000        0.0000        0.0000        0.0000       0.000000       0.00000
  20     537.5        0.0000        0.0000        0.0000        0.0000       0.000000       0.00000
  19     561.3        0.0000        0.0000        0.0000        0.0000       0.000000       0.00000
  18     585.0        0.0000        0.0000        0.0000        0.0000       0.000000       0.00000
  17     608.8        0.0000        0.0000        0.0000        0.0000       0.000000       0.00000
  16     632.6        0.0000        0.0000        0.0000        0.0000       0.000000       0.00000
  15     656.4        0.0000        0.0000        0.0000        0.0000       0.000000       0.00000
  14     680.1        0.0000        0.0000        0.0000        0.0000       0.000000       0.00000
  13     703.9        0.0000        0.0000        0.0000        0.0000       0.000000       0.00000
  12     727.7        0.0000        0.0000        0.0000        0.0000       0.000000       0.00000
  11     751.5        0.0000        0.0000        0.0000        0.0000       0.000000       0.00000
  10     775.2        0.0000        0.0000        0.0000        0.0000       0.000000       0.00000
   9     799.0        0.0000        0.0000        0.0000        0.0000       0.000000       0.00000
   8     822.8        0.0000        0.0000        0.0000        0.0000       0.000000       0.00000
   7     846.6        0.0000        0.0000        0.0000        0.0000       0.000000       0.00000
   6     870.4        0.0000        0.0000        0.0000        0.0000       0.000000       0.00000
   5     894.1        0.0000        0.0000        0.0000        0.0000       0.000000       0.00000
   4     917.9        0.0000        0.0000        0.0000        0.0000       0.000000       0.00000
   3     941.7        0.0000        0.0000        0.0000        0.0000       0.000000       0.00000
   2     965.5        0.0000        0.0000        0.0000        0.0000       0.000000       0.00000
   1     989.2        0.0000        0.0000        0.0000        0.0000       0.000000       0.00000
   0    1013.0        0.0000        0.0000        0.0000        0.0000       0.000000       0.00000



 Wavenumbers:   820. -  2600. cm-1, ATM      1
 LEVEL PRESSURE   UPWARD FLUX   DIFDOWN FLUX  DIRDOWN FLUX  DOWNWARD FLUX   NET FLUX    HEATING RATE
          mb          W/m2          W/m2          W/m2        W/m2          W/m2       degree/day
  60   .000300        0.0058        0.0000        2.2967        2.2967       2.290903       0.00000
  59    0.1000        0.0058        0.0000        2.2915        2.2915       2.285690       0.44132
  58    0.1403        0.0058        0.0000        2.2904        2.2904       2.284577       0.23289
  57    0.1968        0.0058        0.0000        2.2890        2.2890       2.283138       0.21506
  56    0.2760        0.0058        0.0000        2.2870        2.2870       2.281167       0.20996
  55    0.3871        0.0058        0.0000        2.2842        2.2842       2.278334       0.21521
  54    0.5430        0.0058        0.0000        2.2802        2.2802       2.274357       0.21528
  53    0.7617        0.0058        0.0000        2.2747        2.2747       2.268897       0.21068
  52     1.069        0.0058        0.0000        2.2673        2.2673       2.261505       0.20332
  51     1.499        0.0058        0.0000        2.2576        2.2576       2.251748       0.19136
  50     2.102        0.0058        0.0000        2.2450        2.2450       2.239162       0.17598
  49     2.949        0.0058        0.0000        2.2288        2.2288       2.223005       0.16106
  48     4.137        0.0058        0.0000        2.2084        2.2084       2.202551       0.14535
  47     5.803        0.0058        0.0000        2.1832        2.1832       2.177329       0.12777
  46     8.139        0.0058        0.0000        2.1553        2.1553       2.149488       0.10055
  45     11.42        0.0058        0.0000        2.1292        2.1292       2.123417       0.06712
  44     16.01        0.0058        0.0000        2.1060        2.1060       2.100132       0.04274
  43     22.46        0.0058        0.0000        2.0798        2.0798       2.073939       0.03427
  42     31.51        0.0058        0.0000        2.0453        2.0453       2.039443       0.03218
  41     44.20        0.0058        0.0000        2.0010        2.0010       1.995155       0.02945
  40     62.00        0.0058        0.0000        1.9473        1.9473       1.941513       0.02543
  39     85.78        0.0058        0.0000        1.8896        1.8896       1.883754       0.02050
  38     109.5        0.0058        0.0000        1.8429        1.8429       1.837108       0.01656
  37     133.1        0.0058        0.0000        1.8061        1.8061       1.800276       0.01323
  36     156.8        0.0058        0.0000        1.7766        1.7766       1.770810       0.01045
  35     180.6        0.0058        0.0000        1.7483        1.7483       1.742486       0.01006
  34     202.8        0.0058        0.0000        1.7181        1.7181       1.712330       0.01145
  33     228.4        0.0058        0.0000        1.6833        1.6834       1.677557       0.01147
  32     252.2        0.0058        0.0000        1.6390        1.6390       1.633231       0.01573
  31     276.0        0.0058        0.0000        1.5828        1.5828       1.576978       0.01997
  30     299.8        0.0058        0.0000        1.5051        1.5051       1.499271       0.02758
  29     323.5        0.0058        0.0000        1.4133        1.4133       1.407525       0.03257
  28     347.3        0.0058        0.0000        1.3210        1.3211       1.315246       0.03276
  27     371.1        0.0058        0.0000        1.2442        1.2442       1.238435       0.02726
  26     394.9        0.0058        0.0000        1.1850        1.1850       1.179221       0.02102
  25     418.6        0.0058        0.0000        1.1398        1.1399       1.134060       0.01603
  24     442.4        0.0058        0.0000        1.1010        1.1011       1.095238       0.01378
  23     466.2        0.0058        0.0000        1.0645        1.0645       1.058684       0.01298
  22     489.9        0.0058        0.0000        1.0276        1.0276       1.021756       0.01311
  21     513.7        0.0058        0.0000        0.9897        0.9897       0.983884       0.01344
  20     537.5        0.0058        0.0000        0.9522        0.9522       0.946396       0.01331
  19     561.3        0.0059        0.0000        0.9158        0.9158       0.909923       0.01295
  18     585.0        0.0059        0.0000        0.8807        0.8807       0.874848       0.01245
  17     608.8        0.0059        0.0000        0.8481        0.8481       0.842191       0.01159
  16     632.6        0.0059        0.0000        0.8172        0.8172       0.811289       0.01097
  15     656.4        0.0060        0.0000        0.7865        0.7865       0.780566       0.01091
  14     680.1        0.0060        0.0000        0.7555        0.7556       0.749593       0.01099
  13     703.9        0.0060        0.0000        0.7238        0.7238       0.717803       0.01128
  12     727.7        0.0061        0.0000        0.6896        0.6896       0.683554       0.01216
  11     751.5        0.0062        0.0000        0.6513        0.6513       0.645147       0.01363
  10     775.2        0.0063        0.0000        0.6087        0.6088       0.602503       0.01514
   9     799.0        0.0064        0.0000        0.5621        0.5621       0.555748       0.01660
   8     822.8        0.0065        0.0000        0.5129        0.5129       0.506385       0.01752
   7     846.6        0.0067        0.0000        0.4659        0.4659       0.459217       0.01674
   6     870.4        0.0069        0.0000        0.4216        0.4217       0.414778       0.01577
   5     894.1        0.0071        0.0000        0.3803        0.3803       0.373198       0.01476
   4     917.9        0.0073        0.0000        0.3414        0.3414       0.334068       0.01389
   3     941.7        0.0076        0.0000        0.3048        0.3048       0.297232       0.01308
   2     965.5        0.0079        0.0000        0.2706        0.2706       0.262751       0.01224
   1     989.2        0.0082        0.0000        0.2389        0.2389       0.230702       0.01137
   0    1013.0        0.0086        0.0000        0.2097        0.2097       0.201178       0.01048

  Modules and versions used in this calculation:

       rrtmg_sw.1col.f90:  $Revision$                    rrtmg_sw_init.f90:  $Revision$        
     rrtmgsw_cldprop.f90:  $Revision$                  rrtmgsw_cldprmc.f90:  NOT USED          
     rrtmg_sw_reftra.f90:  $Revision$                  rrtmg_sw_spcvrt.f90:  NOT USED          
     rrtmg_sw_spcvmc.f90:  NOT USED                    rrtmgsw_setcoef.f90:  NOT USED          
     rrtmg_sw_taumol.f90:  $Revision$                  rrtmg_sw_vrtqdr.f90:  NOT USED          
                rrtatm.f:  NOT USED                             util_xxx.f:  NOT USED          
                 extra.f:  NOT USED                       rrtmg_sw_k_g.f90:  $Revision$        

