

 Wavenumbers:   820. - 50000. cm-1, ATM      1
 LEVEL PRESSURE   UPWARD FLUX   DIFDOWN FLUX  DIRDOWN FLUX  DOWNWARD FLUX   NET FLUX    HEATING RATE
          mb          W/m2          W/m2          W/m2        W/m2          W/m2       degree/day
  51    .06700      442.7420        0.0000      617.8126      617.8126     175.070621       0.00000
  50    .07753      442.7416        0.0014      617.7947      617.7961     175.054478      12.93817
  49    .09103      442.7411        0.0030      617.7778      617.7808     175.039666       9.25816
  48    0.1069      442.7407        0.0050      617.7581      617.7631     175.022401       9.19009
  47    0.1255      442.7402        0.0072      617.7340      617.7412     175.001053       9.67846
  46    0.1487      442.7396        0.0101      617.7009      617.7109     174.971362      10.82271
  45    0.1794      442.7389        0.0139      617.6521      617.6660     174.927123      12.14461
  44    0.2165      442.7382        0.0185      617.5895      617.6079     174.869791      13.04189
  43    0.2613      442.7375        0.0238      617.5089      617.5327     174.795266      14.04779
  42    0.3336      442.7366        0.0327      617.3641      617.3968     174.660157      15.75233
  41    0.4307      442.7360        0.0443      617.1591      617.2035     174.467500      16.75113
  40    0.5894      442.7358        0.0631      616.8005      616.8636     174.127746      18.06766
  39     1.339      442.7536        0.1481      614.9443      615.0924     172.338725      20.14113
  38     1.782      442.7768        0.1959      613.9670      614.1629     171.386148      18.13553
  37     2.292      442.8151        0.2503      613.0059      613.2562     170.441108      15.65233
  36     5.035      442.9281        0.3431      611.5124      611.8555     168.927404       4.65726
  35     6.613      443.1720        0.5068      609.6144      610.1213     166.949232      10.57531
  34     8.786      443.4904        0.7266      607.8253      608.5519     165.061514       7.33121
  33     11.80      443.9029        1.0390      605.8783      606.9173     163.014353       5.73141
  32     15.07      444.2958        1.3719      604.1777      605.5496     161.253869       4.54523
  31     18.79      444.6947        1.7462      602.5196      604.2658     159.571107       3.81534
  30     23.16      445.1089        2.1809      600.8127      602.9936     157.884679       3.26101
  29     28.12      445.5220        2.6756      599.0712      601.7467     156.224725       2.82181
  28     33.73      445.8955        3.2268      597.3500      600.5768     154.681370       2.32048
  27     40.54      446.2432        3.8903      595.5035      599.3938     153.150574       1.89913
  26     48.69      446.5622        4.6862      593.4958      598.1820     151.619832       1.58408
  25     57.69      446.8153        5.5562      591.4872      597.0434     150.228095       1.30454
  24     68.43      447.0113        6.5866      589.2939      595.8806     148.869296       1.06820
  23     81.20      447.0980        7.8082      586.9289      594.7372     147.639205       0.81283
  22     96.49      447.0653        9.2545      584.3423      593.5968     146.531550       0.61135
  21     114.6      446.9724       10.9559      581.4033      592.3591     145.386731       0.53455
  20     136.5      446.8178       12.9479      578.0541      591.0020     144.184187       0.46241
  19     162.9      446.5960       15.2855      574.1654      589.4509     142.854893       0.42490
  18     196.4      446.2212       18.2664      569.1760      587.4424     141.221231       0.41121
  17     218.7      445.9470       20.1937      565.6314      585.8251     139.878083       0.50994
  16     243.0      445.6415       22.2608      561.3129      583.5737     137.932172       0.67491
  15     269.0      445.3062       24.4691      555.9478      580.4169     135.110687       0.91528
  14     297.5      444.9468       26.8192      549.5394      576.3586     131.411875       1.09703
  13     328.5      444.5734       29.3177      542.6225      571.9402     127.366863       1.09983
  12     361.9      444.1940       31.9608      535.1469      567.1077     122.913702       1.12669
  11     398.1      443.8198       34.7530      526.9326      561.6856     117.865797       1.17605
  10     437.6      443.4728       37.6929      517.8921      555.5850     112.112201       1.23015
   9     480.5      443.1766       40.7786      508.2121      548.9907     105.814107       1.23692
   8     533.0      442.9535       44.4884      496.3783      540.8667      97.913134       1.27102
   7     589.8      442.9711       48.3810      483.5433      531.9243      88.953199       1.32995
   6     651.6      443.5245       52.4437      469.1414      521.5851      78.060666       1.48958
   5     718.7      445.0251       56.6682      453.6623      510.3305      65.305392       1.60298
   4     792.3      448.5533       61.0323      436.9145      497.9468      49.393524       1.82491
   3     825.4      325.4878      354.4504        5.0636      359.5139      34.026170       3.92243
   2     858.4      281.1542      308.9607        0.0593      309.0199      27.865734       1.57256
   1     891.5      243.0950      267.8492        0.0007      267.8499      24.754954       0.79432
   0    1013.0      244.4229      265.6139        0.0007      265.6146      21.191668       0.24742



 Wavenumbers:  2600. -  3250. cm-1, ATM      1
 LEVEL PRESSURE   UPWARD FLUX   DIFDOWN FLUX  DIRDOWN FLUX  DOWNWARD FLUX   NET FLUX    HEATING RATE
          mb          W/m2          W/m2          W/m2        W/m2          W/m2       degree/day
  51    .06700        1.8280        0.0000        5.4450        5.4450       3.617012       0.00000
  50    .07753        1.8280        0.0000        5.4450        5.4450       3.617004       0.00640
  49    .09103        1.8280        0.0000        5.4450        5.4450       3.616994       0.00627
  48    0.1069        1.8280        0.0000        5.4450        5.4450       3.616982       0.00613
  47    0.1255        1.8280        0.0000        5.4450        5.4450       3.616969       0.00599
  46    0.1487        1.8280        0.0000        5.4450        5.4450       3.616953       0.00608
  45    0.1794        1.8280        0.0000        5.4450        5.4450       3.616930       0.00625
  44    0.2165        1.8280        0.0000        5.4449        5.4449       3.616903       0.00612
  43    0.2613        1.8280        0.0000        5.4449        5.4449       3.616871       0.00600
  42    0.3336        1.8280        0.0000        5.4448        5.4448       3.616818       0.00617
  41    0.4307        1.8280        0.0000        5.4448        5.4448       3.616747       0.00620
  40    0.5894        1.8280        0.0000        5.4446        5.4446       3.616627       0.00637
  39     1.339        1.8280        0.0000        5.4439        5.4439       3.615920       0.00797
  38     1.782        1.8280        0.0000        5.4434        5.4434       3.615377       0.01034
  37     2.292        1.8280        0.0000        5.4427        5.4427       3.614661       0.01186
  36     5.035        1.8280        0.0000        5.4412        5.4412       3.613134       0.00470
  35     6.613        1.8280        0.0000        5.4381        5.4381       3.610057       0.01645
  34     8.786        1.8280        0.0000        5.4341        5.4341       3.606049       0.01556
  33     11.80        1.8280        0.0000        5.4288        5.4288       3.600803       0.01469
  32     15.07        1.8280        0.0000        5.4239        5.4239       3.595875       0.01272
  31     18.79        1.8280        0.0000        5.4191        5.4192       3.591130       0.01076
  30     23.16        1.8280        0.0000        5.4144        5.4144       3.586379       0.00919
  29     28.12        1.8280        0.0000        5.4096        5.4096       3.581543       0.00822
  28     33.73        1.8281        0.0000        5.4042        5.4042       3.576176       0.00807
  27     40.54        1.8281        0.0000        5.3972        5.3972       3.569145       0.00872
  26     48.69        1.8281        0.0000        5.3877        5.3877       3.559602       0.00988
  25     57.69        1.8281        0.0000        5.3759        5.3759       3.547758       0.01110
  24     68.43        1.8282        0.0000        5.3604        5.3604       3.532195       0.01223
  23     81.20        1.8283        0.0000        5.3405        5.3405       3.512260       0.01317
  22     96.49        1.8284        0.0000        5.3159        5.3159       3.487555       0.01364
  21     114.6        1.8285        0.0001        5.2857        5.2857       3.457173       0.01419
  20     136.5        1.8288        0.0001        5.2507        5.2508       3.422018       0.01352
  19     162.9        1.8291        0.0001        5.2113        5.2114       3.382334       0.01268
  18     196.4        1.8296        0.0001        5.1642        5.1643       3.334703       0.01199
  17     218.7        1.8301        0.0001        5.1333        5.1334       3.303219       0.01195
  16     243.0        1.8310        0.0001        5.0963        5.0964       3.265414       0.01311
  15     269.0        1.8324        0.0001        5.0512        5.0513       3.218896       0.01509
  14     297.5        1.8345        0.0001        4.9957        4.9958       3.161311       0.01708
  13     328.5        1.8374        0.0001        4.9304        4.9306       3.093162       0.01853
  12     361.9        1.8414        0.0002        4.8511        4.8513       3.009886       0.02107
  11     398.1        1.8469        0.0002        4.7507        4.7509       2.903946       0.02468
  10     437.6        1.8546        0.0002        4.6221        4.6222       2.767618       0.02915
   9     480.5        1.8653        0.0002        4.4625        4.4627       2.597399       0.03343
   8     533.0        1.8827        0.0002        4.2461        4.2463       2.363558       0.03762
   7     589.8        1.9093        0.0002        3.9954        3.9956       2.086309       0.04115
   6     651.6        1.9534        0.0002        3.7089        3.7091       1.755698       0.04521
   5     718.7        2.0265        0.0002        3.4018        3.4020       1.375542       0.04777
   4     792.3        2.1601        0.0002        3.0564        3.0567       0.896549       0.05494
   3     825.4        0.9073        1.3311        0.0316        1.3627       0.455411       0.11260
   2     858.4        0.4009        0.7078        0.0003        0.7081       0.307198       0.03783
   1     891.5        0.0017        0.2576        0.0000        0.2576       0.255923       0.01309
   0    1013.0        0.0019        0.2290        0.0000        0.2290       0.227136       0.00200



 Wavenumbers:  3250. -  4000. cm-1, ATM      1
 LEVEL PRESSURE   UPWARD FLUX   DIFDOWN FLUX  DIRDOWN FLUX  DOWNWARD FLUX   NET FLUX    HEATING RATE
          mb          W/m2          W/m2          W/m2        W/m2          W/m2       degree/day
  51    .06700        0.0487        0.0000        9.1795        9.1795       9.130812       0.00000
  50    .07753        0.0487        0.0000        9.1747        9.1747       9.125969       3.88162
  49    .09103        0.0487        0.0000        9.1713        9.1713       9.122581       2.11758
  48    0.1069        0.0487        0.0000        9.1688        9.1688       9.120056       1.34411
  47    0.1255        0.0487        0.0000        9.1665        9.1665       9.117797       1.02430
  46    0.1487        0.0487        0.0000        9.1641        9.1641       9.115355       0.88998
  45    0.1794        0.0487        0.0000        9.1612        9.1612       9.112477       0.79014
  44    0.2165        0.0487        0.0000        9.1583        9.1583       9.109556       0.66436
  43    0.2613        0.0487        0.0000        9.1553        9.1553       9.106583       0.56046
  42    0.3336        0.0487        0.0000        9.1511        9.1511       9.102404       0.48727
  41    0.4307        0.0487        0.0000        9.1464        9.1464       9.097635       0.41463
  40    0.5894        0.0487        0.0000        9.1393        9.1393       9.090629       0.37258
  39     1.339        0.0487        0.0000        9.1127        9.1127       9.064013       0.29965
  38     1.782        0.0487        0.0000        9.1011        9.1011       9.052424       0.22064
  37     2.292        0.0487        0.0000        9.0901        9.0901       9.041356       0.18331
  36     5.035        0.0487        0.0000        9.0731        9.0731       9.024424       0.05210
  35     6.613        0.0487        0.0000        9.0438        9.0439       8.995143       0.15653
  34     8.786        0.0487        0.0000        9.0058        9.0058       8.957058       0.14791
  33     11.80        0.0487        0.0000        8.9509        8.9509       8.902187       0.15362
  32     15.07        0.0487        0.0000        8.8914        8.8914       8.842708       0.15356
  31     18.79        0.0487        0.0000        8.8241        8.8242       8.775473       0.15244
  30     23.16        0.0487        0.0000        8.7473        8.7474       8.698661       0.14853
  29     28.12        0.0487        0.0000        8.6639        8.6640       8.615279       0.14174
  28     33.73        0.0487        0.0000        8.5784        8.5784       8.529769       0.12857
  27     40.54        0.0487        0.0001        8.4859        8.4860       8.437295       0.11472
  26     48.69        0.0487        0.0001        8.3873        8.3873       8.338671       0.10206
  25     57.69        0.0486        0.0001        8.2887        8.2888       8.240122       0.09238
  24     68.43        0.0486        0.0001        8.1771        8.1772       8.128604       0.08767
  23     81.20        0.0486        0.0001        8.0474        8.0475       7.998884       0.08572
  22     96.49        0.0486        0.0001        7.8963        7.8965       7.847871       0.08335
  21     114.6        0.0486        0.0001        7.7173        7.7174       7.668861       0.08359
  20     136.5        0.0486        0.0002        7.5201        7.5203       7.471745       0.07580
  19     162.9        0.0485        0.0002        7.2919        7.2921       7.243615       0.07292
  18     196.4        0.0485        0.0002        6.9664        6.9666       6.918102       0.08194
  17     218.7        0.0485        0.0002        6.6650        6.6652       6.616747       0.11441
  16     243.0        0.0485        0.0002        6.2620        6.2622       6.213767       0.13977
  15     269.0        0.0485        0.0003        5.7575        5.7578       5.709270       0.16366
  14     297.5        0.0486        0.0003        5.1717        5.1720       5.123367       0.17377
  13     328.5        0.0488        0.0002        4.5755        4.5757       4.526951       0.16216
  12     361.9        0.0490        0.0002        3.9992        3.9995       3.950413       0.14587
  11     398.1        0.0495        0.0002        3.4651        3.4653       3.415813       0.12455
  10     437.6        0.0503        0.0002        2.9736        2.9738       2.923509       0.10526
   9     480.5        0.0517        0.0002        2.5303        2.5305       2.478786       0.08734
   8     533.0        0.0543        0.0002        2.0610        2.0612       2.006910       0.07591
   7     589.8        0.0590        0.0002        1.6146        1.6148       1.555778       0.06696
   6     651.6        0.0689        0.0001        1.1562        1.1563       1.087385       0.06405
   5     718.7        0.0908        0.0001        0.7388        0.7389       0.648114       0.05520
   4     792.3        0.1491        0.0001        0.3984        0.3984       0.249294       0.04574
   3     825.4        0.0121        0.0368        0.0015        0.0383       0.026155       0.05696
   2     858.4        0.0013        0.0044        0.0000        0.0044       0.003060       0.00590
   1     891.5        0.0000        0.0004        0.0000        0.0004       0.000441       0.00067
   0    1013.0        0.0000        0.0000        0.0000        0.0000       0.000045       0.00003



 Wavenumbers:  4000. -  4650. cm-1, ATM      1
 LEVEL PRESSURE   UPWARD FLUX   DIFDOWN FLUX  DIRDOWN FLUX  DOWNWARD FLUX   NET FLUX    HEATING RATE
          mb          W/m2          W/m2          W/m2        W/m2          W/m2       degree/day
  51    .06700        6.1088        0.0000       10.7795       10.7795       4.670760       0.00000
  50    .07753        6.1088        0.0000       10.7795       10.7795       4.670759       0.00080
  49    .09103        6.1088        0.0000       10.7795       10.7795       4.670757       0.00078
  48    0.1069        6.1088        0.0000       10.7795       10.7795       4.670756       0.00077
  47    0.1255        6.1088        0.0000       10.7795       10.7795       4.670754       0.00075
  46    0.1487        6.1088        0.0000       10.7795       10.7795       4.670752       0.00076
  45    0.1794        6.1088        0.0000       10.7795       10.7795       4.670749       0.00078
  44    0.2165        6.1088        0.0000       10.7795       10.7795       4.670746       0.00076
  43    0.2613        6.1088        0.0000       10.7795       10.7795       4.670742       0.00075
  42    0.3336        6.1088        0.0000       10.7795       10.7795       4.670736       0.00077
  41    0.4307        6.1088        0.0000       10.7795       10.7795       4.670727       0.00077
  40    0.5894        6.1088        0.0000       10.7795       10.7795       4.670712       0.00080
  39     1.339        6.1088        0.0000       10.7794       10.7794       4.670622       0.00101
  38     1.782        6.1088        0.0000       10.7793       10.7793       4.670552       0.00133
  37     2.292        6.1088        0.0000       10.7792       10.7792       4.670458       0.00156
  36     5.035        6.1088        0.0000       10.7790       10.7790       4.670249       0.00064
  35     6.613        6.1088        0.0000       10.7785       10.7786       4.669796       0.00242
  34     8.786        6.1088        0.0000       10.7779       10.7779       4.669126       0.00260
  33     11.80        6.1088        0.0000       10.7768       10.7768       4.668073       0.00295
  32     15.07        6.1088        0.0001       10.7755       10.7756       4.666838       0.00319
  31     18.79        6.1088        0.0001       10.7740       10.7741       4.665343       0.00339
  30     23.16        6.1088        0.0001       10.7722       10.7723       4.663485       0.00359
  29     28.12        6.1088        0.0001       10.7699       10.7700       4.661235       0.00382
  28     33.73        6.1088        0.0002       10.7671       10.7673       4.658459       0.00417
  27     40.54        6.1088        0.0002       10.7633       10.7635       4.654690       0.00468
  26     48.69        6.1089        0.0002       10.7583       10.7586       4.649663       0.00520
  25     57.69        6.1090        0.0003       10.7524       10.7527       4.643697       0.00559
  24     68.43        6.1091        0.0003       10.7450       10.7453       4.636211       0.00589
  23     81.20        6.1093        0.0004       10.7359       10.7363       4.626978       0.00610
  22     96.49        6.1096        0.0005       10.7249       10.7253       4.615724       0.00621
  21     114.6        6.1100        0.0005       10.7111       10.7116       4.601621       0.00658
  20     136.5        6.1106        0.0007       10.6945       10.6952       4.584592       0.00655
  19     162.9        6.1115        0.0008       10.6744       10.6751       4.563654       0.00669
  18     196.4        6.1130        0.0009       10.6467       10.6476       4.534655       0.00730
  17     218.7        6.1143        0.0010       10.6258       10.6268       4.512515       0.00841
  16     243.0        6.1162        0.0012       10.5983       10.5995       4.483262       0.01015
  15     269.0        6.1191        0.0013       10.5613       10.5626       4.443516       0.01289
  14     297.5        6.1233        0.0014       10.5122       10.5136       4.390253       0.01580
  13     328.5        6.1291        0.0016       10.4501       10.4516       4.322507       0.01842
  12     361.9        6.1367        0.0017       10.3704       10.3721       4.235331       0.02206
  11     398.1        6.1463        0.0019       10.2679       10.2698       4.123500       0.02605
  10     437.6        6.1585        0.0020       10.1391       10.1412       3.982627       0.03012
   9     480.5        6.1742        0.0022        9.9878        9.9900       3.815820       0.03276
   8     533.0        6.1983        0.0024        9.7937        9.7962       3.597857       0.03506
   7     589.8        6.2332        0.0026        9.5752        9.5778       3.344602       0.03759
   6     651.6        6.2896        0.0028        9.2958        9.2987       3.009054       0.04589
   5     718.7        6.3846        0.0031        8.9267        8.9298       2.545190       0.05829
   4     792.3        6.5636        0.0032        8.4542        8.4575       1.893862       0.07470
   3     825.4        3.2021        4.3791        0.0954        4.4744       1.272382       0.15863
   2     858.4        1.5452        2.5984        0.0011        2.5995       1.054316       0.05567
   1     891.5        0.0622        1.0350        0.0000        1.0350       0.972833       0.02081
   0    1013.0        0.0648        0.9850        0.0000        0.9850       0.920165       0.00366



 Wavenumbers:  4650. -  5150. cm-1, ATM      1
 LEVEL PRESSURE   UPWARD FLUX   DIFDOWN FLUX  DIRDOWN FLUX  DOWNWARD FLUX   NET FLUX    HEATING RATE
          mb          W/m2          W/m2          W/m2        W/m2          W/m2       degree/day
  51    .06700        4.3795        0.0000       10.2033       10.2033       5.823881       0.00000
  50    .07753        4.3795        0.0000       10.2031       10.2031       5.823645       0.18901
  49    .09103        4.3795        0.0000       10.2028       10.2028       5.823351       0.18428
  48    0.1069        4.3795        0.0000       10.2025       10.2025       5.823014       0.17931
  47    0.1255        4.3795        0.0000       10.2021       10.2021       5.822629       0.17426
  46    0.1487        4.3795        0.0000       10.2016       10.2016       5.822148       0.17536
  45    0.1794        4.3795        0.0000       10.2010       10.2010       5.821498       0.17850
  44    0.2165        4.3795        0.0000       10.2002       10.2002       5.820739       0.17277
  43    0.2613        4.3795        0.0000       10.1993       10.1993       5.819853       0.16690
  42    0.3336        4.3795        0.0000       10.1979       10.1979       5.818421       0.16702
  41    0.4307        4.3795        0.0000       10.1960       10.1960       5.816580       0.16002
  40    0.5894        4.3795        0.0000       10.1932       10.1932       5.813706       0.15283
  39     1.339        4.3795        0.0000       10.1816       10.1816       5.802114       0.13051
  38     1.782        4.3795        0.0000       10.1760       10.1760       5.796585       0.10527
  37     2.292        4.3795        0.0000       10.1706       10.1706       5.791128       0.09038
  36     5.035        4.3795        0.0000       10.1630       10.1630       5.783541       0.02334
  35     6.613        4.3795        0.0000       10.1533       10.1533       5.773832       0.05190
  34     8.786        4.3795        0.0000       10.1442       10.1442       5.764739       0.03532
  33     11.80        4.3795        0.0001       10.1340       10.1341       5.754591       0.02841
  32     15.07        4.3795        0.0001       10.1237       10.1238       5.744318       0.02652
  31     18.79        4.3795        0.0001       10.1115       10.1117       5.732116       0.02767
  30     23.16        4.3796        0.0002       10.0961       10.0963       5.716650       0.02991
  29     28.12        4.3797        0.0002       10.0769       10.0771       5.697371       0.03277
  28     33.73        4.3798        0.0002       10.0536       10.0538       5.674052       0.03506
  27     40.54        4.3800        0.0003       10.0235       10.0238       5.643849       0.03747
  26     48.69        4.3802        0.0003        9.9852        9.9855       5.605279       0.03991
  25     57.69        4.3805        0.0004        9.9414        9.9418       5.561266       0.04126
  24     68.43        4.3809        0.0005        9.8884        9.8889       5.507927       0.04193
  23     81.20        4.3815        0.0005        9.8258        9.8263       5.444765       0.04174
  22     96.49        4.3824        0.0007        9.7537        9.7544       5.371978       0.04017
  21     114.6        4.3835        0.0008        9.6735        9.6743       5.290715       0.03794
  20     136.5        4.3852        0.0009        9.5870        9.5879       5.202764       0.03382
  19     162.9        4.3874        0.0011        9.4949        9.4960       5.108611       0.03010
  18     196.4        4.3908        0.0013        9.3889        9.3902       4.999334       0.02751
  17     218.7        4.3936        0.0014        9.3234        9.3248       4.931278       0.02584
  16     243.0        4.3971        0.0016        9.2524        9.2540       4.856875       0.02581
  15     269.0        4.4018        0.0017        9.1720        9.1737       4.771924       0.02756
  14     297.5        4.4084        0.0019        9.0765        9.0785       4.670060       0.03021
  13     328.5        4.4170        0.0021        8.9652        8.9673       4.550285       0.03257
  12     361.9        4.4281        0.0023        8.8351        8.8374       4.409285       0.03567
  11     398.1        4.4426        0.0025        8.6822        8.6847       4.242121       0.03895
  10     437.6        4.4614        0.0027        8.5030        8.5057       4.044301       0.04230
   9     480.5        4.4858        0.0029        8.2950        8.2979       3.812044       0.04561
   8     533.0        4.5232        0.0031        8.0210        8.0242       3.500981       0.05004
   7     589.8        4.5752        0.0034        7.7064        7.7098       3.134626       0.05438
   6     651.6        4.6523        0.0036        7.3413        7.3449       2.692610       0.06045
   5     718.7        4.7692        0.0038        6.9387        6.9425       2.173296       0.06526
   4     792.3        4.9567        0.0040        6.5066        6.5106       1.553988       0.07103
   3     825.4        2.3243        3.2470        0.0726        3.3196       0.995370       0.14258
   2     858.4        1.0845        1.8627        0.0008        1.8635       0.779057       0.05522
   1     891.5        0.0114        0.7110        0.0000        0.7110       0.699593       0.02029
   0    1013.0        0.0120        0.6695        0.0000        0.6695       0.657479       0.00292



 Wavenumbers:  5150. -  6150. cm-1, ATM      1
 LEVEL PRESSURE   UPWARD FLUX   DIFDOWN FLUX  DIRDOWN FLUX  DOWNWARD FLUX   NET FLUX    HEATING RATE
          mb          W/m2          W/m2          W/m2        W/m2          W/m2       degree/day
  51    .06700       10.5351        0.0000       25.5798       25.5798      15.044677       0.00000
  50    .07753       10.5351        0.0000       25.5798       25.5798      15.044638       0.03162
  49    .09103       10.5351        0.0000       25.5797       25.5797      15.044587       0.03210
  48    0.1069       10.5351        0.0000       25.5797       25.5797      15.044525       0.03261
  47    0.1255       10.5351        0.0000       25.5796       25.5796      15.044452       0.03311
  46    0.1487       10.5351        0.0000       25.5795       25.5795      15.044357       0.03488
  45    0.1794       10.5351        0.0000       25.5794       25.5794      15.044221       0.03713
  44    0.2165       10.5351        0.0000       25.5792       25.5792      15.044056       0.03769
  43    0.2613       10.5351        0.0000       25.5790       25.5790      15.043853       0.03827
  42    0.3336       10.5351        0.0000       25.5786       25.5786      15.043506       0.04043
  41    0.4307       10.5351        0.0000       25.5782       25.5782      15.043035       0.04097
  40    0.5894       10.5351        0.0000       25.5774       25.5774      15.042245       0.04198
  39     1.339       10.5351        0.0000       25.5735       25.5736      15.038441       0.04282
  38     1.782       10.5351        0.0001       25.5713       25.5714      15.036226       0.04217
  37     2.292       10.5351        0.0001       25.5688       25.5688      15.033719       0.04153
  36     5.035       10.5351        0.0001       25.5647       25.5647      15.029620       0.01261
  35     6.613       10.5351        0.0001       25.5576       25.5578      15.022632       0.03736
  34     8.786       10.5352        0.0002       25.5485       25.5487      15.013576       0.03517
  33     11.80       10.5352        0.0003       25.5362       25.5365      15.001328       0.03429
  32     15.07       10.5352        0.0004       25.5239       25.5243      14.989044       0.03171
  31     18.79       10.5353        0.0005       25.5110       25.5115      14.976201       0.02912
  30     23.16       10.5354        0.0007       25.4971       25.4977      14.962365       0.02675
  29     28.12       10.5355        0.0008       25.4824       25.4832      14.947775       0.02480
  28     33.73       10.5356        0.0010       25.4676       25.4686      14.932983       0.02224
  27     40.54       10.5358        0.0012       25.4514       25.4526      14.916797       0.02008
  26     48.69       10.5361        0.0015       25.4341       25.4355      14.899449       0.01795
  25     57.69       10.5365        0.0018       25.4169       25.4187      14.882210       0.01616
  24     68.43       10.5369        0.0021       25.3983       25.4004      14.863479       0.01473
  23     81.20       10.5375        0.0025       25.3779       25.3804      14.842858       0.01363
  22     96.49       10.5383        0.0030       25.3550       25.3579      14.819685       0.01279
  21     114.6       10.5392        0.0036       25.3288       25.3323      14.793128       0.01240
  20     136.5       10.5403        0.0042       25.2983       25.3026      14.762251       0.01187
  19     162.9       10.5417        0.0050       25.2537       25.2587      14.717003       0.01446
  18     196.4       10.5437        0.0061       25.1601       25.1662      14.622528       0.02378
  17     218.7       10.5451        0.0067       25.0164       25.0231      14.477998       0.05487
  16     243.0       10.5468        0.0074       24.7092       24.7167      14.169815       0.10689
  15     269.0       10.5491        0.0081       24.1621       24.1702      13.621154       0.17798
  14     297.5       10.5521        0.0088       23.4546       23.4634      12.911292       0.21054
  13     328.5       10.5560        0.0095       22.7357       22.7451      12.189103       0.19636
  12     361.9       10.5612        0.0102       21.9226       21.9328      11.371553       0.20685
  11     398.1       10.5682        0.0109       20.9941       21.0050      10.436744       0.21779
  10     437.6       10.5779        0.0115       19.9835       19.9950       9.417161       0.21799
   9     480.5       10.5912        0.0121       18.9485       18.9606       8.369447       0.20577
   8     533.0       10.6137        0.0129       17.7798       17.7926       7.178939       0.19151
   7     589.8       10.6501        0.0136       16.6727       16.6863       6.036246       0.16961
   6     651.6       10.7166        0.0144       15.6344       15.6488       4.932247       0.15097
   5     718.7       10.8383        0.0152       14.7739       14.7891       3.950803       0.12334
   4     792.3       11.0815        0.0161       14.0292       14.0454       2.963893       0.11319
   3     825.4        5.5598        7.4928        0.1601        7.6528       2.093046       0.22228
   2     858.4        2.7417        4.5496        0.0019        4.5515       1.809817       0.07230
   1     891.5        0.1430        1.8582        0.0000        1.8582       1.715226       0.02415
   0    1013.0        0.1461        1.8042        0.0000        1.8042       1.658083       0.00397



 Wavenumbers:  6150. -  7700. cm-1, ATM      1
 LEVEL PRESSURE   UPWARD FLUX   DIFDOWN FLUX  DIRDOWN FLUX  DOWNWARD FLUX   NET FLUX    HEATING RATE
          mb          W/m2          W/m2          W/m2        W/m2          W/m2       degree/day
  51    .06700       16.7177        0.0000       47.3109       47.3109      30.593206       0.00000
  50    .07753       16.7177        0.0000       47.3108       47.3108      30.593149       0.04553
  49    .09103       16.7177        0.0000       47.3107       47.3107      30.593075       0.04583
  48    0.1069       16.7177        0.0000       47.3106       47.3106      30.592989       0.04614
  47    0.1255       16.7176        0.0000       47.3105       47.3105      30.592886       0.04645
  46    0.1487       16.7176        0.0000       47.3104       47.3104      30.592753       0.04852
  45    0.1794       16.7176        0.0000       47.3102       47.3102      30.592566       0.05127
  44    0.2165       16.7176        0.0000       47.3100       47.3100      30.592339       0.05167
  43    0.2613       16.7176        0.0000       47.3097       47.3097      30.592063       0.05210
  42    0.3336       16.7176        0.0000       47.3092       47.3092      30.591594       0.05471
  41    0.4307       16.7176        0.0000       47.3085       47.3086      30.590959       0.05521
  40    0.5894       16.7176        0.0001       47.3074       47.3075      30.589899       0.05633
  39     1.339       16.7176        0.0002       47.3022       47.3024      30.584807       0.05733
  38     1.782       16.7175        0.0002       47.2991       47.2994      30.581837       0.05655
  37     2.292       16.7175        0.0003       47.2956       47.2959      30.578461       0.05591
  36     5.035       16.7174        0.0004       47.2899       47.2903      30.572886       0.01715
  35     6.613       16.7173        0.0006       47.2800       47.2806      30.563310       0.05119
  34     8.786       16.7171        0.0009       47.2670       47.2679      30.550766       0.04872
  33     11.80       16.7169        0.0013       47.2491       47.2504      30.533529       0.04826
  32     15.07       16.7166        0.0017       47.2308       47.2325      30.515905       0.04550
  31     18.79       16.7163        0.0022       47.2112       47.2134      30.497069       0.04271
  30     23.16       16.7160        0.0028       47.1895       47.1923      30.476292       0.04018
  29     28.12       16.7156        0.0034       47.1661       47.1695      30.453889       0.03808
  28     33.73       16.7152        0.0041       47.1416       47.1457      30.430550       0.03509
  27     40.54       16.7146        0.0050       47.1141       47.1191      30.404458       0.03237
  26     48.69       16.7140        0.0061       47.0837       47.0897      30.375719       0.02974
  25     57.69       16.7133        0.0072       47.0527       47.0599      30.346623       0.02727
  24     68.43       16.7125        0.0086       47.0183       47.0269      30.314383       0.02535
  23     81.20       16.7115        0.0103       46.9796       46.9899      30.278356       0.02381
  22     96.49       16.7103        0.0122       46.9356       46.9478      30.237450       0.02258
  21     114.6       16.7090        0.0146       46.8846       46.8992      30.190218       0.02205
  20     136.5       16.7073        0.0173       46.8250       46.8423      30.134962       0.02125
  19     162.9       16.7054        0.0206       46.7403       46.7610      30.055545       0.02538
  18     196.4       16.7031        0.0249       46.5732       46.5981      29.895028       0.04040
  17     218.7       16.7018        0.0276       46.3491       46.3767      29.674999       0.08354
  16     243.0       16.7006        0.0305       45.9309       45.9614      29.260774       0.14367
  15     269.0       16.7002        0.0334       45.1716       45.2050      28.504820       0.24523
  14     297.5       16.7011        0.0363       44.0121       44.0483      27.347283       0.34331
  13     328.5       16.7038        0.0392       42.7247       42.7639      26.060093       0.34998
  12     361.9       16.7092        0.0421       41.3543       41.3965      24.687223       0.34735
  11     398.1       16.7190        0.0451       39.7956       39.8407      23.121649       0.36474
  10     437.6       16.7358        0.0478       37.9951       38.0429      21.307126       0.38796
   9     480.5       16.7627        0.0504       36.0650       36.1154      19.352726       0.38384
   8     533.0       16.8136        0.0533       33.7776       33.8308      17.017208       0.37571
   7     589.8       16.9026        0.0559       31.4085       31.4643      14.561709       0.36448
   6     651.6       17.0744        0.0580       28.8836       28.9416      11.867243       0.36848
   5     718.7       17.4021        0.0599       26.4106       26.4705       9.068370       0.35174
   4     792.3       18.0938        0.0615       24.0058       24.0673       5.973538       0.35494
   3     825.4        8.6133       11.8394        0.2601       12.0995       3.486222       0.63487
   2     858.4        4.2346        6.9905        0.0029        6.9934       2.758866       0.18567
   1     891.5        0.3965        2.9072        0.0000        2.9072       2.510691       0.06337
   0    1013.0        0.4124        2.7625        0.0000        2.7626       2.350104       0.01115



 Wavenumbers:  7700. -  8050. cm-1, ATM      1
 LEVEL PRESSURE   UPWARD FLUX   DIFDOWN FLUX  DIRDOWN FLUX  DOWNWARD FLUX   NET FLUX    HEATING RATE
          mb          W/m2          W/m2          W/m2        W/m2          W/m2       degree/day
  51    .06700        7.9341        0.0000       11.1810       11.1810       3.246845       0.00000
  50    .07753        7.9341        0.0000       11.1809       11.1809       3.246822       0.01867
  49    .09103        7.9341        0.0000       11.1809       11.1809       3.246792       0.01829
  48    0.1069        7.9341        0.0000       11.1809       11.1809       3.246759       0.01791
  47    0.1255        7.9341        0.0000       11.1809       11.1809       3.246720       0.01753
  46    0.1487        7.9342        0.0000       11.1808       11.1808       3.246671       0.01778
  45    0.1794        7.9342        0.0000       11.1808       11.1808       3.246605       0.01830
  44    0.2165        7.9342        0.0000       11.1807       11.1807       3.246526       0.01795
  43    0.2613        7.9342        0.0000       11.1806       11.1806       3.246432       0.01762
  42    0.3336        7.9342        0.0000       11.1805       11.1805       3.246278       0.01802
  41    0.4307        7.9343        0.0000       11.1803       11.1804       3.246073       0.01783
  40    0.5894        7.9344        0.0000       11.1801       11.1801       3.245738       0.01781
  39     1.339        7.9347        0.0001       11.1788       11.1789       3.244153       0.01784
  38     1.782        7.9349        0.0001       11.1781       11.1782       3.243222       0.01772
  37     2.292        7.9352        0.0001       11.1772       11.1773       3.242145       0.01784
  36     5.035        7.9356        0.0002       11.1757       11.1759       3.240276       0.00575
  35     6.613        7.9364        0.0003       11.1731       11.1733       3.236955       0.01775
  34     8.786        7.9374        0.0004       11.1695       11.1699       3.232482       0.01737
  33     11.80        7.9389        0.0006       11.1644       11.1650       3.226086       0.01791
  32     15.07        7.9405        0.0008       11.1589       11.1597       3.219222       0.01772
  31     18.79        7.9423        0.0010       11.1528       11.1538       3.211475       0.01757
  30     23.16        7.9444        0.0013       11.1456       11.1468       3.202434       0.01748
  29     28.12        7.9468        0.0016       11.1374       11.1389       3.192109       0.01755
  28     33.73        7.9496        0.0019       11.1282       11.1301       3.180571       0.01735
  27     40.54        7.9529        0.0023       11.1172       11.1195       3.166657       0.01726
  26     48.69        7.9569        0.0028       11.1040       11.1068       3.149922       0.01732
  25     57.69        7.9613        0.0033       11.0896       11.0929       3.131590       0.01718
  24     68.43        7.9666        0.0040       11.0725       11.0765       3.109828       0.01711
  23     81.20        7.9730        0.0047       11.0523       11.0570       3.084003       0.01706
  22     96.49        7.9807        0.0056       11.0284       11.0341       3.053374       0.01690
  21     114.6        7.9899        0.0067       11.0004       11.0071       3.017207       0.01689
  20     136.5        8.0009        0.0080       10.9676       10.9755       2.974612       0.01638
  19     162.9        8.0143        0.0095       10.9290       10.9385       2.924251       0.01610
  18     196.4        8.0319        0.0115       10.8799       10.8914       2.859486       0.01630
  17     218.7        8.0437        0.0127       10.8482       10.8609       2.817229       0.01604
  16     243.0        8.0567        0.0141       10.8140       10.8282       2.771477       0.01587
  15     269.0        8.0710        0.0156       10.7774       10.7931       2.722015       0.01605
  14     297.5        8.0869        0.0173       10.7382       10.7555       2.668557       0.01586
  13     328.5        8.1045        0.0190       10.6962       10.7152       2.610715       0.01573
  12     361.9        8.1240        0.0209       10.6512       10.6722       2.548186       0.01582
  11     398.1        8.1457        0.0230       10.6031       10.6261       2.480357       0.01580
  10     437.6        8.1700        0.0252       10.5513       10.5765       2.406465       0.01580
   9     480.5        8.1974        0.0275       10.4956       10.5232       2.325787       0.01584
   8     533.0        8.2330        0.0304       10.4264       10.4568       2.223809       0.01641
   7     589.8        8.2746        0.0335       10.3500       10.3835       2.108884       0.01706
   6     651.6        8.3245        0.0368       10.2633       10.3002       1.975679       0.01822
   5     718.7        8.3857        0.0404       10.1637       10.2040       1.818348       0.01977
   4     792.3        8.4636        0.0441       10.0457       10.0898       1.626269       0.02203
   3     825.4        4.7109        6.0057        0.1205        6.1262       1.415259       0.05386
   2     858.4        2.7217        4.0107        0.0014        4.0121       1.290417       0.03187
   1     891.5        0.8664        2.0897        0.0000        2.0897       1.223377       0.01712
   0    1013.0        0.8834        2.0477        0.0000        2.0477       1.164305       0.00410



 Wavenumbers:  8050. - 12850. cm-1, ATM      1
 LEVEL PRESSURE   UPWARD FLUX   DIFDOWN FLUX  DIRDOWN FLUX  DOWNWARD FLUX   NET FLUX    HEATING RATE
          mb          W/m2          W/m2          W/m2        W/m2          W/m2       degree/day
  51    .06700      106.0624        0.0000      156.5418      156.5418      50.479361       0.00000
  50    .07753      106.0624        0.0000      156.5417      156.5417      50.479361       0.00000
  49    .09103      106.0624        0.0001      156.5417      156.5417      50.479361       0.00000
  48    0.1069      106.0623        0.0001      156.5416      156.5417      50.479361       0.00000
  47    0.1255      106.0623        0.0002      156.5415      156.5417      50.479361      -0.00000
  46    0.1487      106.0623        0.0002      156.5414      156.5417      50.479361       0.00000
  45    0.1794      106.0623        0.0003      156.5413      156.5416      50.479361       0.00000
  44    0.2165      106.0622        0.0004      156.5412      156.5416      50.479361      -0.00000
  43    0.2613      106.0622        0.0006      156.5410      156.5416      50.479361       0.00000
  42    0.3336      106.0621        0.0008      156.5407      156.5415      50.479361      -0.00000
  41    0.4307      106.0620        0.0011      156.5403      156.5414      50.479361      -0.00000
  40    0.5894      106.0619        0.0015      156.5397      156.5412      50.479361      -0.00000
  39     1.339      106.0611        0.0037      156.5367      156.5405      50.479361       0.00000
  38     1.782      106.0607        0.0050      156.5350      156.5400      50.479361       0.00000
  37     2.292      106.0602        0.0065      156.5330      156.5395      50.479361       0.00000
  36     5.035      106.0593        0.0091      156.5295      156.5386      50.479361      -0.00000
  35     6.613      106.0577        0.0138      156.5233      156.5370      50.479361      -0.00000
  34     8.786      106.0556        0.0200      156.5149      156.5349      50.479361       0.00000
  33     11.80      106.0525        0.0289      156.5029      156.5319      50.479361       0.00000
  32     15.07      106.0492        0.0385      156.4901      156.5286      50.479361       0.00000
  31     18.79      106.0455        0.0494      156.4755      156.5249      50.479361      -0.00000
  30     23.16      106.0412        0.0621      156.4585      156.5205      50.479361       0.00000
  29     28.12      106.0362        0.0766      156.4390      156.5156      50.479361       0.00000
  28     33.73      106.0306        0.0929      156.4171      156.5100      50.479361       0.00000
  27     40.54      106.0239        0.1125      156.3907      156.5032      50.479361       0.00000
  26     48.69      106.0158        0.1363      156.3588      156.4951      50.479361      -0.00000
  25     57.69      106.0068        0.1625      156.3237      156.4862      50.479361       0.00000
  24     68.43      105.9961        0.1937      156.2818      156.4755      50.479361       0.00000
  23     81.20      105.9834        0.2309      156.2319      156.4627      50.479361       0.00000
  22     96.49      105.9682        0.2753      156.1722      156.4475      50.479361      -0.00000
  21     114.6      105.9503        0.3282      156.0952      156.4234      50.473095       0.00293
  20     136.5      105.9291        0.3910      156.0034      156.3944      50.465324       0.00299
  19     162.9      105.9038        0.4659      155.8903      156.3562      50.452441       0.00412
  18     196.4      105.8711        0.5634      155.7272      156.2905      50.419473       0.00830
  17     218.7      105.8500        0.6274      155.5805      156.2080      50.358025       0.02333
  16     243.0      105.8281        0.6971      155.3439      156.0410      50.212939       0.05032
  15     269.0      105.8069        0.7725      154.9586      155.7311      49.924197       0.09367
  14     297.5      105.7890        0.8536      154.3968      155.2504      49.461454       0.13724
  13     328.5      105.7759        0.9411      153.7223      154.6634      48.887485       0.15606
  12     361.9      105.7712        1.0351      152.9159      153.9510      48.179790       0.17905
  11     398.1      105.7804        1.1356      151.9057      153.0413      47.260859       0.21409
  10     437.6      105.8136        1.2425      150.6102      151.8527      46.039164       0.26121
   9     480.5      105.8825        1.3556      149.0084      150.3640      44.481541       0.30591
   8     533.0      106.0308        1.4925      146.7445      148.2370      42.206216       0.36603
   7     589.8      106.3087        1.6360      143.8798      145.5158      39.207073       0.44517
   6     651.6      106.8614        1.7833      140.1022      141.8855      35.024123       0.57203
   5     718.7      107.9023        1.9328      135.5343      137.4671      29.564823       0.68608
   4     792.3      109.9675        2.0809      130.0753      132.1562      22.188684       0.84596
   3     825.4       65.8440       79.0891        1.4930       80.5821      14.738076       1.90173
   2     858.4       47.0845       58.8801        0.0174       58.8975      11.813034       0.74667
   1     891.5       31.0931       41.4849        0.0002       41.4851      10.391975       0.36286
   0    1013.0       31.7521       40.4689        0.0002       40.4691       8.717043       0.11630



 Wavenumbers: 12850. - 16000. cm-1, ATM      1
 LEVEL PRESSURE   UPWARD FLUX   DIFDOWN FLUX  DIRDOWN FLUX  DOWNWARD FLUX   NET FLUX    HEATING RATE
          mb          W/m2          W/m2          W/m2        W/m2          W/m2       degree/day
  51    .06700       80.2564        0.0000       98.0872       98.0872      17.830865       0.00000
  50    .07753       80.2564        0.0001       98.0864       98.0864      17.830072       0.63508
  49    .09103       80.2564        0.0002       98.0853       98.0855      17.829077       0.62208
  48    0.1069       80.2564        0.0003       98.0841       98.0843      17.827933       0.60885
  47    0.1255       80.2564        0.0004       98.0826       98.0830      17.826619       0.59592
  46    0.1487       80.2564        0.0005       98.0809       98.0814      17.824959       0.60487
  45    0.1794       80.2565        0.0007       98.0784       98.0792      17.822701       0.61989
  44    0.2165       80.2566        0.0010       98.0756       98.0766      17.820044       0.60445
  43    0.2613       80.2567        0.0013       98.0723       98.0736      17.816918       0.58924
  42    0.3336       80.2569        0.0017       98.0670       98.0687      17.811813       0.59515
  41    0.4307       80.2573        0.0024       98.0602       98.0625      17.805208       0.57429
  40    0.5894       80.2582        0.0034       98.0496       98.0530      17.794792       0.55394
  39     1.339       80.2651        0.0082       98.0043       98.0126      17.747453       0.53295
  38     1.782       80.2714        0.0110       97.9793       97.9903      17.718944       0.54277
  37     2.292       80.2807        0.0143       97.9498       97.9641      17.683374       0.58912
  36     5.035       80.3056        0.0200       97.8891       97.9092      17.603561       0.24556
  35     6.613       80.3578        0.0301       97.7746       97.8047      17.446977       0.83710
  34     8.786       80.4257        0.0438       97.6278       97.6715      17.245833       0.78117
  33     11.80       80.5142        0.0632       97.4339       97.4971      16.982854       0.73626
  32     15.07       80.5991        0.0841       97.2433       97.3274      16.728244       0.65735
  31     18.79       80.6859        0.1076       97.0439       97.1515      16.465582       0.59554
  30     23.16       80.7768        0.1351       96.8292       96.9643      16.187526       0.53767
  29     28.12       80.8684        0.1665       96.6048       96.7713      15.902916       0.48382
  28     33.73       80.9534        0.2017       96.3831       96.5848      15.631345       0.40832
  27     40.54       81.0358        0.2441       96.1494       96.3935      15.357698       0.33949
  26     48.69       81.1153        0.2953       95.9016       96.1970      15.081623       0.28569
  25     57.69       81.1836        0.3516       95.6629       96.0145      14.830873       0.23504
  24     68.43       81.2443        0.4186       95.4149       95.8335      14.589189       0.19000
  23     81.20       81.2882        0.4985       95.1674       95.6659      14.377655       0.13978
  22     96.49       81.3144        0.5939       94.9172       95.5111      14.196662       0.09990
  21     114.6       81.3450        0.7082       94.6421       95.3504      14.005347       0.08933
  20     136.5       81.3699        0.8438       94.3324       95.1762      13.806303       0.07654
  19     162.9       81.3891        1.0052       93.9750       94.9802      13.591115       0.06878
  18     196.4       81.3919        1.2145       93.5336       94.7482      13.356282       0.05911
  17     218.7       81.3859        1.3520       93.2498       94.6018      13.215894       0.05330
  16     243.0       81.3763        1.5014       92.9420       94.4434      13.067116       0.05160
  15     269.0       81.3631        1.6633       92.6087       94.2720      12.908899       0.05132
  14     297.5       81.3471        1.8383       92.2464       94.0848      12.737684       0.05078
  13     328.5       81.3305        2.0274       91.8517       93.8791      12.548665       0.05139
  12     361.9       81.3144        2.2310       91.4219       93.6528      12.338394       0.05320
  11     398.1       81.3008        2.4500       90.9524       93.4024      12.101640       0.05516
  10     437.6       81.2931        2.6851       90.4358       93.1210      11.827852       0.05854
   9     480.5       81.2950        2.9370       89.8659       92.8029      11.507895       0.06284
   8     533.0       81.3166        3.2466       89.1347       92.3813      11.064704       0.07130
   7     589.8       81.3757        3.5794       88.2943       91.8737      10.498039       0.08411
   6     651.6       81.5114        3.9349       87.2867       91.2216       9.710233       0.10773
   5     718.7       81.7543        4.3117       86.1028       90.4145       8.660191       0.13196
   4     792.3       82.1955        4.7058       84.6812       89.3870       7.191566       0.16843
   3     825.4       60.2744       64.7262        1.0081       65.7343       5.459836       0.44201
   2     858.4       53.1565       57.5983        0.0120       57.6103       4.453764       0.25682
   1     891.5       47.3247       51.0814        0.0001       51.0816       3.756918       0.17794
   0    1013.0       47.7775       50.5420        0.0001       50.5422       2.764657       0.06890



 Wavenumbers: 16000. - 22650. cm-1, ATM      1
 LEVEL PRESSURE   UPWARD FLUX   DIFDOWN FLUX  DIRDOWN FLUX  DOWNWARD FLUX   NET FLUX    HEATING RATE
          mb          W/m2          W/m2          W/m2        W/m2          W/m2       degree/day
  51    .06700      140.1410        0.0000      156.3892      156.3892      16.248289       0.00000
  50    .07753      140.1409        0.0004      156.3887      156.3891      16.248142       0.11797
  49    .09103      140.1409        0.0009      156.3879      156.3888      16.247928       0.13380
  48    0.1069      140.1409        0.0015      156.3871      156.3885      16.247641       0.15258
  47    0.1255      140.1409        0.0021      156.3861      156.3882      16.247258       0.17392
  46    0.1487      140.1410        0.0029      156.3847      156.3877      16.246692       0.20609
  45    0.1794      140.1411        0.0041      156.3828      156.3869      16.245808       0.24266
  44    0.2165      140.1413        0.0054      156.3805      156.3859      16.244610       0.27272
  43    0.2613      140.1416        0.0070      156.3776      156.3846      16.242983       0.30660
  42    0.3336      140.1424        0.0096      156.3726      156.3823      16.239891       0.36056
  41    0.4307      140.1436        0.0131      156.3657      156.3788      16.235229       0.40531
  40    0.5894      140.1462        0.0188      156.3537      156.3725      16.226339       0.47277
  39     1.339      140.1685        0.0457      156.2834      156.3292      16.160657       0.73946
  38     1.782      140.1892        0.0615      156.2324      156.2939      16.104704       1.06526
  37     2.292      140.2202        0.0798      156.1641      156.2439      16.023711       1.34145
  36     5.035      140.3036        0.1116      156.0076      156.1191      15.815481       0.64067
  35     6.613      140.4792        0.1678      155.6950      155.8628      15.383600       2.30884
  34     8.786      140.7079        0.2436      155.2860      155.5295      14.821635       2.18247
  33     11.80      141.0055        0.3517      154.7422      155.0939      14.088434       2.05273
  32     15.07      141.2905        0.4677      154.2059      154.6736      13.383138       1.82094
  31     18.79      141.5813        0.5984      153.6432      154.2416      12.660295       1.63891
  30     23.16      141.8853        0.7509      153.0352      153.7861      11.900795       1.46863
  29     28.12      142.1909        0.9250      152.3965      153.3215      11.130560       1.30935
  28     33.73      142.4729        1.1196      151.7604      152.8800      10.407101       1.08774
  27     40.54      142.7439        1.3545      151.0815      152.4360       9.692085       0.88706
  26     48.69      143.0031        1.6373      150.3500      151.9873       8.984231       0.73252
  25     57.69      143.2223        1.9476      149.6296      151.5772       8.354899       0.58990
  24     68.43      143.4130        2.3167      148.8604      151.1771       7.764141       0.46441
  23     81.20      143.5434        2.7562      148.0628      150.8189       7.275461       0.32291
  22     96.49      143.6092        3.2792      147.2220      150.5012       6.891983       0.21165
  21     114.6      143.6414        3.8985      146.2838      150.1822       6.540869       0.16395
  20     136.5      143.6483        4.6296      145.2142      149.8438       6.195475       0.13281
  19     162.9      143.6283        5.4962      143.9816      149.4778       5.849501       0.11059
  18     196.4      143.5411        6.6142      142.4652      149.0794       5.538345       0.07832
  17     218.7      143.4615        7.3448      141.5017      148.8465       5.385057       0.05820
  16     243.0      143.3646        8.1356      140.4717      148.6073       5.242680       0.04938
  15     269.0      143.2490        8.9886      139.3740      148.3626       5.113615       0.04187
  14     297.5      143.1140        9.9060      138.2062      148.1122       4.998225       0.03422
  13     328.5      142.9635       10.8920      136.9574      147.8494       4.885893       0.03054
  12     361.9      142.7973       11.9476      135.6265      147.5741       4.776744       0.02762
  11     398.1      142.6150       13.0767      134.2081      147.2848       4.669868       0.02490
  10     437.6      142.4174       14.2813      132.6981      146.9794       4.562095       0.02304
   9     480.5      142.2041       15.5637      131.0935      146.6572       4.453097       0.02141
   8     533.0      141.9420       17.1299      129.1351      146.2650       4.322970       0.02093
   7     589.8      141.6637       18.8032      127.0392      145.8423       4.178596       0.02143
   6     651.6      141.3760       20.5852      124.7944      145.3796       4.003556       0.02394
   5     718.7      141.0853       22.4776      122.3908      144.8684       3.783056       0.02771
   4     792.3      140.8091       24.4782      119.8121      144.2903       3.481198       0.03462
   3     825.4      117.2269      118.8573        1.4206      120.2779       3.051023       0.10980
   2     858.4      112.8254      115.5204        0.0168      115.5373       2.711834       0.08658
   1     891.5      109.0992      111.5157        0.0002      111.5159       2.416691       0.07536
   0    1013.0      109.2870      111.2673        0.0002      111.2675       1.980562       0.03028



 Wavenumbers: 22650. - 29000. cm-1, ATM      1
 LEVEL PRESSURE   UPWARD FLUX   DIFDOWN FLUX  DIRDOWN FLUX  DOWNWARD FLUX   NET FLUX    HEATING RATE
          mb          W/m2          W/m2          W/m2        W/m2          W/m2       degree/day
  51    .06700       58.5144        0.0000       59.0156       59.0156       0.501225       0.00000
  50    .07753       58.5143        0.0005       59.0151       59.0155       0.501225       0.00000
  49    .09103       58.5142        0.0010       59.0144       59.0154       0.501225      -0.00000
  48    0.1069       58.5141        0.0017       59.0136       59.0153       0.501225       0.00000
  47    0.1255       58.5139        0.0025       59.0127       59.0151       0.501225      -0.00000
  46    0.1487       58.5137        0.0034       59.0115       59.0149       0.501225       0.00000
  45    0.1794       58.5135        0.0048       59.0099       59.0147       0.501225       0.00000
  44    0.2165       58.5132        0.0063       59.0080       59.0144       0.501225      -0.00000
  43    0.2613       58.5128        0.0082       59.0058       59.0140       0.501225       0.00000
  42    0.3336       58.5122        0.0113       59.0022       59.0134       0.501225      -0.00000
  41    0.4307       58.5114        0.0153       58.9973       59.0126       0.501225       0.00000
  40    0.5894       58.5101        0.0220       58.9894       59.0113       0.501225       0.00000
  39     1.339       58.5040        0.0535       58.9518       59.0052       0.501225      -0.00000
  38     1.782       58.5004        0.0720       58.9297       59.0017       0.501225       0.00000
  37     2.292       58.4963        0.0933       58.9042       58.9975       0.501225      -0.00000
  36     5.035       58.4891        0.1304       58.8599       58.9903       0.501225       0.00000
  35     6.613       58.4763        0.1963       58.7812       58.9775       0.501225       0.00000
  34     8.786       58.4591        0.2850       58.6754       58.9604       0.501225      -0.00000
  33     11.80       58.4346        0.4116       58.5242       58.9358       0.501225       0.00000
  32     15.07       58.4082        0.5474       58.3621       58.9095       0.501225      -0.00000
  31     18.79       58.3786        0.7004       58.1794       58.8798       0.501225       0.00000
  30     23.16       58.3440        0.8787       57.9665       58.8452       0.501225       0.00000
  29     28.12       58.3045        1.0821       57.7237       58.8058       0.501225       0.00000
  28     33.73       58.2605        1.3088       57.4530       58.7618       0.501225       0.00000
  27     40.54       58.2076        1.5816       57.1272       58.7088       0.501225       0.00000
  26     48.69       58.1441        1.9088       56.7366       58.6454       0.501225       0.00000
  25     57.69       58.0748        2.2660       56.3100       58.5760       0.501225       0.00000
  24     68.43       57.9928        2.6884       55.8057       58.4940       0.501225      -0.00000
  23     81.20       57.8960        3.1872       55.2100       58.3972       0.501225       0.00000
  22     96.49       57.7817        3.7753       54.5077       58.2830       0.501225       0.00000
  21     114.6       57.6478        4.4645       53.6845       58.1490       0.501225       0.00000
  20     136.5       57.4914        5.2690       52.7236       57.9927       0.501225      -0.00000
  19     162.9       57.3085        6.2094       51.6003       57.8098       0.501225       0.00000
  18     196.4       57.0767        7.4009       50.1770       57.5779       0.501225      -0.00000
  17     218.7       56.9276        8.1665       49.2623       57.4288       0.501225       0.00000
  16     243.0       56.7683        8.9839       48.2857       57.2696       0.501225      -0.00000
  15     269.0       56.5990        9.8526       47.2476       57.1002       0.501225       0.00000
  14     297.5       56.4197       10.7718       46.1491       56.9209       0.501225       0.00000
  13     328.5       56.2301       11.7429       44.9884       56.7313       0.501225      -0.00000
  12     361.9       56.0307       12.7632       43.7687       56.5320       0.501225       0.00000
  11     398.1       55.8215       13.8330       42.4898       56.3228       0.501225      -0.00000
  10     437.6       55.6029       14.9499       41.1542       56.1041       0.501225       0.00000
   9     480.5       55.3752       16.1117       39.7647       55.8764       0.501225      -0.00000
   8     533.0       55.1040       17.4934       38.1118       55.6053       0.501225       0.00000
   7     589.8       54.8225       18.9259       36.3978       55.3237       0.501225       0.00000
   6     651.6       54.5318       20.4017       34.6314       55.0331       0.501225      -0.00000
   5     718.7       54.2331       21.9152       32.8192       54.7344       0.501225       0.00000
   4     792.3       53.9280       23.4577       30.9715       54.4292       0.501225      -0.00000
   3     825.4       48.2780       48.4294        0.3494       48.7788       0.500823       0.00010
   2     858.4       47.4578       47.9543        0.0039       47.9583       0.500438       0.00010
   1     891.5       46.6928       47.1928        0.0000       47.1928       0.500059       0.00010
   0    1013.0       46.6754       47.1754        0.0000       47.1754       0.500059       0.00000



 Wavenumbers: 29000. - 38000. cm-1, ATM      1
 LEVEL PRESSURE   UPWARD FLUX   DIFDOWN FLUX  DIRDOWN FLUX  DOWNWARD FLUX   NET FLUX    HEATING RATE
          mb          W/m2          W/m2          W/m2        W/m2          W/m2       degree/day
  51    .06700        8.8014        0.0000       20.8114       20.8114      12.009994       0.00000
  50    .07753        8.8012        0.0003       20.8070       20.8074      12.006187       3.05177
  49    .09103        8.8010        0.0007       20.8009       20.8016      12.000649       3.46110
  48    0.1069        8.8007        0.0012       20.7928       20.7939      11.993239       3.94458
  47    0.1255        8.8004        0.0017       20.7820       20.7837      11.983333       4.49067
  46    0.1487        8.8001        0.0024       20.7665       20.7688      11.968769       5.30884
  45    0.1794        8.7996        0.0033       20.7424       20.7457      11.946103       6.22251
  44    0.2165        8.7991        0.0044       20.7103       20.7147      11.915578       6.94394
  43    0.2613        8.7985        0.0056       20.6675       20.6731      11.874580       7.72793
  42    0.3336        8.7976        0.0077       20.5880       20.5957      11.798012       8.92698
  41    0.4307        8.7966        0.0104       20.4722       20.4826      11.686050       9.73485
  40    0.5894        8.7950        0.0147       20.2637       20.2784      11.483348      10.77945
  39     1.339        8.7918        0.0332       19.0984       19.1315      10.339733      12.87502
  38     1.782        8.7924        0.0428       18.4394       18.4821       9.689696      12.37567
  37     2.292        8.7953        0.0530       17.7714       17.8245       9.029196      10.93959
  36     5.035        8.8081        0.0693       16.7265       16.7957       7.987583       3.20477
  35     6.613        8.8383        0.0964       15.5186       15.6150       6.776739       6.47318
  34     8.786        8.8786        0.1318       14.5590       14.6908       5.812167       3.74605
  33     11.80        8.9315        0.1806       13.7000       13.8806       4.949100       2.41632
  32     15.07        8.9827        0.2308       13.0749       13.3057       4.323020       1.61641
  31     18.79        9.0357        0.2862       12.5486       12.8348       3.799032       1.18804
  30     23.16        9.0922        0.3490       12.0732       12.4222       3.330021       0.90691
  29     28.12        9.1501        0.4192       11.6423       12.0615       2.911428       0.71158
  28     33.73        9.2035        0.4963       11.2628       11.7591       2.555601       0.53500
  27     40.54        9.2543        0.5884       10.8969       11.4853       2.230990       0.40272
  26     48.69        9.3022        0.6975       10.5353       11.2328       1.930610       0.31085
  25     57.69        9.3414        0.8155       10.2040       11.0195       1.678069       0.23672
  24     68.43        9.3731        0.9537        9.8713       10.8250       1.451944       0.17776
  23     81.20        9.3880        1.1169        9.5431       10.6600       1.271988       0.11891
  22     96.49        9.3842        1.3087        9.2107       10.5194       1.135207       0.07549
  21     114.6        9.3698        1.5301        8.8533       10.3834       1.013609       0.05678
  20     136.5        9.3479        1.7831        8.4618       10.2449       0.897079       0.04481
  19     162.9        9.3185        2.0715        8.0302       10.1017       0.783117       0.03643
  18     196.4        9.2695        2.4284        7.5240        9.9524       0.682933       0.02522
  17     218.7        9.2342        2.6529        7.2154        9.8684       0.634124       0.01853
  16     243.0        9.1956        2.8875        6.8972        9.7847       0.589091       0.01562
  15     269.0        9.1534        3.1314        6.5707        9.7021       0.548687       0.01311
  14     297.5        9.1076        3.3834        6.2374        9.6207       0.513099       0.01056
  13     328.5        9.0598        3.6425        5.8964        9.5389       0.479055       0.00926
  12     361.9        9.0105        3.9063        5.5509        9.4572       0.446705       0.00818
  11     398.1        8.9596        4.1741        5.2016        9.3757       0.416075       0.00714
  10     437.6        8.9078        4.4444        4.8500        9.2944       0.386576       0.00631
   9     480.5        8.8554        4.7150        4.4990        9.2140       0.358601       0.00549
   8     533.0        8.7951        5.0234        4.0999        9.1232       0.328137       0.00490
   7     589.8        8.7355        5.3271        3.7070        9.0342       0.298676       0.00437
   6     651.6        8.6775        5.6226        3.3248        8.9473       0.269888       0.00394
   5     718.7        8.6215        5.9081        2.9551        8.8632       0.241727       0.00354
   4     792.3        8.5684        6.1803        2.6023        8.7826       0.214199       0.00316
   3     825.4        7.8631        8.0193        0.0267        8.0460       0.182840       0.00800
   2     858.4        7.6098        7.7638        0.0003        7.7641       0.154281       0.00729
   1     891.5        7.4032        7.5306        0.0000        7.5306       0.127471       0.00685
   0    1013.0        7.4093        7.5076        0.0000        7.5076       0.098350       0.00202



 Wavenumbers: 38000. - 50000. cm-1, ATM      1
 LEVEL PRESSURE   UPWARD FLUX   DIFDOWN FLUX  DIRDOWN FLUX  DOWNWARD FLUX   NET FLUX    HEATING RATE
          mb          W/m2          W/m2          W/m2        W/m2          W/m2       degree/day
  51    .06700        0.0061        0.0000        1.2836        1.2836       1.277566       0.00000
  50    .07753        0.0060        0.0001        1.2812        1.2812       1.275231       1.87147
  49    .09103        0.0059        0.0002        1.2777        1.2778       1.271899       2.08243
  48    0.1069        0.0058        0.0002        1.2731        1.2734       1.267521       2.33056
  47    0.1255        0.0058        0.0004        1.2672        1.2675       1.261766       2.60905
  46    0.1487        0.0056        0.0005        1.2586        1.2591       1.253440       3.03495
  45    0.1794        0.0055        0.0007        1.2455        1.2462       1.240672       3.50516
  44    0.2165        0.0053        0.0009        1.2282        1.2291       1.223746       3.85033
  43    0.2613        0.0051        0.0011        1.2054        1.2065       1.201398       4.21256
  42    0.3336        0.0048        0.0015        1.1639        1.1654       1.160574       4.75965
  41    0.4307        0.0044        0.0020        1.1051        1.1070       1.102615       5.03937
  40    0.5894        0.0039        0.0026        1.0039        1.0064       1.002575       5.32000
  39     1.339        0.0022        0.0035        0.5438        0.5473       0.545166       5.14960
  38     1.782        0.0016        0.0032        0.3635        0.3666       0.365077       3.42860
  37     2.292        0.0011        0.0027        0.2356        0.2383       0.237147       2.11885
  36     5.035        0.0007        0.0019        0.1180        0.1199       0.119172       0.36298
  35     6.613        0.0004        0.0013        0.0504        0.0516       0.051220       0.36327
  34     8.786        0.0002        0.0009        0.0239        0.0248       0.024556       0.10355
  33     11.80        0.0001        0.0006        0.0105        0.0110       0.010913       0.03820
  32     15.07        0.0001        0.0004        0.0048        0.0052       0.005151       0.01488
  31     18.79        0.0000        0.0002        0.0022        0.0024       0.002406       0.00622
  30     23.16        0.0000        0.0001        0.0010        0.0011       0.001079       0.00257
  29     28.12        0.0000        0.0001        0.0004        0.0005       0.000469       0.00104
  28     33.73        0.0000        0.0000        0.0002        0.0002       0.000205       0.00040
  27     40.54        0.0000        0.0000        0.0001        0.0001       0.000083       0.00015
  26     48.69        0.0000        0.0000        0.0000        0.0000       0.000031       0.00005
  25     57.69        0.0000        0.0000        0.0000        0.0000       0.000011       0.00002
  24     68.43        0.0000        0.0000        0.0000        0.0000       0.000004       0.00001
  23     81.20        0.0000        0.0000        0.0000        0.0000       0.000001       0.00000
  22     96.49        0.0000        0.0000        0.0000        0.0000       0.000000       0.00000
  21     114.6        0.0000        0.0000        0.0000        0.0000       0.000000       0.00000
  20     136.5        0.0000        0.0000        0.0000        0.0000       0.000000       0.00000
  19     162.9        0.0000        0.0000        0.0000        0.0000       0.000000       0.00000
  18     196.4        0.0000        0.0000        0.0000        0.0000       0.000000       0.00000
  17     218.7        0.0000        0.0000        0.0000        0.0000       0.000000       0.00000
  16     243.0        0.0000        0.0000        0.0000        0.0000       0.000000       0.00000
  15     269.0        0.0000        0.0000        0.0000        0.0000       0.000000       0.00000
  14     297.5        0.0000        0.0000        0.0000        0.0000       0.000000       0.00000
  13     328.5        0.0000        0.0000        0.0000        0.0000       0.000000       0.00000
  12     361.9        0.0000        0.0000        0.0000        0.0000       0.000000       0.00000
  11     398.1        0.0000        0.0000        0.0000        0.0000       0.000000       0.00000
  10     437.6        0.0000        0.0000        0.0000        0.0000       0.000000       0.00000
   9     480.5        0.0000        0.0000        0.0000        0.0000       0.000000       0.00000
   8     533.0        0.0000        0.0000        0.0000        0.0000       0.000000       0.00000
   7     589.8        0.0000        0.0000        0.0000        0.0000       0.000000       0.00000
   6     651.6        0.0000        0.0000        0.0000        0.0000       0.000000       0.00000
   5     718.7        0.0000        0.0000        0.0000        0.0000       0.000000       0.00000
   4     792.3        0.0000        0.0000        0.0000        0.0000       0.000000       0.00000
   3     825.4        0.0000        0.0000        0.0000        0.0000       0.000000       0.00000
   2     858.4        0.0000        0.0000        0.0000        0.0000       0.000000       0.00000
   1     891.5        0.0000        0.0000        0.0000        0.0000       0.000000       0.00000
   0    1013.0        0.0000        0.0000        0.0000        0.0000       0.000000       0.00000



 Wavenumbers:   820. -  2600. cm-1, ATM      1
 LEVEL PRESSURE   UPWARD FLUX   DIFDOWN FLUX  DIRDOWN FLUX  DOWNWARD FLUX   NET FLUX    HEATING RATE
          mb          W/m2          W/m2          W/m2        W/m2          W/m2       degree/day
  51    .06700        1.4085        0.0000        6.0047        6.0047       4.596127       0.00000
  50    .07753        1.4085        0.0000        6.0008        6.0008       4.592274       3.08824
  49    .09103        1.4085        0.0000        5.9999        5.9999       4.591389       0.55361
  48    0.1069        1.4085        0.0000        5.9989        5.9989       4.590399       0.52655
  47    0.1255        1.4085        0.0000        5.9978        5.9978       4.589282       0.50653
  46    0.1487        1.4085        0.0000        5.9964        5.9964       4.587925       0.49460
  45    0.1794        1.4085        0.0000        5.9947        5.9947       4.586206       0.47203
  44    0.2165        1.4085        0.0000        5.9929        5.9929       4.584363       0.41914
  43    0.2613        1.4085        0.0000        5.9909        5.9909       4.582404       0.36936
  42    0.3336        1.4085        0.0000        5.9880        5.9880       4.579525       0.33560
  41    0.4307        1.4085        0.0000        5.9846        5.9846       4.576056       0.30169
  40    0.5894        1.4085        0.0000        5.9791        5.9791       4.570550       0.29280
  39     1.339        1.4085        0.0000        5.9536        5.9536       4.545059       0.28698
  38     1.782        1.4085        0.0000        5.9395        5.9395       4.530918       0.26921
  37     2.292        1.4085        0.0000        5.9237        5.9237       4.515164       0.26092
  36     5.035        1.4085        0.0000        5.8954        5.8954       4.486892       0.08699
  35     6.613        1.4086        0.0000        5.8469        5.8469       4.438385       0.25932
  34     8.786        1.4086        0.0000        5.7915        5.7915       4.382941       0.21533
  33     11.80        1.4086        0.0000        5.7245        5.7245       4.315868       0.18778
  32     15.07        1.4086        0.0000        5.6684        5.6684       4.259819       0.14471
  31     18.79        1.4087        0.0000        5.6231        5.6231       4.214400       0.10298
  30     23.16        1.4087        0.0000        5.5871        5.5871       4.178405       0.06960
  29     28.12        1.4087        0.0000        5.5583        5.5583       4.149564       0.04903
  28     33.73        1.4088        0.0000        5.5327        5.5328       4.123974       0.03848
  27     40.54        1.4088        0.0000        5.5051        5.5051       4.096240       0.03441
  26     48.69        1.4089        0.0000        5.4733        5.4733       4.064444       0.03290
  25     57.69        1.4090        0.0000        5.4393        5.4394       4.030391       0.03192
  24     68.43        1.4090        0.0000        5.3998        5.3999       3.990806       0.03112
  23     81.20        1.4091        0.0000        5.3545        5.3546       3.945410       0.03000
  22     96.49        1.4093        0.0000        5.3027        5.3028       3.893474       0.02866
  21     114.6        1.4094        0.0000        5.2431        5.2431       3.833661       0.02793
  20     136.5        1.4096        0.0000        5.1754        5.1755       3.765835       0.02608
  19     162.9        1.4099        0.0000        5.0924        5.0924       3.682481       0.02664
  18     196.4        1.4104        0.0000        4.9695        4.9695       3.559137       0.03105
  17     218.7        1.4109        0.0000        4.8606        4.8606       3.449771       0.04152
  16     243.0        1.4116        0.0000        4.7093        4.7093       3.297736       0.05273
  15     269.0        1.4127        0.0000        4.5352        4.5352       3.122467       0.05686
  14     297.5        1.4145        0.0000        4.3425        4.3426       2.928065       0.05766
  13     328.5        1.4169        0.0000        4.1286        4.1286       2.711725       0.05882
  12     361.9        1.4201        0.0000        3.8790        3.8791       2.458965       0.06395
  11     398.1        1.4243        0.0000        3.6162        3.6163       2.191998       0.06220
  10     437.6        1.4296        0.0000        3.3761        3.3761       1.946482       0.05249
   9     480.5        1.4362        0.0000        3.1959        3.1960       1.759739       0.03668
   8     533.0        1.4462        0.0000        3.0468        3.0468       1.600618       0.02560
   7     589.8        1.4610        0.0000        2.9024        2.9024       1.441435       0.02363
   6     651.6        1.4867        0.0001        2.7184        2.7185       1.231726       0.02868
   5     718.7        1.5312        0.0001        2.5059        2.5059       0.974705       0.03230
   4     792.3        1.6165        0.0001        2.2757        2.2757       0.659259       0.03618
   3     825.4        0.6716        0.9974        0.0240        1.0214       0.349729       0.07901
   2     858.4        0.2902        0.5196        0.0003        0.5199       0.229653       0.03065
   1     891.5        0.0010        0.1847        0.0000        0.1847       0.183755       0.01172
   0    1013.0        0.0011        0.1548        0.0000        0.1548       0.153679       0.00209

  Modules and versions used in this calculation:

       rrtmg_sw.1col.f90:  $Revision$                    rrtmg_sw_init.f90:  $Revision$        
     rrtmgsw_cldprop.f90:  $Revision$                  rrtmgsw_cldprmc.f90:  NOT USED          
     rrtmg_sw_reftra.f90:  $Revision$                  rrtmg_sw_spcvrt.f90:  NOT USED          
     rrtmg_sw_spcvmc.f90:  NOT USED                    rrtmgsw_setcoef.f90:  NOT USED          
     rrtmg_sw_taumol.f90:  $Revision$                  rrtmg_sw_vrtqdr.f90:  NOT USED          
                rrtatm.f:  NOT USED                             util_xxx.f:  NOT USED          
                 extra.f:  NOT USED                       rrtmg_sw_k_g.f90:  $Revision$        

