

 Wavenumbers:   820. - 50000. cm-1, ATM      1
 LEVEL PRESSURE   UPWARD FLUX   DIFDOWN FLUX  DIRDOWN FLUX  DOWNWARD FLUX   NET FLUX    HEATING RATE
          mb          W/m2          W/m2          W/m2        W/m2          W/m2       degree/day
  51    .06700      447.7521        0.0000      617.8126      617.8126     170.060434       0.00000
  50    .07753      447.7518        0.0014      617.7947      617.7961     170.044291      12.93860
  49    .09103      447.7513        0.0030      617.7778      617.7808     170.029478       9.25863
  48    0.1069      447.7509        0.0050      617.7581      617.7631     170.012212       9.19060
  47    0.1255      447.7504        0.0072      617.7340      617.7412     169.990862       9.67902
  46    0.1487      447.7498        0.0101      617.7009      617.7109     169.961169      10.82334
  45    0.1794      447.7491        0.0139      617.6521      617.6660     169.916928      12.14534
  44    0.2165      447.7484        0.0185      617.5895      617.6080     169.859593      13.04269
  43    0.2613      447.7477        0.0238      617.5089      617.5327     169.785063      14.04866
  42    0.3336      447.7469        0.0327      617.3641      617.3968     169.649946      15.75333
  41    0.4307      447.7462        0.0443      617.1591      617.2035     169.457275      16.75224
  40    0.5894      447.7461        0.0631      616.8005      616.8636     169.117498      18.06893
  39     1.339      447.7641        0.1482      614.9443      615.0924     167.328308      20.14303
  38     1.782      447.7874        0.1960      613.9670      614.1630     166.375591      18.13819
  37     2.292      447.8260        0.2505      613.0059      613.2563     165.430351      15.65564
  36     5.035      447.9396        0.3433      611.5124      611.8557     163.916141       4.65882
  35     6.613      448.1846        0.5071      609.6144      610.1215     161.936921      10.58092
  34     8.786      448.5044        0.7269      607.8253      608.5523     160.047831       7.33654
  33     11.80      448.9190        1.0395      605.8783      606.9178     157.998862       5.73647
  32     15.07      449.3138        1.3726      604.1777      605.5504     156.236617       4.54977
  31     18.79      449.7147        1.7472      602.5196      604.2667     154.552028       3.81948
  30     23.16      450.1311        2.1821      600.8127      602.9948     152.863652       3.26478
  29     28.12      450.5465        2.6770      599.0712      601.7481     151.201688       2.82523
  28     33.73      450.9222        3.2285      597.3500      600.5786     149.656402       2.32338
  27     40.54      451.2722        3.8924      595.5035      599.3959     148.123642       1.90156
  26     48.69      451.5937        4.6888      593.4958      598.1846     146.590889       1.58616
  25     57.69      451.8492        5.5592      591.4872      597.0465     145.197285       1.30629
  24     68.43      452.0476        6.5903      589.2939      595.8842     143.836631       1.06966
  23     81.20      452.1367        7.8126      586.9289      594.7415     142.604852       0.81394
  22     96.49      452.1064        9.2597      584.3423      593.6020     141.495662       0.61219
  21     114.6      452.0158       10.9621      581.4033      592.3654     140.349533       0.53516
  20     136.5      451.8639       12.9553      578.0541      591.0094     139.145497       0.46298
  19     162.9      451.6453       15.2944      574.1654      589.4598     137.814444       0.42546
  18     196.4      451.2746       18.2772      569.1760      587.4532     136.178574       0.41177
  17     218.7      451.0031       20.2056      565.6314      585.8370     134.833898       0.51052
  16     243.0      450.7009       22.2741      561.3129      583.5870     132.886104       0.67556
  15     269.0      450.3695       24.4838      555.9478      580.4316     130.062154       0.91608
  14     297.5      450.0151       26.8356      549.5394      576.3750     126.359908       1.09805
  13     328.5      449.6481       29.3358      542.6225      571.9583     122.310241       1.10109
  12     361.9      449.2769       31.9807      535.1469      567.1276     117.850734       1.12830
  11     398.1      448.9135       34.7749      526.9326      561.7075     112.794045       1.17810
  10     437.6      448.5811       37.7169      517.8921      555.6091     107.027946       1.23283
   9     480.5      448.3049       40.8050      508.2121      549.0170     100.712099       1.24041
   8     533.0      448.1148       44.5175      496.3783      540.8958      92.780988       1.27586
   7     589.8      448.1834       48.4131      483.5433      531.9564      83.772988       1.33708
   6     651.6      448.8255       52.4789      469.1414      521.6204      72.794868       1.50129
   5     718.7      450.4839       56.7067      453.6623      510.3690      59.885057       1.62241
   4     792.3      454.3291       61.0741      436.9145      497.9887      43.659531       1.86089
   3     825.4      320.4808      348.3511        1.0836      349.4347      28.953905       3.75353
   2     858.4      272.0531      295.5218        0.0034      295.5252      23.472020       1.39935
   1     891.5      230.1541      251.0097        0.0000      251.0097      20.855644       0.66808
   0    1013.0      231.2374      249.2320        0.0000      249.2320      17.994601       0.19866



 Wavenumbers:  2600. -  3250. cm-1, ATM      1
 LEVEL PRESSURE   UPWARD FLUX   DIFDOWN FLUX  DIRDOWN FLUX  DOWNWARD FLUX   NET FLUX    HEATING RATE
          mb          W/m2          W/m2          W/m2        W/m2          W/m2       degree/day
  51    .06700        1.9166        0.0000        5.4450        5.4450       3.528477       0.00000
  50    .07753        1.9166        0.0000        5.4450        5.4450       3.528469       0.00640
  49    .09103        1.9166        0.0000        5.4450        5.4450       3.528459       0.00627
  48    0.1069        1.9166        0.0000        5.4450        5.4450       3.528448       0.00613
  47    0.1255        1.9166        0.0000        5.4450        5.4450       3.528434       0.00599
  46    0.1487        1.9166        0.0000        5.4450        5.4450       3.528418       0.00608
  45    0.1794        1.9166        0.0000        5.4450        5.4450       3.528395       0.00625
  44    0.2165        1.9166        0.0000        5.4449        5.4449       3.528368       0.00612
  43    0.2613        1.9166        0.0000        5.4449        5.4449       3.528336       0.00600
  42    0.3336        1.9166        0.0000        5.4448        5.4448       3.528283       0.00617
  41    0.4307        1.9166        0.0000        5.4448        5.4448       3.528212       0.00620
  40    0.5894        1.9166        0.0000        5.4446        5.4446       3.528092       0.00637
  39     1.339        1.9166        0.0000        5.4439        5.4439       3.527385       0.00797
  38     1.782        1.9166        0.0000        5.4434        5.4434       3.526842       0.01034
  37     2.292        1.9166        0.0000        5.4427        5.4427       3.526126       0.01186
  36     5.035        1.9166        0.0000        5.4412        5.4412       3.524599       0.00470
  35     6.613        1.9166        0.0000        5.4381        5.4381       3.521522       0.01645
  34     8.786        1.9166        0.0000        5.4341        5.4341       3.517514       0.01556
  33     11.80        1.9166        0.0000        5.4288        5.4288       3.512268       0.01469
  32     15.07        1.9166        0.0000        5.4239        5.4239       3.507340       0.01272
  31     18.79        1.9166        0.0000        5.4191        5.4192       3.502594       0.01076
  30     23.16        1.9166        0.0000        5.4144        5.4144       3.497843       0.00919
  29     28.12        1.9166        0.0000        5.4096        5.4096       3.493007       0.00822
  28     33.73        1.9166        0.0000        5.4042        5.4042       3.487638       0.00807
  27     40.54        1.9166        0.0000        5.3972        5.3972       3.480606       0.00872
  26     48.69        1.9166        0.0000        5.3877        5.3877       3.471061       0.00988
  25     57.69        1.9167        0.0000        5.3759        5.3759       3.459214       0.01110
  24     68.43        1.9167        0.0000        5.3604        5.3604       3.443647       0.01224
  23     81.20        1.9168        0.0000        5.3405        5.3405       3.423707       0.01318
  22     96.49        1.9169        0.0000        5.3159        5.3159       3.398994       0.01364
  21     114.6        1.9171        0.0001        5.2857        5.2857       3.368601       0.01419
  20     136.5        1.9173        0.0001        5.2507        5.2508       3.333431       0.01352
  19     162.9        1.9177        0.0001        5.2113        5.2114       3.293725       0.01269
  18     196.4        1.9183        0.0001        5.1642        5.1643       3.246057       0.01200
  17     218.7        1.9188        0.0001        5.1333        5.1334       3.214540       0.01197
  16     243.0        1.9198        0.0001        5.0963        5.0964       3.176677       0.01313
  15     269.0        1.9212        0.0001        5.0512        5.0513       3.130071       0.01512
  14     297.5        1.9234        0.0001        4.9957        4.9958       3.072353       0.01712
  13     328.5        1.9265        0.0001        4.9304        4.9306       3.004015       0.01858
  12     361.9        1.9308        0.0002        4.8511        4.8513       2.920479       0.02114
  11     398.1        1.9367        0.0002        4.7507        4.7509       2.814173       0.02477
  10     437.6        1.9449        0.0002        4.6221        4.6222       2.677331       0.02926
   9     480.5        1.9563        0.0002        4.4625        4.4627       2.506389       0.03357
   8     533.0        1.9749        0.0002        4.2461        4.2463       2.271349       0.03781
   7     589.8        2.0034        0.0002        3.9954        3.9956       1.992231       0.04143
   6     651.6        2.0506        0.0002        3.7089        3.7091       1.658443       0.04565
   5     718.7        2.1292        0.0002        3.4018        3.4020       1.272817       0.04846
   4     792.3        2.2734        0.0002        3.0564        3.0567       0.783261       0.05615
   3     825.4        0.8972        1.2520        0.0068        1.2588       0.361599       0.10763
   2     858.4        0.3886        0.6200        0.0000        0.6200       0.231425       0.03323
   1     891.5        0.0013        0.1909        0.0000        0.1909       0.189643       0.01067
   0    1013.0        0.0014        0.1709        0.0000        0.1709       0.169529       0.00140



 Wavenumbers:  3250. -  4000. cm-1, ATM      1
 LEVEL PRESSURE   UPWARD FLUX   DIFDOWN FLUX  DIRDOWN FLUX  DOWNWARD FLUX   NET FLUX    HEATING RATE
          mb          W/m2          W/m2          W/m2        W/m2          W/m2       degree/day
  51    .06700        0.0553        0.0000        9.1795        9.1795       9.124236       0.00000
  50    .07753        0.0553        0.0000        9.1747        9.1747       9.119393       3.88162
  49    .09103        0.0553        0.0000        9.1713        9.1713       9.116005       2.11758
  48    0.1069        0.0553        0.0000        9.1688        9.1688       9.113480       1.34411
  47    0.1255        0.0553        0.0000        9.1665        9.1665       9.111221       1.02430
  46    0.1487        0.0553        0.0000        9.1641        9.1641       9.108779       0.88998
  45    0.1794        0.0553        0.0000        9.1612        9.1612       9.105901       0.79014
  44    0.2165        0.0553        0.0000        9.1583        9.1583       9.102981       0.66436
  43    0.2613        0.0553        0.0000        9.1553        9.1553       9.100007       0.56046
  42    0.3336        0.0553        0.0000        9.1511        9.1511       9.095828       0.48727
  41    0.4307        0.0553        0.0000        9.1464        9.1464       9.091059       0.41463
  40    0.5894        0.0553        0.0000        9.1393        9.1393       9.084053       0.37258
  39     1.339        0.0553        0.0000        9.1127        9.1127       9.057437       0.29965
  38     1.782        0.0553        0.0000        9.1011        9.1011       9.045848       0.22064
  37     2.292        0.0553        0.0000        9.0901        9.0901       9.034781       0.18331
  36     5.035        0.0553        0.0000        9.0731        9.0731       9.017848       0.05210
  35     6.613        0.0553        0.0000        9.0438        9.0439       8.988568       0.15653
  34     8.786        0.0553        0.0000        9.0058        9.0058       8.950482       0.14791
  33     11.80        0.0553        0.0000        8.9509        8.9509       8.895611       0.15362
  32     15.07        0.0553        0.0000        8.8914        8.8914       8.836132       0.15356
  31     18.79        0.0553        0.0000        8.8241        8.8242       8.768898       0.15244
  30     23.16        0.0553        0.0000        8.7473        8.7474       8.692086       0.14853
  29     28.12        0.0553        0.0000        8.6639        8.6640       8.608703       0.14174
  28     33.73        0.0553        0.0000        8.5784        8.5784       8.523193       0.12857
  27     40.54        0.0552        0.0001        8.4859        8.4860       8.430720       0.11472
  26     48.69        0.0552        0.0001        8.3873        8.3873       8.332096       0.10206
  25     57.69        0.0552        0.0001        8.2887        8.2888       8.233546       0.09238
  24     68.43        0.0552        0.0001        8.1771        8.1772       8.122029       0.08767
  23     81.20        0.0552        0.0001        8.0474        8.0475       7.992308       0.08572
  22     96.49        0.0552        0.0001        7.8963        7.8965       7.841296       0.08335
  21     114.6        0.0552        0.0001        7.7173        7.7174       7.662285       0.08359
  20     136.5        0.0551        0.0002        7.5201        7.5203       7.465170       0.07580
  19     162.9        0.0551        0.0002        7.2919        7.2921       7.237039       0.07292
  18     196.4        0.0551        0.0002        6.9664        6.9666       6.911526       0.08194
  17     218.7        0.0551        0.0002        6.6650        6.6652       6.610169       0.11441
  16     243.0        0.0551        0.0002        6.2620        6.2622       6.207186       0.13977
  15     269.0        0.0551        0.0003        5.7575        5.7578       5.702683       0.16366
  14     297.5        0.0552        0.0003        5.1717        5.1720       5.116766       0.17378
  13     328.5        0.0554        0.0002        4.5755        4.5757       4.520324       0.16217
  12     361.9        0.0557        0.0002        3.9992        3.9995       3.943745       0.14588
  11     398.1        0.0563        0.0002        3.4651        3.4653       3.409077       0.12457
  10     437.6        0.0572        0.0002        2.9736        2.9739       2.916659       0.10528
   9     480.5        0.0587        0.0002        2.5303        2.5305       2.471752       0.08738
   8     533.0        0.0617        0.0002        2.0610        2.0612       1.999521       0.07597
   7     589.8        0.0670        0.0002        1.6146        1.6148       1.547741       0.06706
   6     651.6        0.0783        0.0001        1.1562        1.1563       1.077994       0.06424
   5     718.7        0.1032        0.0001        0.7388        0.7389       0.635733       0.05558
   4     792.3        0.1695        0.0001        0.3984        0.3984       0.228878       0.04666
   3     825.4        0.0107        0.0295        0.0003        0.0298       0.019100       0.05354
   2     858.4        0.0010        0.0028        0.0000        0.0028       0.001793       0.00442
   1     891.5        0.0000        0.0002        0.0000        0.0002       0.000213       0.00040
   0    1013.0        0.0000        0.0000        0.0000        0.0000       0.000022       0.00001



 Wavenumbers:  4000. -  4650. cm-1, ATM      1
 LEVEL PRESSURE   UPWARD FLUX   DIFDOWN FLUX  DIRDOWN FLUX  DOWNWARD FLUX   NET FLUX    HEATING RATE
          mb          W/m2          W/m2          W/m2        W/m2          W/m2       degree/day
  51    .06700        6.3613        0.0000       10.7795       10.7795       4.418237       0.00000
  50    .07753        6.3613        0.0000       10.7795       10.7795       4.418236       0.00080
  49    .09103        6.3613        0.0000       10.7795       10.7795       4.418235       0.00078
  48    0.1069        6.3613        0.0000       10.7795       10.7795       4.418234       0.00077
  47    0.1255        6.3613        0.0000       10.7795       10.7795       4.418232       0.00075
  46    0.1487        6.3613        0.0000       10.7795       10.7795       4.418230       0.00076
  45    0.1794        6.3613        0.0000       10.7795       10.7795       4.418227       0.00078
  44    0.2165        6.3613        0.0000       10.7795       10.7795       4.418224       0.00076
  43    0.2613        6.3613        0.0000       10.7795       10.7795       4.418220       0.00075
  42    0.3336        6.3613        0.0000       10.7795       10.7795       4.418213       0.00077
  41    0.4307        6.3613        0.0000       10.7795       10.7795       4.418204       0.00077
  40    0.5894        6.3613        0.0000       10.7795       10.7795       4.418189       0.00080
  39     1.339        6.3613        0.0000       10.7794       10.7794       4.418100       0.00101
  38     1.782        6.3613        0.0000       10.7793       10.7793       4.418030       0.00133
  37     2.292        6.3613        0.0000       10.7792       10.7792       4.417935       0.00156
  36     5.035        6.3613        0.0000       10.7790       10.7790       4.417727       0.00064
  35     6.613        6.3613        0.0000       10.7785       10.7786       4.417273       0.00243
  34     8.786        6.3613        0.0000       10.7779       10.7779       4.416603       0.00260
  33     11.80        6.3613        0.0000       10.7768       10.7768       4.415550       0.00295
  32     15.07        6.3613        0.0001       10.7755       10.7756       4.414314       0.00319
  31     18.79        6.3613        0.0001       10.7740       10.7741       4.412818       0.00339
  30     23.16        6.3613        0.0001       10.7722       10.7723       4.410959       0.00359
  29     28.12        6.3613        0.0001       10.7699       10.7700       4.408708       0.00383
  28     33.73        6.3613        0.0002       10.7671       10.7673       4.405929       0.00418
  27     40.54        6.3614        0.0002       10.7633       10.7635       4.402157       0.00468
  26     48.69        6.3614        0.0002       10.7583       10.7586       4.397125       0.00521
  25     57.69        6.3615        0.0003       10.7524       10.7527       4.391152       0.00560
  24     68.43        6.3617        0.0003       10.7450       10.7453       4.383655       0.00589
  23     81.20        6.3619        0.0004       10.7359       10.7363       4.374407       0.00611
  22     96.49        6.3622        0.0005       10.7249       10.7253       4.363132       0.00622
  21     114.6        6.3626        0.0006       10.7111       10.7116       4.349000       0.00660
  20     136.5        6.3633        0.0007       10.6945       10.6952       4.331929       0.00656
  19     162.9        6.3642        0.0008       10.6744       10.6751       4.310932       0.00671
  18     196.4        6.3658        0.0010       10.6467       10.6476       4.281839       0.00732
  17     218.7        6.3672        0.0011       10.6258       10.6268       4.259617       0.00844
  16     243.0        6.3693        0.0012       10.5983       10.5995       4.230248       0.01019
  15     269.0        6.3723        0.0013       10.5613       10.5626       4.190335       0.01295
  14     297.5        6.3768        0.0014       10.5122       10.5136       4.136831       0.01587
  13     328.5        6.3829        0.0016       10.4501       10.4517       4.068758       0.01851
  12     361.9        6.3909        0.0017       10.3704       10.3721       3.981152       0.02217
  11     398.1        6.4011        0.0019       10.2679       10.2698       3.868774       0.02618
  10     437.6        6.4140        0.0021       10.1391       10.1412       3.727189       0.03027
   9     480.5        6.4306        0.0022        9.9878        9.9900       3.559448       0.03294
   8     533.0        6.4562        0.0024        9.7937        9.7962       3.340004       0.03530
   7     589.8        6.4933        0.0027        9.5752        9.5779       3.084526       0.03792
   6     651.6        6.5535        0.0029        9.2958        9.2987       2.745210       0.04640
   5     718.7        6.6553        0.0031        8.9267        8.9298       2.274585       0.05914
   4     792.3        6.8483        0.0033        8.4542        8.4575       1.609263       0.07630
   3     825.4        3.2280        4.2217        0.0204        4.2421       1.014052       0.15192
   2     858.4        1.5420        2.3612        0.0001        2.3613       0.819310       0.04971
   1     891.5        0.0484        0.7998        0.0000        0.7998       0.751415       0.01734
   0    1013.0        0.0503        0.7641        0.0000        0.7641       0.713782       0.00261



 Wavenumbers:  4650. -  5150. cm-1, ATM      1
 LEVEL PRESSURE   UPWARD FLUX   DIFDOWN FLUX  DIRDOWN FLUX  DOWNWARD FLUX   NET FLUX    HEATING RATE
          mb          W/m2          W/m2          W/m2        W/m2          W/m2       degree/day
  51    .06700        4.5670        0.0000       10.2033       10.2033       5.636367       0.00000
  50    .07753        4.5670        0.0000       10.2031       10.2031       5.636131       0.18901
  49    .09103        4.5670        0.0000       10.2028       10.2028       5.635837       0.18428
  48    0.1069        4.5670        0.0000       10.2025       10.2025       5.635500       0.17931
  47    0.1255        4.5670        0.0000       10.2021       10.2021       5.635115       0.17426
  46    0.1487        4.5670        0.0000       10.2016       10.2016       5.634634       0.17536
  45    0.1794        4.5670        0.0000       10.2010       10.2010       5.633984       0.17850
  44    0.2165        4.5670        0.0000       10.2002       10.2002       5.633224       0.17277
  43    0.2613        4.5670        0.0000       10.1993       10.1993       5.632339       0.16690
  42    0.3336        4.5670        0.0000       10.1979       10.1979       5.630907       0.16702
  41    0.4307        4.5670        0.0000       10.1960       10.1960       5.629066       0.16002
  40    0.5894        4.5670        0.0000       10.1932       10.1932       5.626192       0.15283
  39     1.339        4.5670        0.0000       10.1816       10.1816       5.614600       0.13051
  38     1.782        4.5670        0.0000       10.1760       10.1760       5.609071       0.10527
  37     2.292        4.5670        0.0000       10.1706       10.1706       5.603614       0.09038
  36     5.035        4.5670        0.0000       10.1630       10.1630       5.596026       0.02334
  35     6.613        4.5670        0.0000       10.1533       10.1533       5.586317       0.05191
  34     8.786        4.5670        0.0000       10.1442       10.1442       5.577223       0.03532
  33     11.80        4.5670        0.0001       10.1340       10.1341       5.567074       0.02841
  32     15.07        4.5670        0.0001       10.1237       10.1238       5.556798       0.02653
  31     18.79        4.5671        0.0001       10.1115       10.1117       5.544593       0.02767
  30     23.16        4.5671        0.0002       10.0961       10.0963       5.529121       0.02992
  29     28.12        4.5672        0.0002       10.0769       10.0771       5.509836       0.03278
  28     33.73        4.5673        0.0002       10.0536       10.0539       5.486509       0.03507
  27     40.54        4.5675        0.0003       10.0235       10.0238       5.456294       0.03749
  26     48.69        4.5678        0.0003        9.9852        9.9855       5.417707       0.03993
  25     57.69        4.5681        0.0004        9.9414        9.9418       5.373672       0.04128
  24     68.43        4.5686        0.0005        9.8884        9.8889       5.320303       0.04196
  23     81.20        4.5692        0.0006        9.8258        9.8263       5.257100       0.04176
  22     96.49        4.5701        0.0007        9.7537        9.7544       5.184256       0.04020
  21     114.6        4.5714        0.0008        9.6735        9.6743       5.102916       0.03798
  20     136.5        4.5731        0.0009        9.5870        9.5879       5.014858       0.03386
  19     162.9        4.5755        0.0011        9.4949        9.4960       4.920558       0.03014
  18     196.4        4.5791        0.0013        9.3889        9.3902       4.811056       0.02756
  17     218.7        4.5820        0.0014        9.3234        9.3248       4.742826       0.02590
  16     243.0        4.5858        0.0016        9.2524        9.2540       4.668199       0.02588
  15     269.0        4.5908        0.0018        9.1720        9.1737       4.582951       0.02765
  14     297.5        4.5978        0.0019        9.0765        9.0785       4.480677       0.03033
  13     328.5        4.6070        0.0021        8.9652        8.9673       4.360371       0.03271
  12     361.9        4.6188        0.0023        8.8351        8.8374       4.218687       0.03585
  11     398.1        4.6341        0.0025        8.6822        8.6847       4.050634       0.03915
  10     437.6        4.6540        0.0027        8.5030        8.5057       3.851655       0.04254
   9     480.5        4.6800        0.0029        8.2950        8.2979       3.617883       0.04591
   8     533.0        4.7197        0.0032        8.0210        8.0242       3.304493       0.05041
   7     589.8        4.7750        0.0034        7.7064        7.7099       2.934868       0.05486
   6     651.6        4.8570        0.0037        7.3413        7.3450       2.487937       0.06112
   5     718.7        4.9816        0.0039        6.9387        6.9426       1.960979       0.06622
   4     792.3        5.1819        0.0041        6.5066        6.5107       1.328813       0.07250
   3     825.4        2.3331        3.1101        0.0155        3.1256       0.792494       0.13689
   2     858.4        1.0775        1.6769        0.0000        1.6770       0.599487       0.04927
   1     891.5        0.0088        0.5426        0.0000        0.5426       0.533845       0.01676
   0    1013.0        0.0092        0.5133        0.0000        0.5133       0.504071       0.00207



 Wavenumbers:  5150. -  6150. cm-1, ATM      1
 LEVEL PRESSURE   UPWARD FLUX   DIFDOWN FLUX  DIRDOWN FLUX  DOWNWARD FLUX   NET FLUX    HEATING RATE
          mb          W/m2          W/m2          W/m2        W/m2          W/m2       degree/day
  51    .06700       10.9606        0.0000       25.5798       25.5798      14.619202       0.00000
  50    .07753       10.9606        0.0000       25.5798       25.5798      14.619162       0.03162
  49    .09103       10.9606        0.0000       25.5797       25.5797      14.619111       0.03211
  48    0.1069       10.9606        0.0000       25.5797       25.5797      14.619050       0.03261
  47    0.1255       10.9606        0.0000       25.5796       25.5796      14.618976       0.03311
  46    0.1487       10.9606        0.0000       25.5795       25.5795      14.618881       0.03489
  45    0.1794       10.9606        0.0000       25.5794       25.5794      14.618746       0.03713
  44    0.2165       10.9606        0.0000       25.5792       25.5792      14.618580       0.03769
  43    0.2613       10.9606        0.0000       25.5790       25.5790      14.618377       0.03827
  42    0.3336       10.9606        0.0000       25.5786       25.5786      14.618030       0.04043
  41    0.4307       10.9606        0.0000       25.5782       25.5782      14.617559       0.04098
  40    0.5894       10.9606        0.0000       25.5774       25.5774      14.616769       0.04199
  39     1.339       10.9606        0.0000       25.5735       25.5736      14.612965       0.04283
  38     1.782       10.9606        0.0001       25.5713       25.5714      14.610750       0.04218
  37     2.292       10.9606        0.0001       25.5688       25.5688      14.608242       0.04154
  36     5.035       10.9606        0.0001       25.5647       25.5648      14.604142       0.01261
  35     6.613       10.9606        0.0002       25.5576       25.5578      14.597152       0.03737
  34     8.786       10.9606        0.0002       25.5485       25.5487      14.588093       0.03518
  33     11.80       10.9607        0.0003       25.5362       25.5365      14.575841       0.03430
  32     15.07       10.9607        0.0004       25.5239       25.5243      14.563551       0.03173
  31     18.79       10.9608        0.0005       25.5110       25.5115      14.550702       0.02913
  30     23.16       10.9609        0.0007       25.4971       25.4977      14.536858       0.02677
  29     28.12       10.9610        0.0008       25.4824       25.4833      14.522257       0.02482
  28     33.73       10.9611        0.0010       25.4676       25.4686      14.507453       0.02226
  27     40.54       10.9614        0.0012       25.4514       25.4526      14.491250       0.02010
  26     48.69       10.9617        0.0015       25.4341       25.4356      14.473879       0.01798
  25     57.69       10.9621        0.0018       25.4169       25.4187      14.456613       0.01618
  24     68.43       10.9626        0.0021       25.3983       25.4004      14.437847       0.01475
  23     81.20       10.9632        0.0025       25.3779       25.3804      14.417183       0.01365
  22     96.49       10.9640        0.0030       25.3550       25.3580      14.393956       0.01282
  21     114.6       10.9650        0.0036       25.3288       25.3323      14.367333       0.01243
  20     136.5       10.9662        0.0043       25.2983       25.3026      14.336376       0.01190
  19     162.9       10.9678        0.0051       25.2537       25.2588      14.291028       0.01450
  18     196.4       10.9699        0.0061       25.1601       25.1663      14.196418       0.02381
  17     218.7       10.9714        0.0068       25.0164       25.0232      14.051791       0.05491
  16     243.0       10.9732        0.0075       24.7092       24.7167      13.743490       0.10693
  15     269.0       10.9756        0.0082       24.1621       24.1703      13.194679       0.17803
  14     297.5       10.9789        0.0089       23.4546       23.4635      12.484614       0.21060
  13     328.5       10.9831        0.0096       22.7357       22.7452      11.762160       0.19643
  12     361.9       10.9886        0.0103       21.9226       21.9329      10.944258       0.20694
  11     398.1       10.9961        0.0110       20.9941       21.0051      10.008971       0.21790
  10     437.6       11.0064        0.0116       19.9835       19.9951       8.988716       0.21814
   9     480.5       11.0207        0.0123       18.9485       18.9607       7.940057       0.20595
   8     533.0       11.0449        0.0130       17.7798       17.7928       6.747922       0.19178
   7     589.8       11.0840        0.0138       16.6727       16.6865       5.602547       0.17001
   6     651.6       11.1554        0.0145       15.6344       15.6490       4.493543       0.15166
   5     718.7       11.2866        0.0154       14.7739       14.7893       3.502709       0.12452
   4     792.3       11.5495        0.0163       14.0292       14.0456       2.496098       0.11545
   3     825.4        5.6385        7.2686        0.0343        7.3029       1.664416       0.21228
   2     858.4        2.7609        4.1788        0.0001        4.1789       1.418024       0.06290
   1     891.5        0.1124        1.4543        0.0000        1.4543       1.341949       0.01943
   0    1013.0        0.1147        1.4163        0.0000        1.4163       1.301584       0.00280



 Wavenumbers:  6150. -  7700. cm-1, ATM      1
 LEVEL PRESSURE   UPWARD FLUX   DIFDOWN FLUX  DIRDOWN FLUX  DOWNWARD FLUX   NET FLUX    HEATING RATE
          mb          W/m2          W/m2          W/m2        W/m2          W/m2       degree/day
  51    .06700       17.4229        0.0000       47.3109       47.3109      29.887920       0.00000
  50    .07753       17.4229        0.0000       47.3108       47.3108      29.887863       0.04553
  49    .09103       17.4229        0.0000       47.3107       47.3107      29.887790       0.04583
  48    0.1069       17.4229        0.0000       47.3106       47.3106      29.887703       0.04614
  47    0.1255       17.4229        0.0000       47.3105       47.3105      29.887601       0.04645
  46    0.1487       17.4229        0.0000       47.3104       47.3104      29.887468       0.04852
  45    0.1794       17.4229        0.0000       47.3102       47.3102      29.887281       0.05127
  44    0.2165       17.4229        0.0000       47.3100       47.3100      29.887054       0.05167
  43    0.2613       17.4229        0.0000       47.3097       47.3097      29.886778       0.05210
  42    0.3336       17.4229        0.0000       47.3092       47.3092      29.886308       0.05471
  41    0.4307       17.4229        0.0000       47.3085       47.3086      29.885673       0.05521
  40    0.5894       17.4229        0.0001       47.3074       47.3075      29.884614       0.05633
  39     1.339       17.4228        0.0002       47.3022       47.3024      29.879522       0.05733
  38     1.782       17.4228        0.0002       47.2991       47.2994      29.876552       0.05655
  37     2.292       17.4228        0.0003       47.2956       47.2959      29.873176       0.05591
  36     5.035       17.4227        0.0004       47.2899       47.2903      29.867600       0.01715
  35     6.613       17.4226        0.0006       47.2800       47.2806      29.858025       0.05119
  34     8.786       17.4224        0.0009       47.2670       47.2679      29.845481       0.04872
  33     11.80       17.4222        0.0013       47.2491       47.2504      29.828244       0.04826
  32     15.07       17.4219        0.0017       47.2308       47.2325      29.810619       0.04550
  31     18.79       17.4216        0.0022       47.2112       47.2134      29.791784       0.04271
  30     23.16       17.4213        0.0028       47.1895       47.1923      29.771006       0.04018
  29     28.12       17.4209        0.0034       47.1661       47.1695      29.748603       0.03808
  28     33.73       17.4205        0.0042       47.1416       47.1458      29.725263       0.03509
  27     40.54       17.4200        0.0050       47.1141       47.1191      29.699171       0.03237
  26     48.69       17.4193        0.0061       47.0837       47.0898      29.670431       0.02974
  25     57.69       17.4187        0.0073       47.0527       47.0600      29.641334       0.02727
  24     68.43       17.4179        0.0087       47.0183       47.0269      29.609093       0.02535
  23     81.20       17.4169        0.0103       46.9796       46.9899      29.573065       0.02381
  22     96.49       17.4157        0.0123       46.9356       46.9479      29.532157       0.02258
  21     114.6       17.4144        0.0147       46.8846       46.8993      29.484922       0.02206
  20     136.5       17.4128        0.0175       46.8250       46.8424      29.429663       0.02125
  19     162.9       17.4109        0.0208       46.7403       46.7611      29.350238       0.02539
  18     196.4       17.4086        0.0251       46.5732       46.5983      29.189703       0.04041
  17     218.7       17.4073        0.0279       46.3491       46.3770      28.969650       0.08355
  16     243.0       17.4063        0.0308       45.9309       45.9617      28.555375       0.14368
  15     269.0       17.4060        0.0337       45.1716       45.2053      27.799317       0.24526
  14     297.5       17.4071        0.0366       44.0121       44.0487      26.641569       0.34338
  13     328.5       17.4102        0.0395       42.7247       42.7642      25.354027       0.35008
  12     361.9       17.4163        0.0425       41.3543       41.3969      23.980588       0.34749
  11     398.1       17.4270        0.0455       39.7956       39.8411      22.414111       0.36495
  10     437.6       17.4452        0.0483       37.9951       38.0434      20.598139       0.38827
   9     480.5       17.4745        0.0509       36.0650       36.1159      18.641484       0.38428
   8     533.0       17.5296        0.0538       33.7776       33.8314      16.301792       0.37638
   7     589.8       17.6259        0.0565       31.4085       31.4649      13.839058       0.36555
   6     651.6       17.8118        0.0587       28.8836       28.9423      11.130522       0.37040
   5     718.7       18.1673        0.0607       26.4106       26.4712       8.303935       0.35522
   4     792.3       18.9221        0.0623       24.0058       24.0681       5.145997       0.36218
   3     825.4        8.6500       11.3708        0.0557       11.4264       2.776383       0.60483
   2     858.4        4.1879        6.3333        0.0002        6.3334       2.145540       0.16103
   1     891.5        0.3105        2.2570        0.0000        2.2570       1.946506       0.05082
   0    1013.0        0.3219        2.1559        0.0000        2.1559       1.833982       0.00781



 Wavenumbers:  7700. -  8050. cm-1, ATM      1
 LEVEL PRESSURE   UPWARD FLUX   DIFDOWN FLUX  DIRDOWN FLUX  DOWNWARD FLUX   NET FLUX    HEATING RATE
          mb          W/m2          W/m2          W/m2        W/m2          W/m2       degree/day
  51    .06700        8.1802        0.0000       11.1810       11.1810       3.000796       0.00000
  50    .07753        8.1802        0.0000       11.1809       11.1809       3.000772       0.01882
  49    .09103        8.1802        0.0000       11.1809       11.1809       3.000743       0.01844
  48    0.1069        8.1802        0.0000       11.1809       11.1809       3.000709       0.01806
  47    0.1255        8.1802        0.0000       11.1809       11.1809       3.000670       0.01767
  46    0.1487        8.1802        0.0000       11.1808       11.1808       3.000621       0.01793
  45    0.1794        8.1802        0.0000       11.1808       11.1808       3.000553       0.01845
  44    0.2165        8.1802        0.0000       11.1807       11.1807       3.000474       0.01810
  43    0.2613        8.1803        0.0000       11.1806       11.1806       3.000380       0.01776
  42    0.3336        8.1803        0.0000       11.1805       11.1805       3.000224       0.01817
  41    0.4307        8.1804        0.0000       11.1803       11.1804       3.000017       0.01797
  40    0.5894        8.1804        0.0000       11.1801       11.1801       2.999679       0.01796
  39     1.339        8.1808        0.0001       11.1788       11.1789       2.998082       0.01799
  38     1.782        8.1810        0.0001       11.1781       11.1782       2.997143       0.01787
  37     2.292        8.1813        0.0001       11.1772       11.1773       2.996057       0.01799
  36     5.035        8.1817        0.0002       11.1757       11.1759       2.994172       0.00580
  35     6.613        8.1825        0.0003       11.1731       11.1733       2.990824       0.01790
  34     8.786        8.1836        0.0004       11.1695       11.1699       2.986314       0.01752
  33     11.80        8.1851        0.0006       11.1644       11.1650       2.979864       0.01806
  32     15.07        8.1868        0.0008       11.1589       11.1597       2.972943       0.01787
  31     18.79        8.1887        0.0010       11.1528       11.1538       2.965131       0.01771
  30     23.16        8.1908        0.0013       11.1456       11.1469       2.956014       0.01763
  29     28.12        8.1934        0.0016       11.1374       11.1390       2.945601       0.01770
  28     33.73        8.1962        0.0019       11.1282       11.1302       2.933965       0.01750
  27     40.54        8.1996        0.0023       11.1172       11.1196       2.919931       0.01741
  26     48.69        8.2038        0.0028       11.1040       11.1068       2.903051       0.01747
  25     57.69        8.2084        0.0034       11.0896       11.0929       2.884560       0.01733
  24     68.43        8.2139        0.0040       11.0725       11.0765       2.862605       0.01726
  23     81.20        8.2205        0.0048       11.0523       11.0571       2.836549       0.01722
  22     96.49        8.2285        0.0057       11.0284       11.0341       2.805643       0.01706
  21     114.6        8.2380        0.0068       11.0004       11.0072       2.769143       0.01704
  20     136.5        8.2495        0.0081       10.9676       10.9756       2.726147       0.01653
  19     162.9        8.2633        0.0096       10.9290       10.9386       2.675302       0.01625
  18     196.4        8.2816        0.0116       10.8799       10.8915       2.609896       0.01646
  17     218.7        8.2938        0.0129       10.8482       10.8610       2.567211       0.01621
  16     243.0        8.3073        0.0143       10.8140       10.8283       2.520984       0.01603
  15     269.0        8.3222        0.0158       10.7774       10.7932       2.470998       0.01622
  14     297.5        8.3387        0.0175       10.7382       10.7556       2.416960       0.01603
  13     328.5        8.3569        0.0192       10.6962       10.7154       2.358476       0.01590
  12     361.9        8.3772        0.0212       10.6512       10.6724       2.295234       0.01600
  11     398.1        8.3997        0.0232       10.6031       10.6263       2.226610       0.01599
  10     437.6        8.4249        0.0254       10.5513       10.5768       2.151827       0.01599
   9     480.5        8.4533        0.0278       10.4956       10.5234       2.070148       0.01604
   8     533.0        8.4903        0.0307       10.4264       10.4571       1.966864       0.01662
   7     589.8        8.5334        0.0339       10.3500       10.3838       1.850413       0.01729
   6     651.6        8.5852        0.0372       10.2633       10.3006       1.715372       0.01847
   5     718.7        8.6487        0.0408       10.1637       10.2045       1.555781       0.02006
   4     792.3        8.7295        0.0446       10.0457       10.0903       1.360803       0.02236
   3     825.4        4.7033        5.8321        0.0258        5.8579       1.154533       0.05265
   2     858.4        2.6256        3.6618        0.0001        3.6618       1.036273       0.03019
   1     891.5        0.6924        1.6695        0.0000        1.6695       0.977114       0.01511
   0    1013.0        0.7059        1.6363        0.0000        1.6363       0.930388       0.00324



 Wavenumbers:  8050. - 12850. cm-1, ATM      1
 LEVEL PRESSURE   UPWARD FLUX   DIFDOWN FLUX  DIRDOWN FLUX  DOWNWARD FLUX   NET FLUX    HEATING RATE
          mb          W/m2          W/m2          W/m2        W/m2          W/m2       degree/day
  51    .06700      108.4165        0.0000      156.5418      156.5418      48.125249       0.00000
  50    .07753      108.4165        0.0000      156.5417      156.5417      48.125249      -0.00000
  49    .09103      108.4165        0.0001      156.5417      156.5417      48.125249       0.00000
  48    0.1069      108.4165        0.0001      156.5416      156.5417      48.125249       0.00000
  47    0.1255      108.4164        0.0002      156.5415      156.5417      48.125249      -0.00000
  46    0.1487      108.4164        0.0002      156.5414      156.5417      48.125249       0.00000
  45    0.1794      108.4164        0.0003      156.5413      156.5416      48.125249       0.00000
  44    0.2165      108.4164        0.0004      156.5412      156.5416      48.125249      -0.00000
  43    0.2613      108.4163        0.0006      156.5410      156.5416      48.125249       0.00000
  42    0.3336      108.4162        0.0008      156.5407      156.5415      48.125249      -0.00000
  41    0.4307      108.4161        0.0011      156.5403      156.5414      48.125249       0.00000
  40    0.5894      108.4160        0.0015      156.5397      156.5412      48.125249      -0.00000
  39     1.339      108.4152        0.0038      156.5367      156.5405      48.125249      -0.00000
  38     1.782      108.4148        0.0051      156.5350      156.5401      48.125249       0.00000
  37     2.292      108.4143        0.0066      156.5330      156.5396      48.125249       0.00000
  36     5.035      108.4134        0.0092      156.5295      156.5387      48.125249       0.00000
  35     6.613      108.4119        0.0139      156.5233      156.5371      48.125249      -0.00000
  34     8.786      108.4098        0.0201      156.5149      156.5351      48.125249      -0.00000
  33     11.80      108.4068        0.0291      156.5029      156.5321      48.125249       0.00000
  32     15.07      108.4036        0.0388      156.4901      156.5288      48.125249       0.00000
  31     18.79      108.4000        0.0497      156.4755      156.5252      48.125249      -0.00000
  30     23.16      108.3957        0.0625      156.4585      156.5210      48.125249      -0.00000
  29     28.12      108.3908        0.0771      156.4390      156.5161      48.125249       0.00000
  28     33.73      108.3854        0.0935      156.4171      156.5106      48.125249       0.00000
  27     40.54      108.3788        0.1133      156.3907      156.5040      48.125249       0.00000
  26     48.69      108.3708        0.1373      156.3588      156.4961      48.125249      -0.00000
  25     57.69      108.3620        0.1636      156.3237      156.4873      48.125249       0.00000
  24     68.43      108.3516        0.1950      156.2818      156.4768      48.125249      -0.00000
  23     81.20      108.3391        0.2325      156.2319      156.4643      48.125249      -0.00000
  22     96.49      108.3242        0.2772      156.1722      156.4494      48.125249       0.00000
  21     114.6      108.3067        0.3305      156.0952      156.4257      48.118975       0.00293
  20     136.5      108.2859        0.3937      156.0034      156.3971      48.111195       0.00299
  19     162.9      108.2611        0.4691      155.8903      156.3594      48.098299       0.00412
  18     196.4      108.2291        0.5673      155.7272      156.2944      48.065305       0.00831
  17     218.7      108.2085        0.6318      155.5805      156.2123      48.003813       0.02335
  16     243.0      108.1872        0.7019      155.3439      156.0458      47.858611       0.05036
  15     269.0      108.1669        0.7778      154.9586      155.7365      47.569582       0.09376
  14     297.5      108.1501        0.8595      154.3968      155.2564      47.106221       0.13743
  13     328.5      108.1388        0.9477      153.7223      154.6700      46.531193       0.15635
  12     361.9      108.1364        1.0423      152.9159      153.9582      45.821779       0.17949
  11     398.1      108.1491        1.1435      151.9057      153.0492      44.900099       0.21473
  10     437.6      108.1875        1.2512      150.6102      151.8614      43.673995       0.26215
   9     480.5      108.2641        1.3652      149.0084      150.3736      42.109526       0.30726
   8     533.0      108.4258        1.5031      146.7445      148.2476      39.821721       0.36804
   7     589.8      108.7260        1.6477      143.8798      145.5275      36.801458       0.44831
   6     651.6      109.3193        1.7961      140.1022      141.8983      32.578951       0.57744
   5     718.7      110.4352        1.9468      135.5343      137.4811      27.045881       0.69535
   4     792.3      112.6527        2.0960      130.0753      132.1713      19.518613       0.86329
   3     825.4       64.1166       76.1958        0.3197       76.5155      12.398843       1.81728
   2     858.4       43.7729       53.5959        0.0010       53.5969       9.824075       0.65725
   1     891.5       26.3540       35.0164        0.0000       35.0164       8.662344       0.29664
   0    1013.0       26.8648       34.2401        0.0000       34.2401       7.375315       0.08937



 Wavenumbers: 12850. - 16000. cm-1, ATM      1
 LEVEL PRESSURE   UPWARD FLUX   DIFDOWN FLUX  DIRDOWN FLUX  DOWNWARD FLUX   NET FLUX    HEATING RATE
          mb          W/m2          W/m2          W/m2        W/m2          W/m2       degree/day
  51    .06700       80.7959        0.0000       98.0872       98.0872      17.291360       0.00000
  50    .07753       80.7959        0.0001       98.0864       98.0864      17.290568       0.63526
  49    .09103       80.7959        0.0002       98.0853       98.0855      17.289572       0.62229
  48    0.1069       80.7959        0.0003       98.0841       98.0843      17.288428       0.60909
  47    0.1255       80.7959        0.0004       98.0826       98.0830      17.287113       0.59620
  46    0.1487       80.7959        0.0005       98.0809       98.0814      17.285453       0.60520
  45    0.1794       80.7960        0.0007       98.0784       98.0792      17.283193       0.62027
  44    0.2165       80.7961        0.0010       98.0756       98.0766      17.280534       0.60488
  43    0.2613       80.7962        0.0013       98.0723       98.0736      17.277405       0.58973
  42    0.3336       80.7965        0.0017       98.0670       98.0688      17.272296       0.59572
  41    0.4307       80.7969        0.0024       98.0602       98.0626      17.265684       0.57492
  40    0.5894       80.7977        0.0034       98.0496       98.0530      17.255253       0.55468
  39     1.339       80.8048        0.0082       98.0043       98.0126      17.207811       0.53411
  38     1.782       80.8112        0.0111       97.9793       97.9904      17.179214       0.54445
  37     2.292       80.8206        0.0144       97.9498       97.9642      17.143517       0.59123
  36     5.035       80.8458        0.0201       97.8891       97.9092      17.063375       0.24657
  35     6.613       80.8987        0.0302       97.7746       97.8048      16.906110       0.84074
  34     8.786       80.9676        0.0439       97.6278       97.6717      16.704076       0.78463
  33     11.80       81.0573        0.0634       97.4339       97.4972      16.439932       0.73952
  32     15.07       81.1434        0.0843       97.2433       97.3276      16.184196       0.66026
  31     18.79       81.2314        0.1079       97.0439       97.1518      15.920374       0.59817
  30     23.16       81.3236        0.1355       96.8292       96.9647      15.641092       0.54004
  29     28.12       81.4166        0.1670       96.6048       96.7718      15.355233       0.48594
  28     33.73       81.5029        0.2022       96.3831       96.5853      15.082481       0.41009
  27     40.54       81.5865        0.2448       96.1494       96.3942      14.807658       0.34095
  26     48.69       81.6674        0.2962       95.9016       96.1978      14.530407       0.28691
  25     57.69       81.7369        0.3526       95.6629       96.0155      14.278595       0.23604
  24     68.43       81.7988        0.4198       95.4149       95.8347      14.035894       0.19080
  23     81.20       81.8439        0.5000       95.1674       95.6673      13.823488       0.14035
  22     96.49       81.8711        0.5956       94.9172       95.5128      13.641767       0.10030
  21     114.6       81.9024        0.7103       94.6421       95.3524      13.450000       0.08954
  20     136.5       81.9281        0.8462       94.3324       95.1786      13.250456       0.07673
  19     162.9       81.9484        1.0081       93.9750       94.9831      13.034690       0.06897
  18     196.4       81.9525        1.2180       93.5336       94.7517      12.799168       0.05928
  17     218.7       81.9474        1.3559       93.2498       94.6057      12.658326       0.05347
  16     243.0       81.9387        1.5057       92.9420       94.4477      12.509025       0.05178
  15     269.0       81.9266        1.6681       92.6087       94.2768      12.350189       0.05153
  14     297.5       81.9119        1.8436       92.2464       94.0901      12.178215       0.05101
  13     328.5       81.8967        2.0332       91.8517       93.8850      11.988253       0.05165
  12     361.9       81.8824        2.2374       91.4219       93.6592      11.776795       0.05350
  11     398.1       81.8709        2.4570       90.9524       93.4095      11.538525       0.05551
  10     437.6       81.8659        2.6928       90.4358       93.1287      11.262747       0.05896
   9     480.5       81.8711        2.9454       89.8659       92.8113      10.940167       0.06335
   8     533.0       81.8977        3.2558       89.1347       92.3906      10.492872       0.07196
   7     589.8       81.9635        3.5895       88.2943       91.8838       9.920264       0.08499
   6     651.6       82.1095        3.9459       87.2867       91.2326       9.123111       0.10901
   5     718.7       82.3676        4.3236       86.1028       90.4264       8.058828       0.13375
   4     792.3       82.8329        4.7187       84.6812       89.3999       6.567003       0.17110
   3     825.4       58.7192       63.4037        0.2157       63.6194       4.900267       0.42542
   2     858.4       50.4865       54.4698        0.0007       54.4705       3.983974       0.23390
   1     891.5       43.6075       46.9883        0.0000       46.9883       3.380804       0.15402
   0    1013.0       43.9893       46.5348        0.0000       46.5348       2.545452       0.05800



 Wavenumbers: 16000. - 22650. cm-1, ATM      1
 LEVEL PRESSURE   UPWARD FLUX   DIFDOWN FLUX  DIRDOWN FLUX  DOWNWARD FLUX   NET FLUX    HEATING RATE
          mb          W/m2          W/m2          W/m2        W/m2          W/m2       degree/day
  51    .06700      140.2665        0.0000      156.3892      156.3892      16.122733       0.00000
  50    .07753      140.2665        0.0004      156.3887      156.3891      16.122586       0.11805
  49    .09103      140.2665        0.0009      156.3879      156.3888      16.122371       0.13389
  48    0.1069      140.2665        0.0015      156.3871      156.3885      16.122085       0.15268
  47    0.1255      140.2665        0.0021      156.3861      156.3882      16.121701       0.17403
  46    0.1487      140.2665        0.0029      156.3847      156.3877      16.121135       0.20623
  45    0.1794      140.2667        0.0041      156.3828      156.3869      16.120251       0.24282
  44    0.2165      140.2669        0.0054      156.3805      156.3859      16.119051       0.27290
  43    0.2613      140.2672        0.0070      156.3776      156.3846      16.117423       0.30681
  42    0.3336      140.2679        0.0096      156.3726      156.3823      16.114329       0.36080
  41    0.4307      140.2692        0.0131      156.3657      156.3788      16.109664       0.40558
  40    0.5894      140.2717        0.0188      156.3537      156.3725      16.100768       0.47309
  39     1.339      140.2941        0.0457      156.2834      156.3292      16.035042       0.73995
  38     1.782      140.3149        0.0616      156.2324      156.2939      15.979052       1.06597
  37     2.292      140.3460        0.0799      156.1641      156.2440      15.898005       1.34234
  36     5.035      140.4295        0.1116      156.0076      156.1192      15.689636       0.64110
  35     6.613      140.6054        0.1679      155.6950      155.8629      15.257465       2.31039
  34     8.786      140.8345        0.2436      155.2860      155.5296      14.695122       2.18394
  33     11.80      141.1326        0.3518      154.7422      155.0940      13.961425       2.05412
  32     15.07      141.4181        0.4678      154.2059      154.6737      13.255649       1.82218
  31     18.79      141.7095        0.5986      153.6432      154.2418      12.532311       1.64003
  30     23.16      142.0140        0.7511      153.0352      153.7863      11.772288       1.46964
  29     28.12      142.3202        0.9252      152.3965      153.3218      11.001519       1.31026
  28     33.73      142.6027        1.1199      151.7604      152.8803      10.277555       1.08850
  27     40.54      142.8743        1.3548      151.0815      152.4364       9.562038       0.88768
  26     48.69      143.1341        1.6378      150.3500      151.9878       8.853685       0.73303
  25     57.69      143.3539        1.9481      149.6296      151.5778       8.223905       0.59032
  24     68.43      143.5450        2.3174      148.8604      151.1778       7.632724       0.46475
  23     81.20      143.6760        2.7569      148.0628      150.8197       7.143693       0.32314
  22     96.49      143.7422        3.2802      147.2220      150.5022       6.759937       0.21181
  21     114.6      143.7748        3.8996      146.2838      150.1834       6.408604       0.16405
  20     136.5      143.7821        4.6309      145.2142      149.8451       6.062993       0.13290
  19     162.9      143.7626        5.4978      143.9816      149.4794       5.716801       0.11066
  18     196.4      143.6759        6.6162      142.4652      149.0814       5.405447       0.07837
  17     218.7      143.5966        7.3470      141.5017      148.8487       5.252059       0.05824
  16     243.0      143.5001        8.1380      140.4717      148.6097       5.109587       0.04941
  15     269.0      143.3849        8.9913      139.3740      148.3653       4.980428       0.04190
  14     297.5      143.2503        9.9090      138.2062      148.1152       4.864940       0.03425
  13     328.5      143.1002       10.8953      136.9574      147.8527       4.752497       0.03057
  12     361.9      142.9345       11.9512      135.6265      147.5777       4.643221       0.02765
  11     398.1      142.7526       13.0807      134.2081      147.2888       4.536192       0.02494
  10     437.6      142.5556       14.2857      132.6981      146.9838       4.428226       0.02308
   9     480.5      142.3431       15.5685      131.0935      146.6620       4.318985       0.02145
   8     533.0      142.0818       17.1352      129.1351      146.2703       4.188488       0.02099
   7     589.8      141.8046       18.8091      127.0392      145.8482       4.043591       0.02151
   6     651.6      141.5183       20.5917      124.7944      145.3861       3.867733       0.02405
   5     718.7      141.2296       22.4848      122.3908      144.8755       3.645979       0.02787
   4     792.3      140.9561       24.4861      119.8121      144.2982       3.342140       0.03485
   3     825.4      115.7544      118.3731        0.3038      118.6769       2.922494       0.10711
   2     858.4      110.4657      113.0633        0.0010      113.0643       2.598554       0.08269
   1     891.5      105.7858      108.1085        0.0000      108.1085       2.322632       0.07046
   0    1013.0      105.9583      107.8785        0.0000      107.8785       1.920238       0.02794



 Wavenumbers: 22650. - 29000. cm-1, ATM      1
 LEVEL PRESSURE   UPWARD FLUX   DIFDOWN FLUX  DIRDOWN FLUX  DOWNWARD FLUX   NET FLUX    HEATING RATE
          mb          W/m2          W/m2          W/m2        W/m2          W/m2       degree/day
  51    .06700       58.5211        0.0000       59.0156       59.0156       0.494477       0.00000
  50    .07753       58.5210        0.0005       59.0151       59.0155       0.494477       0.00000
  49    .09103       58.5209        0.0010       59.0144       59.0154       0.494477       0.00000
  48    0.1069       58.5208        0.0017       59.0136       59.0153       0.494477      -0.00000
  47    0.1255       58.5207        0.0025       59.0127       59.0151       0.494477       0.00000
  46    0.1487       58.5205        0.0034       59.0115       59.0149       0.494477       0.00000
  45    0.1794       58.5202        0.0048       59.0099       59.0147       0.494477      -0.00000
  44    0.2165       58.5199        0.0063       59.0080       59.0144       0.494477      -0.00000
  43    0.2613       58.5195        0.0082       59.0058       59.0140       0.494477       0.00000
  42    0.3336       58.5189        0.0113       59.0022       59.0134       0.494477      -0.00000
  41    0.4307       58.5182        0.0153       58.9973       59.0126       0.494477      -0.00000
  40    0.5894       58.5169        0.0220       58.9894       59.0113       0.494477       0.00000
  39     1.339       58.5108        0.0535       58.9518       59.0052       0.494477      -0.00000
  38     1.782       58.5072        0.0720       58.9297       59.0017       0.494477       0.00000
  37     2.292       58.5030        0.0933       58.9042       58.9975       0.494477      -0.00000
  36     5.035       58.4958        0.1305       58.8599       58.9903       0.494477       0.00000
  35     6.613       58.4831        0.1963       58.7812       58.9776       0.494477       0.00000
  34     8.786       58.4659        0.2850       58.6754       58.9604       0.494477      -0.00000
  33     11.80       58.4413        0.4116       58.5242       58.9358       0.494477       0.00000
  32     15.07       58.4150        0.5474       58.3621       58.9095       0.494477      -0.00000
  31     18.79       58.3853        0.7005       58.1794       58.8798       0.494477      -0.00000
  30     23.16       58.3508        0.8788       57.9665       58.8452       0.494477       0.00000
  29     28.12       58.3113        1.0821       57.7237       58.8058       0.494477      -0.00000
  28     33.73       58.2674        1.3089       57.4530       58.7618       0.494477       0.00000
  27     40.54       58.2144        1.5817       57.1272       58.7089       0.494477      -0.00000
  26     48.69       58.1510        1.9089       56.7366       58.6454       0.494477      -0.00000
  25     57.69       58.0817        2.2661       56.3100       58.5761       0.494477       0.00000
  24     68.43       57.9997        2.6885       55.8057       58.4942       0.494477       0.00000
  23     81.20       57.9029        3.1873       55.2100       58.3973       0.494477       0.00000
  22     96.49       57.7887        3.7755       54.5077       58.2831       0.494477      -0.00000
  21     114.6       57.6548        4.4648       53.6845       58.1493       0.494477       0.00000
  20     136.5       57.4984        5.2693       52.7236       57.9929       0.494477       0.00000
  19     162.9       57.3156        6.2098       51.6003       57.8101       0.494477      -0.00000
  18     196.4       57.0838        7.4013       50.1770       57.5783       0.494477       0.00000
  17     218.7       56.9348        8.1669       49.2623       57.4292       0.494477       0.00000
  16     243.0       56.7756        8.9844       48.2857       57.2700       0.494477      -0.00000
  15     269.0       56.6063        9.8531       47.2476       57.1007       0.494477       0.00000
  14     297.5       56.4270       10.7724       46.1491       56.9215       0.494477      -0.00000
  13     328.5       56.2375       11.7435       44.9884       56.7319       0.494477      -0.00000
  12     361.9       56.0382       12.7639       43.7687       56.5327       0.494477       0.00000
  11     398.1       55.8290       13.8337       42.4898       56.3235       0.494477      -0.00000
  10     437.6       55.6105       14.9508       41.1542       56.1049       0.494477       0.00000
   9     480.5       55.3829       16.1126       39.7647       55.8773       0.494477      -0.00000
   8     533.0       55.1118       17.4945       38.1118       55.6063       0.494477      -0.00000
   7     589.8       54.8303       18.9270       36.3978       55.3248       0.494477      -0.00000
   6     651.6       54.5398       20.4029       34.6314       55.0343       0.494477       0.00000
   5     718.7       54.2413       21.9166       32.8192       54.7358       0.494477       0.00000
   4     792.3       53.9363       23.4592       30.9715       54.4308       0.494477      -0.00000
   3     825.4       47.9935       48.4126        0.0748       48.4874       0.493939       0.00014
   2     858.4       47.0051       47.4983        0.0002       47.4985       0.493442       0.00013
   1     891.5       46.0295       46.5224        0.0000       46.5224       0.492956       0.00012
   0    1013.0       46.0123       46.5053        0.0000       46.5053       0.492956       0.00000



 Wavenumbers: 29000. - 38000. cm-1, ATM      1
 LEVEL PRESSURE   UPWARD FLUX   DIFDOWN FLUX  DIRDOWN FLUX  DOWNWARD FLUX   NET FLUX    HEATING RATE
          mb          W/m2          W/m2          W/m2        W/m2          W/m2       degree/day
  51    .06700        8.8051        0.0000       20.8114       20.8114      12.006286       0.00000
  50    .07753        8.8049        0.0003       20.8070       20.8074      12.002479       3.05178
  49    .09103        8.8047        0.0007       20.8009       20.8016      11.996941       3.46111
  48    0.1069        8.8044        0.0012       20.7928       20.7939      11.989531       3.94459
  47    0.1255        8.8041        0.0017       20.7820       20.7837      11.979625       4.49069
  46    0.1487        8.8038        0.0024       20.7665       20.7688      11.965061       5.30886
  45    0.1794        8.8033        0.0033       20.7424       20.7457      11.942394       6.22253
  44    0.2165        8.8028        0.0044       20.7103       20.7147      11.911869       6.94397
  43    0.2613        8.8022        0.0056       20.6675       20.6731      11.870871       7.72797
  42    0.3336        8.8014        0.0077       20.5880       20.5957      11.794304       8.92702
  41    0.4307        8.8003        0.0104       20.4722       20.4826      11.682341       9.73490
  40    0.5894        8.7988        0.0147       20.2637       20.2784      11.479638      10.77950
  39     1.339        8.7955        0.0332       19.0984       19.1315      10.336016      12.87510
  38     1.782        8.7961        0.0428       18.4394       18.4821       9.685972      12.37579
  37     2.292        8.7990        0.0531       17.7714       17.8245       9.025464      10.93973
  36     5.035        8.8119        0.0693       16.7265       16.7957       7.983829       3.20484
  35     6.613        8.8421        0.0964       15.5186       15.6150       6.772938       6.47342
  34     8.786        8.8825        0.1318       14.5590       14.6908       5.808305       3.74629
  33     11.80        8.9355        0.1806       13.7000       13.8806       4.945153       2.41655
  32     15.07        8.9868        0.2308       13.0749       13.3058       4.318987       1.61664
  31     18.79        9.0399        0.2862       12.5486       12.8348       3.794904       1.18826
  30     23.16        9.0965        0.3491       12.0732       12.4222       3.325786       0.90712
  29     28.12        9.1545        0.4192       11.6423       12.0616       2.907076       0.71178
  28     33.73        9.2081        0.4964       11.2628       11.7592       2.551129       0.53518
  27     40.54        9.2590        0.5885       10.8969       11.4854       2.226390       0.40288
  26     48.69        9.3070        0.6976       10.5353       11.2329       1.925871       0.31099
  25     57.69        9.3464        0.8156       10.2040       11.0196       1.673196       0.23684
  24     68.43        9.3783        0.9539        9.8713       10.8252       1.446935       0.17787
  23     81.20        9.3934        1.1171        9.5431       10.6602       1.266858       0.11899
  22     96.49        9.3897        1.3089        9.2107       10.5196       1.129975       0.07555
  21     114.6        9.3754        1.5304        8.8533       10.3837       1.008277       0.05682
  20     136.5        9.3537        1.7835        8.4618       10.2453       0.891643       0.04485
  19     162.9        9.3246        2.0719        8.0302       10.1021       0.777568       0.03646
  18     196.4        9.2758        2.4290        7.5240        9.9530       0.677275       0.02524
  17     218.7        9.2406        2.6536        7.2154        9.8690       0.628409       0.01855
  16     243.0        9.2021        2.8883        6.8972        9.7855       0.583319       0.01564
  15     269.0        9.1601        3.1323        6.5707        9.7029       0.542862       0.01312
  14     297.5        9.1145        3.3843        6.2374        9.6217       0.507224       0.01057
  13     328.5        9.0669        3.6436        5.8964        9.5400       0.473129       0.00927
  12     361.9        9.0176        3.9075        5.5509        9.4584       0.440728       0.00820
  11     398.1        8.9670        4.1754        5.2016        9.3770       0.410047       0.00715
  10     437.6        8.9154        4.4459        4.8500        9.2959       0.380495       0.00632
   9     480.5        8.8632        4.7167        4.4990        9.2156       0.352468       0.00550
   8     533.0        8.8032        5.0252        4.0999        9.1251       0.321943       0.00491
   7     589.8        8.7438        5.3292        3.7070        9.0363       0.292418       0.00438
   6     651.6        8.6861        5.6249        3.3248        8.9497       0.263563       0.00395
   5     718.7        8.6305        5.9107        2.9551        8.8659       0.235332       0.00355
   4     792.3        8.5778        6.1832        2.6023        8.7855       0.207730       0.00317
   3     825.4        7.7782        7.9492        0.0057        7.9549       0.176722       0.00791
   2     858.4        7.4637        7.6127        0.0000        7.6127       0.148992       0.00708
   1     891.5        7.2028        7.3262        0.0000        7.3262       0.123354       0.00655
   0    1013.0        7.2085        7.3042        0.0000        7.3042       0.095685       0.00192



 Wavenumbers: 38000. - 50000. cm-1, ATM      1
 LEVEL PRESSURE   UPWARD FLUX   DIFDOWN FLUX  DIRDOWN FLUX  DOWNWARD FLUX   NET FLUX    HEATING RATE
          mb          W/m2          W/m2          W/m2        W/m2          W/m2       degree/day
  51    .06700        0.0061        0.0000        1.2836        1.2836       1.277566       0.00000
  50    .07753        0.0060        0.0001        1.2812        1.2812       1.275231       1.87147
  49    .09103        0.0059        0.0002        1.2777        1.2778       1.271899       2.08243
  48    0.1069        0.0058        0.0002        1.2731        1.2734       1.267521       2.33056
  47    0.1255        0.0058        0.0004        1.2672        1.2675       1.261766       2.60905
  46    0.1487        0.0056        0.0005        1.2586        1.2591       1.253440       3.03495
  45    0.1794        0.0055        0.0007        1.2455        1.2462       1.240672       3.50516
  44    0.2165        0.0053        0.0009        1.2282        1.2291       1.223746       3.85033
  43    0.2613        0.0051        0.0011        1.2054        1.2065       1.201398       4.21256
  42    0.3336        0.0048        0.0015        1.1639        1.1654       1.160574       4.75965
  41    0.4307        0.0044        0.0020        1.1051        1.1070       1.102615       5.03937
  40    0.5894        0.0039        0.0026        1.0039        1.0064       1.002575       5.32000
  39     1.339        0.0022        0.0035        0.5438        0.5473       0.545166       5.14960
  38     1.782        0.0016        0.0032        0.3635        0.3666       0.365077       3.42860
  37     2.292        0.0011        0.0027        0.2356        0.2383       0.237147       2.11885
  36     5.035        0.0007        0.0019        0.1180        0.1199       0.119172       0.36298
  35     6.613        0.0004        0.0013        0.0504        0.0516       0.051220       0.36327
  34     8.786        0.0002        0.0009        0.0239        0.0248       0.024556       0.10355
  33     11.80        0.0001        0.0006        0.0105        0.0110       0.010913       0.03820
  32     15.07        0.0001        0.0004        0.0048        0.0052       0.005151       0.01488
  31     18.79        0.0000        0.0002        0.0022        0.0024       0.002406       0.00622
  30     23.16        0.0000        0.0001        0.0010        0.0011       0.001079       0.00257
  29     28.12        0.0000        0.0001        0.0004        0.0005       0.000469       0.00104
  28     33.73        0.0000        0.0000        0.0002        0.0002       0.000205       0.00040
  27     40.54        0.0000        0.0000        0.0001        0.0001       0.000083       0.00015
  26     48.69        0.0000        0.0000        0.0000        0.0000       0.000031       0.00005
  25     57.69        0.0000        0.0000        0.0000        0.0000       0.000011       0.00002
  24     68.43        0.0000        0.0000        0.0000        0.0000       0.000004       0.00001
  23     81.20        0.0000        0.0000        0.0000        0.0000       0.000001       0.00000
  22     96.49        0.0000        0.0000        0.0000        0.0000       0.000000       0.00000
  21     114.6        0.0000        0.0000        0.0000        0.0000       0.000000       0.00000
  20     136.5        0.0000        0.0000        0.0000        0.0000       0.000000       0.00000
  19     162.9        0.0000        0.0000        0.0000        0.0000       0.000000       0.00000
  18     196.4        0.0000        0.0000        0.0000        0.0000       0.000000       0.00000
  17     218.7        0.0000        0.0000        0.0000        0.0000       0.000000       0.00000
  16     243.0        0.0000        0.0000        0.0000        0.0000       0.000000       0.00000
  15     269.0        0.0000        0.0000        0.0000        0.0000       0.000000       0.00000
  14     297.5        0.0000        0.0000        0.0000        0.0000       0.000000       0.00000
  13     328.5        0.0000        0.0000        0.0000        0.0000       0.000000       0.00000
  12     361.9        0.0000        0.0000        0.0000        0.0000       0.000000       0.00000
  11     398.1        0.0000        0.0000        0.0000        0.0000       0.000000       0.00000
  10     437.6        0.0000        0.0000        0.0000        0.0000       0.000000       0.00000
   9     480.5        0.0000        0.0000        0.0000        0.0000       0.000000       0.00000
   8     533.0        0.0000        0.0000        0.0000        0.0000       0.000000       0.00000
   7     589.8        0.0000        0.0000        0.0000        0.0000       0.000000       0.00000
   6     651.6        0.0000        0.0000        0.0000        0.0000       0.000000       0.00000
   5     718.7        0.0000        0.0000        0.0000        0.0000       0.000000       0.00000
   4     792.3        0.0000        0.0000        0.0000        0.0000       0.000000       0.00000
   3     825.4        0.0000        0.0000        0.0000        0.0000       0.000000       0.00000
   2     858.4        0.0000        0.0000        0.0000        0.0000       0.000000       0.00000
   1     891.5        0.0000        0.0000        0.0000        0.0000       0.000000       0.00000
   0    1013.0        0.0000        0.0000        0.0000        0.0000       0.000000       0.00000



 Wavenumbers:   820. -  2600. cm-1, ATM      1
 LEVEL PRESSURE   UPWARD FLUX   DIFDOWN FLUX  DIRDOWN FLUX  DOWNWARD FLUX   NET FLUX    HEATING RATE
          mb          W/m2          W/m2          W/m2        W/m2          W/m2       degree/day
  51    .06700        1.4771        0.0000        6.0047        6.0047       4.527527       0.00000
  50    .07753        1.4771        0.0000        6.0008        6.0008       4.523674       3.08824
  49    .09103        1.4771        0.0000        5.9999        5.9999       4.522788       0.55361
  48    0.1069        1.4771        0.0000        5.9989        5.9989       4.521799       0.52656
  47    0.1255        1.4771        0.0000        5.9978        5.9978       4.520682       0.50653
  46    0.1487        1.4771        0.0000        5.9964        5.9964       4.519325       0.49461
  45    0.1794        1.4771        0.0000        5.9947        5.9947       4.517605       0.47204
  44    0.2165        1.4771        0.0000        5.9929        5.9929       4.515763       0.41914
  43    0.2613        1.4771        0.0000        5.9909        5.9909       4.513803       0.36937
  42    0.3336        1.4771        0.0000        5.9880        5.9880       4.510925       0.33560
  41    0.4307        1.4771        0.0000        5.9846        5.9846       4.507455       0.30169
  40    0.5894        1.4771        0.0000        5.9791        5.9791       4.501949       0.29281
  39     1.339        1.4771        0.0000        5.9536        5.9536       4.476457       0.28699
  38     1.782        1.4771        0.0000        5.9395        5.9395       4.462317       0.26922
  37     2.292        1.4771        0.0000        5.9237        5.9237       4.446562       0.26093
  36     5.035        1.4772        0.0000        5.8954        5.8954       4.418289       0.08699
  35     6.613        1.4772        0.0000        5.8469        5.8469       4.369782       0.25932
  34     8.786        1.4772        0.0000        5.7915        5.7915       4.314336       0.21533
  33     11.80        1.4772        0.0000        5.7245        5.7245       4.247262       0.18779
  32     15.07        1.4772        0.0000        5.6684        5.6684       4.191211       0.14471
  31     18.79        1.4773        0.0000        5.6231        5.6231       4.145790       0.10298
  30     23.16        1.4773        0.0000        5.5871        5.5871       4.109793       0.06961
  29     28.12        1.4773        0.0000        5.5583        5.5583       4.080950       0.04903
  28     33.73        1.4774        0.0000        5.5327        5.5328       4.055356       0.03848
  27     40.54        1.4775        0.0000        5.5051        5.5051       4.027619       0.03441
  26     48.69        1.4775        0.0000        5.4733        5.4733       3.995819       0.03291
  25     57.69        1.4776        0.0000        5.4393        5.4394       3.961761       0.03192
  24     68.43        1.4777        0.0000        5.3998        5.3999       3.922170       0.03112
  23     81.20        1.4778        0.0000        5.3545        5.3546       3.876767       0.03000
  22     96.49        1.4779        0.0000        5.3027        5.3028       3.824823       0.02867
  21     114.6        1.4781        0.0000        5.2431        5.2431       3.764999       0.02793
  20     136.5        1.4783        0.0000        5.1754        5.1755       3.697160       0.02609
  19     162.9        1.4786        0.0000        5.0924        5.0924       3.613787       0.02665
  18     196.4        1.4791        0.0000        4.9695        4.9695       3.490409       0.03106
  17     218.7        1.4796        0.0000        4.8606        4.8606       3.381012       0.04153
  16     243.0        1.4804        0.0000        4.7093        4.7093       3.228926       0.05275
  15     269.0        1.4816        0.0000        4.5352        4.5352       3.053582       0.05688
  14     297.5        1.4835        0.0000        4.3425        4.3426       2.859061       0.05769
  13     328.5        1.4861        0.0000        4.1286        4.1286       2.642563       0.05887
  12     361.9        1.4895        0.0000        3.8790        3.8791       2.389593       0.06400
  11     398.1        1.4939        0.0000        3.6162        3.6163       2.122356       0.06226
  10     437.6        1.4996        0.0000        3.3761        3.3761       1.876489       0.05257
   9     480.5        1.5066        0.0000        3.1959        3.1960       1.689316       0.03676
   8     533.0        1.5173        0.0000        3.0468        3.0468       1.529544       0.02570
   7     589.8        1.5330        0.0001        2.9024        2.9024       1.369397       0.02377
   6     651.6        1.5604        0.0001        2.7184        2.7185       1.158013       0.02891
   5     718.7        1.6079        0.0001        2.5059        2.5059       0.898021       0.03267
   4     792.3        1.6993        0.0001        2.2757        2.2757       0.576456       0.03688
   3     825.4        0.6581        0.9320        0.0051        0.9372       0.279062       0.07591
   2     858.4        0.2760        0.4471        0.0000        0.4471       0.171133       0.02755
   1     891.5        0.0007        0.1336        0.0000        0.1336       0.132868       0.00977
   0    1013.0        0.0008        0.1124        0.0000        0.1124       0.111599       0.00148

  Modules and versions used in this calculation:

       rrtmg_sw.1col.f90:  $Revision$                    rrtmg_sw_init.f90:  $Revision$        
     rrtmgsw_cldprop.f90:  $Revision$                  rrtmgsw_cldprmc.f90:  NOT USED          
     rrtmg_sw_reftra.f90:  $Revision$                  rrtmg_sw_spcvrt.f90:  NOT USED          
     rrtmg_sw_spcvmc.f90:  NOT USED                    rrtmgsw_setcoef.f90:  NOT USED          
     rrtmg_sw_taumol.f90:  $Revision$                  rrtmg_sw_vrtqdr.f90:  NOT USED          
                rrtatm.f:  NOT USED                             util_xxx.f:  NOT USED          
                 extra.f:  NOT USED                       rrtmg_sw_k_g.f90:  $Revision$        

