

 Wavenumbers:   820. - 50000. cm-1, ATM      1
 LEVEL PRESSURE   UPWARD FLUX   DIFDOWN FLUX  DIRDOWN FLUX  DOWNWARD FLUX   NET FLUX    HEATING RATE
          mb          W/m2          W/m2          W/m2        W/m2          W/m2       degree/day
  51    .06700      454.2959        0.0000      617.8126      617.8126     163.516677       0.00000
  50    .07753      454.2955        0.0014      617.7947      617.7961     163.500534      12.93920
  49    .09103      454.2951        0.0031      617.7778      617.7808     163.485719       9.25928
  48    0.1069      454.2946        0.0050      617.7581      617.7631     163.468452       9.19131
  47    0.1255      454.2941        0.0072      617.7340      617.7412     163.447101       9.67980
  46    0.1487      454.2936        0.0101      617.7009      617.7110     163.417405      10.82424
  45    0.1794      454.2929        0.0139      617.6521      617.6660     163.373160      12.14637
  44    0.2165      454.2921        0.0185      617.5895      617.6080     163.315820      13.04382
  43    0.2613      454.2915        0.0239      617.5089      617.5328     163.241283      14.04990
  42    0.3336      454.2907        0.0327      617.3641      617.3968     163.106154      15.75477
  41    0.4307      454.2900        0.0444      617.1591      617.2035     162.913465      16.75383
  40    0.5894      454.2900        0.0632      616.8005      616.8637     162.573654      18.07075
  39     1.339      454.3083        0.1483      614.9443      615.0925     160.784220      20.14578
  38     1.782      454.3319        0.1962      613.9670      614.1632     159.831299      18.14207
  37     2.292      454.3708        0.2506      613.0059      613.2565     158.885767      15.66048
  36     5.035      454.4851        0.3435      611.5124      611.8560     157.370817       4.66110
  35     6.613      454.7319        0.5075      609.6144      610.1219     155.390063      10.58911
  34     8.786      455.0539        0.7275      607.8253      608.5528     153.498966       7.34434
  33     11.80      455.4713        1.0403      605.8783      606.9186     151.447353       5.74387
  32     15.07      455.8689        1.3737      604.1777      605.5514     149.682535       4.55642
  31     18.79      456.2728        1.7485      602.5196      604.2681     147.995276       3.82553
  30     23.16      456.6924        2.1838      600.8127      602.9965     146.304055       3.27028
  29     28.12      457.1111        2.6791      599.0712      601.7503     144.639159       2.83021
  28     33.73      457.4901        3.2311      597.3500      600.5812     143.091059       2.32761
  27     40.54      457.8436        3.8955      595.5035      599.3990     141.555446       1.90510
  26     48.69      458.1686        4.6926      593.4958      598.1884     140.019777       1.58918
  25     57.69      458.4276        5.5638      591.4872      597.0510     138.623478       1.30882
  24     68.43      458.6295        6.5958      589.2939      595.8897     137.260165       1.07175
  23     81.20      458.7221        7.8191      586.9289      594.7481     136.025991       0.81552
  22     96.49      458.6952        9.2675      584.3423      593.6099     134.914662       0.61337
  21     114.6      458.6080       10.9714      581.4033      592.3747     133.766695       0.53602
  20     136.5      458.4600       12.9665      578.0541      591.0206     132.560597       0.46377
  19     162.9      458.2459       15.3077      574.1654      589.4731     131.227151       0.42622
  18     196.4      457.8809       18.2933      569.1760      587.4693     129.588361       0.41250
  17     218.7      457.6133       20.2236      565.6314      585.8550     128.241704       0.51128
  16     243.0      457.3155       22.2941      561.3129      583.6070     126.291500       0.67640
  15     269.0      456.9894       24.5060      555.9478      580.4539     123.464433       0.91709
  14     297.5      456.6417       26.8601      549.5394      576.3996     119.757884       1.09932
  13     328.5      456.2831       29.3630      542.6225      571.9855     115.702409       1.10267
  12     361.9      455.9226       32.0107      535.1469      567.1576     111.235005       1.13030
  11     398.1      455.5731       34.8079      526.9326      561.7405     106.167399       1.18064
  10     437.6      455.2595       37.7532      517.8921      555.6453     100.385776       1.23615
   9     480.5      455.0088       40.8446      508.2121      549.0567      94.047889       1.24474
   8     533.0      454.8604       44.5614      496.3783      540.9397      86.079351       1.28188
   7     589.8      454.9933       48.4616      483.5433      532.0049      77.011624       1.34595
   6     651.6      455.7466       52.5322      469.1414      521.6736      65.927013       1.51585
   5     718.7      457.6028       56.7650      453.6623      510.4273      52.824485       1.64662
   4     792.3      461.8467       61.1377      436.9145      498.0522      36.205556       1.90601
   3     825.4      315.0219      337.3269        0.0618      337.3887      22.366803       3.53226
   2     858.4      257.7614      275.5145        0.0000      275.5145      17.753117       1.17772
   1     891.5      208.7285      224.4901        0.0000      224.4901      15.761650       0.50851
   0    1013.0      209.4972      223.2668        0.0000      223.2668      13.769670       0.13831



 Wavenumbers:  2600. -  3250. cm-1, ATM      1
 LEVEL PRESSURE   UPWARD FLUX   DIFDOWN FLUX  DIRDOWN FLUX  DOWNWARD FLUX   NET FLUX    HEATING RATE
          mb          W/m2          W/m2          W/m2        W/m2          W/m2       degree/day
  51    .06700        2.0217        0.0000        5.4450        5.4450       3.423383       0.00000
  50    .07753        2.0217        0.0000        5.4450        5.4450       3.423375       0.00640
  49    .09103        2.0217        0.0000        5.4450        5.4450       3.423365       0.00627
  48    0.1069        2.0217        0.0000        5.4450        5.4450       3.423353       0.00613
  47    0.1255        2.0217        0.0000        5.4450        5.4450       3.423340       0.00599
  46    0.1487        2.0217        0.0000        5.4450        5.4450       3.423323       0.00608
  45    0.1794        2.0217        0.0000        5.4450        5.4450       3.423301       0.00625
  44    0.2165        2.0217        0.0000        5.4449        5.4449       3.423274       0.00612
  43    0.2613        2.0217        0.0000        5.4449        5.4449       3.423242       0.00600
  42    0.3336        2.0217        0.0000        5.4448        5.4448       3.423189       0.00617
  41    0.4307        2.0217        0.0000        5.4448        5.4448       3.423118       0.00620
  40    0.5894        2.0217        0.0000        5.4446        5.4446       3.422998       0.00637
  39     1.339        2.0217        0.0000        5.4439        5.4439       3.422290       0.00797
  38     1.782        2.0217        0.0000        5.4434        5.4434       3.421747       0.01034
  37     2.292        2.0217        0.0000        5.4427        5.4427       3.421031       0.01186
  36     5.035        2.0217        0.0000        5.4412        5.4412       3.419505       0.00470
  35     6.613        2.0217        0.0000        5.4381        5.4381       3.416427       0.01645
  34     8.786        2.0217        0.0000        5.4341        5.4341       3.412420       0.01556
  33     11.80        2.0217        0.0000        5.4288        5.4288       3.407173       0.01469
  32     15.07        2.0217        0.0000        5.4239        5.4239       3.402245       0.01272
  31     18.79        2.0217        0.0000        5.4191        5.4192       3.397499       0.01076
  30     23.16        2.0217        0.0000        5.4144        5.4144       3.392747       0.00919
  29     28.12        2.0217        0.0000        5.4096        5.4096       3.387910       0.00822
  28     33.73        2.0217        0.0000        5.4042        5.4042       3.382541       0.00807
  27     40.54        2.0217        0.0000        5.3972        5.3972       3.375507       0.00873
  26     48.69        2.0217        0.0000        5.3877        5.3877       3.365960       0.00988
  25     57.69        2.0218        0.0000        5.3759        5.3759       3.354109       0.01111
  24     68.43        2.0218        0.0000        5.3604        5.3604       3.338537       0.01224
  23     81.20        2.0219        0.0000        5.3405        5.3405       3.318590       0.01318
  22     96.49        2.0221        0.0000        5.3159        5.3159       3.293867       0.01365
  21     114.6        2.0222        0.0001        5.2857        5.2857       3.263461       0.01420
  20     136.5        2.0225        0.0001        5.2507        5.2508       3.228272       0.01353
  19     162.9        2.0229        0.0001        5.2113        5.2114       3.188539       0.01270
  18     196.4        2.0235        0.0001        5.1642        5.1643       3.140828       0.01201
  17     218.7        2.0241        0.0001        5.1333        5.1334       3.109268       0.01198
  16     243.0        2.0251        0.0001        5.0963        5.0964       3.071337       0.01316
  15     269.0        2.0267        0.0001        5.0512        5.0513       3.024624       0.01515
  14     297.5        2.0291        0.0001        4.9957        4.9958       2.966744       0.01717
  13     328.5        2.0324        0.0001        4.9304        4.9306       2.898177       0.01864
  12     361.9        2.0370        0.0002        4.8511        4.8513       2.814322       0.02122
  11     398.1        2.0433        0.0002        4.7507        4.7509       2.707572       0.02487
  10     437.6        2.0521        0.0002        4.6221        4.6222       2.570104       0.02939
   9     480.5        2.0644        0.0002        4.4625        4.4627       2.398278       0.03375
   8     533.0        2.0845        0.0002        4.2461        4.2463       2.161772       0.03805
   7     589.8        2.1153        0.0002        3.9954        3.9956       1.880366       0.04177
   6     651.6        2.1664        0.0002        3.7089        3.7091       1.542680       0.04618
   5     718.7        2.2517        0.0002        3.4018        3.4020       1.150321       0.04931
   4     792.3        2.4090        0.0002        3.0564        3.0567       0.647703       0.05764
   3     825.4        0.8897        1.1416        0.0004        1.1420       0.252349       0.10091
   2     858.4        0.3671        0.5123        0.0000        0.5123       0.145214       0.02735
   1     891.5        0.0008        0.1156        0.0000        0.1156       0.114860       0.00775
   0    1013.0        0.0009        0.1048        0.0000        0.1048       0.103919       0.00076



 Wavenumbers:  3250. -  4000. cm-1, ATM      1
 LEVEL PRESSURE   UPWARD FLUX   DIFDOWN FLUX  DIRDOWN FLUX  DOWNWARD FLUX   NET FLUX    HEATING RATE
          mb          W/m2          W/m2          W/m2        W/m2          W/m2       degree/day
  51    .06700        0.0638        0.0000        9.1795        9.1795       9.115695       0.00000
  50    .07753        0.0638        0.0000        9.1747        9.1747       9.110852       3.88162
  49    .09103        0.0638        0.0000        9.1713        9.1713       9.107464       2.11758
  48    0.1069        0.0638        0.0000        9.1688        9.1688       9.104939       1.34411
  47    0.1255        0.0638        0.0000        9.1665        9.1665       9.102679       1.02430
  46    0.1487        0.0638        0.0000        9.1641        9.1641       9.100238       0.88998
  45    0.1794        0.0638        0.0000        9.1612        9.1612       9.097360       0.79014
  44    0.2165        0.0638        0.0000        9.1583        9.1583       9.094439       0.66436
  43    0.2613        0.0638        0.0000        9.1553        9.1553       9.091466       0.56046
  42    0.3336        0.0638        0.0000        9.1511        9.1511       9.087287       0.48727
  41    0.4307        0.0638        0.0000        9.1464        9.1464       9.082518       0.41463
  40    0.5894        0.0638        0.0000        9.1393        9.1393       9.075512       0.37258
  39     1.339        0.0638        0.0000        9.1127        9.1127       9.048896       0.29965
  38     1.782        0.0638        0.0000        9.1011        9.1011       9.037307       0.22064
  37     2.292        0.0638        0.0000        9.0901        9.0901       9.026239       0.18331
  36     5.035        0.0638        0.0000        9.0731        9.0731       9.009307       0.05210
  35     6.613        0.0638        0.0000        9.0438        9.0439       8.980026       0.15653
  34     8.786        0.0638        0.0000        9.0058        9.0058       8.941941       0.14791
  33     11.80        0.0638        0.0000        8.9509        8.9509       8.887070       0.15362
  32     15.07        0.0638        0.0000        8.8914        8.8914       8.827591       0.15356
  31     18.79        0.0638        0.0000        8.8241        8.8242       8.760356       0.15244
  30     23.16        0.0638        0.0000        8.7473        8.7474       8.683544       0.14853
  29     28.12        0.0638        0.0000        8.6639        8.6640       8.600162       0.14174
  28     33.73        0.0638        0.0000        8.5784        8.5784       8.514651       0.12857
  27     40.54        0.0638        0.0001        8.4859        8.4860       8.422178       0.11472
  26     48.69        0.0638        0.0001        8.3873        8.3873       8.323554       0.10206
  25     57.69        0.0638        0.0001        8.2887        8.2888       8.225004       0.09238
  24     68.43        0.0637        0.0001        8.1771        8.1772       8.113487       0.08767
  23     81.20        0.0637        0.0001        8.0474        8.0475       7.983767       0.08572
  22     96.49        0.0637        0.0001        7.8963        7.8965       7.832754       0.08335
  21     114.6        0.0637        0.0001        7.7173        7.7174       7.653744       0.08359
  20     136.5        0.0637        0.0002        7.5201        7.5203       7.456628       0.07580
  19     162.9        0.0636        0.0002        7.2919        7.2921       7.228497       0.07292
  18     196.4        0.0636        0.0002        6.9664        6.9666       6.902983       0.08194
  17     218.7        0.0636        0.0002        6.6650        6.6652       6.601625       0.11441
  16     243.0        0.0636        0.0002        6.2620        6.2622       6.198638       0.13977
  15     269.0        0.0636        0.0003        5.7575        5.7578       5.694126       0.16366
  14     297.5        0.0638        0.0003        5.1717        5.1720       5.108190       0.17378
  13     328.5        0.0640        0.0002        4.5755        4.5757       4.511716       0.16218
  12     361.9        0.0644        0.0002        3.9992        3.9995       3.935082       0.14589
  11     398.1        0.0650        0.0002        3.4651        3.4653       3.400326       0.12459
  10     437.6        0.0661        0.0002        2.9736        2.9739       2.907760       0.10531
   9     480.5        0.0678        0.0002        2.5303        2.5305       2.462614       0.08743
   8     533.0        0.0712        0.0002        2.0610        2.0612       1.989923       0.07604
   7     589.8        0.0775        0.0002        1.6146        1.6148       1.537300       0.06718
   6     651.6        0.0905        0.0001        1.1562        1.1563       1.065793       0.06448
   5     718.7        0.1193        0.0001        0.7388        0.7389       0.619645       0.05607
   4     792.3        0.1961        0.0001        0.3984        0.3984       0.202309       0.04786
   3     825.4        0.0086        0.0200        0.0000        0.0200       0.011379       0.04873
   2     858.4        0.0005        0.0012        0.0000        0.0012       0.000679       0.00273
   1     891.5        0.0000        0.0001        0.0000        0.0001       0.000054       0.00016
   0    1013.0        0.0000        0.0000        0.0000        0.0000       0.000005       0.00000



 Wavenumbers:  4000. -  4650. cm-1, ATM      1
 LEVEL PRESSURE   UPWARD FLUX   DIFDOWN FLUX  DIRDOWN FLUX  DOWNWARD FLUX   NET FLUX    HEATING RATE
          mb          W/m2          W/m2          W/m2        W/m2          W/m2       degree/day
  51    .06700        6.6610        0.0000       10.7795       10.7795       4.118588       0.00000
  50    .07753        6.6610        0.0000       10.7795       10.7795       4.118587       0.00080
  49    .09103        6.6610        0.0000       10.7795       10.7795       4.118586       0.00078
  48    0.1069        6.6610        0.0000       10.7795       10.7795       4.118584       0.00077
  47    0.1255        6.6610        0.0000       10.7795       10.7795       4.118583       0.00075
  46    0.1487        6.6610        0.0000       10.7795       10.7795       4.118581       0.00076
  45    0.1794        6.6610        0.0000       10.7795       10.7795       4.118578       0.00078
  44    0.2165        6.6610        0.0000       10.7795       10.7795       4.118574       0.00076
  43    0.2613        6.6610        0.0000       10.7795       10.7795       4.118570       0.00075
  42    0.3336        6.6610        0.0000       10.7795       10.7795       4.118564       0.00077
  41    0.4307        6.6610        0.0000       10.7795       10.7795       4.118555       0.00077
  40    0.5894        6.6610        0.0000       10.7795       10.7795       4.118540       0.00080
  39     1.339        6.6610        0.0000       10.7794       10.7794       4.118450       0.00101
  38     1.782        6.6610        0.0000       10.7793       10.7793       4.118380       0.00133
  37     2.292        6.6610        0.0000       10.7792       10.7792       4.118286       0.00156
  36     5.035        6.6609        0.0000       10.7790       10.7790       4.118078       0.00064
  35     6.613        6.6609        0.0000       10.7785       10.7786       4.117624       0.00243
  34     8.786        6.6609        0.0000       10.7779       10.7779       4.116953       0.00260
  33     11.80        6.6609        0.0000       10.7768       10.7768       4.115900       0.00295
  32     15.07        6.6609        0.0001       10.7755       10.7756       4.114663       0.00319
  31     18.79        6.6610        0.0001       10.7740       10.7741       4.113166       0.00339
  30     23.16        6.6610        0.0001       10.7722       10.7723       4.111306       0.00360
  29     28.12        6.6610        0.0001       10.7699       10.7700       4.109052       0.00383
  28     33.73        6.6610        0.0002       10.7671       10.7673       4.106271       0.00418
  27     40.54        6.6610        0.0002       10.7633       10.7635       4.102494       0.00469
  26     48.69        6.6611        0.0002       10.7583       10.7586       4.097456       0.00521
  25     57.69        6.6612        0.0003       10.7524       10.7527       4.091473       0.00561
  24     68.43        6.6614        0.0003       10.7450       10.7453       4.083963       0.00590
  23     81.20        6.6616        0.0004       10.7359       10.7363       4.074697       0.00612
  22     96.49        6.6619        0.0005       10.7249       10.7253       4.063397       0.00624
  21     114.6        6.6624        0.0006       10.7111       10.7116       4.049228       0.00662
  20     136.5        6.6631        0.0007       10.6945       10.6952       4.032108       0.00658
  19     162.9        6.6641        0.0008       10.6744       10.6752       4.011039       0.00673
  18     196.4        6.6658        0.0010       10.6467       10.6476       3.981830       0.00735
  17     218.7        6.6673        0.0011       10.6258       10.6268       3.959509       0.00847
  16     243.0        6.6695        0.0012       10.5983       10.5995       3.930000       0.01023
  15     269.0        6.6728        0.0013       10.5613       10.5627       3.889884       0.01301
  14     297.5        6.6775        0.0015       10.5122       10.5136       3.836089       0.01595
  13     328.5        6.6841        0.0016       10.4501       10.4517       3.767619       0.01862
  12     361.9        6.6926        0.0018       10.3704       10.3721       3.679491       0.02230
  11     398.1        6.7034        0.0019       10.2679       10.2699       3.566451       0.02634
  10     437.6        6.7172        0.0021       10.1391       10.1412       3.424002       0.03046
   9     480.5        6.7349        0.0023        9.9878        9.9901       3.255123       0.03317
   8     533.0        6.7623        0.0025        9.7937        9.7962       3.033871       0.03559
   7     589.8        6.8022        0.0027        9.5752        9.5779       2.775672       0.03833
   6     651.6        6.8670        0.0029        9.2958        9.2988       2.431722       0.04704
   5     718.7        6.9772        0.0031        8.9267        8.9299       1.952732       0.06020
   4     792.3        7.1876        0.0033        8.4542        8.4576       1.269951       0.07831
   3     825.4        3.3194        4.0277        0.0012        4.0289       0.709492       0.14305
   2     858.4        1.5498        2.0943        0.0000        2.0943       0.544463       0.04213
   1     891.5        0.0321        0.5254        0.0000        0.5254       0.493215       0.01309
   0    1013.0        0.0332        0.5052        0.0000        0.5052       0.471951       0.00148



 Wavenumbers:  4650. -  5150. cm-1, ATM      1
 LEVEL PRESSURE   UPWARD FLUX   DIFDOWN FLUX  DIRDOWN FLUX  DOWNWARD FLUX   NET FLUX    HEATING RATE
          mb          W/m2          W/m2          W/m2        W/m2          W/m2       degree/day
  51    .06700        4.7888        0.0000       10.2033       10.2033       5.414507       0.00000
  50    .07753        4.7888        0.0000       10.2031       10.2031       5.414271       0.18901
  49    .09103        4.7888        0.0000       10.2028       10.2028       5.413976       0.18428
  48    0.1069        4.7888        0.0000       10.2025       10.2025       5.413639       0.17931
  47    0.1255        4.7888        0.0000       10.2021       10.2021       5.413255       0.17426
  46    0.1487        4.7888        0.0000       10.2016       10.2016       5.412774       0.17536
  45    0.1794        4.7888        0.0000       10.2010       10.2010       5.412124       0.17850
  44    0.2165        4.7888        0.0000       10.2002       10.2002       5.411364       0.17277
  43    0.2613        4.7888        0.0000       10.1993       10.1993       5.410479       0.16690
  42    0.3336        4.7888        0.0000       10.1979       10.1979       5.409046       0.16702
  41    0.4307        4.7888        0.0000       10.1960       10.1960       5.407206       0.16002
  40    0.5894        4.7888        0.0000       10.1932       10.1932       5.404332       0.15283
  39     1.339        4.7888        0.0000       10.1816       10.1816       5.392740       0.13051
  38     1.782        4.7888        0.0000       10.1760       10.1760       5.387210       0.10527
  37     2.292        4.7888        0.0000       10.1706       10.1706       5.381753       0.09039
  36     5.035        4.7888        0.0000       10.1630       10.1630       5.374166       0.02334
  35     6.613        4.7888        0.0000       10.1533       10.1533       5.364456       0.05191
  34     8.786        4.7888        0.0000       10.1442       10.1442       5.355360       0.03532
  33     11.80        4.7889        0.0001       10.1340       10.1341       5.345209       0.02842
  32     15.07        4.7889        0.0001       10.1237       10.1238       5.334931       0.02654
  31     18.79        4.7889        0.0001       10.1115       10.1117       5.322721       0.02768
  30     23.16        4.7890        0.0002       10.0961       10.0963       5.307244       0.02993
  29     28.12        4.7891        0.0002       10.0769       10.0771       5.287951       0.03280
  28     33.73        4.7892        0.0002       10.0536       10.0539       5.264613       0.03509
  27     40.54        4.7894        0.0003       10.0235       10.0238       5.234384       0.03750
  26     48.69        4.7897        0.0003        9.9852        9.9855       5.195777       0.03995
  25     57.69        4.7901        0.0004        9.9414        9.9418       5.151715       0.04130
  24     68.43        4.7906        0.0005        9.8884        9.8889       5.098310       0.04198
  23     81.20        4.7913        0.0006        9.8258        9.8263       5.035057       0.04180
  22     96.49        4.7922        0.0007        9.7537        9.7544       4.962145       0.04024
  21     114.6        4.7936        0.0008        9.6735        9.6743       4.880711       0.03802
  20     136.5        4.7954        0.0009        9.5870        9.5879       4.792525       0.03391
  19     162.9        4.7980        0.0011        9.4949        9.4960       4.698047       0.03020
  18     196.4        4.8019        0.0013        9.3889        9.3902       4.588274       0.02763
  17     218.7        4.8050        0.0015        9.3234        9.3249       4.519832       0.02598
  16     243.0        4.8091        0.0016        9.2524        9.2540       4.444935       0.02598
  15     269.0        4.8144        0.0018        9.1720        9.1738       4.359328       0.02777
  14     297.5        4.8220        0.0020        9.0765        9.0785       4.256561       0.03048
  13     328.5        4.8317        0.0022        8.9652        8.9674       4.135615       0.03288
  12     361.9        4.8444        0.0023        8.8351        8.8375       3.993106       0.03606
  11     398.1        4.8608        0.0026        8.6822        8.6847       3.823982       0.03940
  10     437.6        4.8821        0.0028        8.5030        8.5057       3.623605       0.04284
   9     480.5        4.9099        0.0030        8.2950        8.2979       3.388005       0.04627
   8     533.0        4.9524        0.0032        8.0210        8.0242       3.071804       0.05087
   7     589.8        5.0117        0.0035        7.7064        7.7099       2.698228       0.05545
   6     651.6        5.0997        0.0037        7.3413        7.3450       2.245342       0.06193
   5     718.7        5.2335        0.0039        6.9387        6.9426       1.709096       0.06739
   4     792.3        5.4496        0.0041        6.5066        6.5108       1.061201       0.07431
   3     825.4        2.3763        2.9294        0.0009        2.9303       0.554063       0.12944
   2     858.4        1.0679        1.4590        0.0000        1.4590       0.391178       0.04158
   1     891.5        0.0057        0.3480        0.0000        0.3480       0.342317       0.01248
   0    1013.0        0.0059        0.3317        0.0000        0.3317       0.325723       0.00115



 Wavenumbers:  5150. -  6150. cm-1, ATM      1
 LEVEL PRESSURE   UPWARD FLUX   DIFDOWN FLUX  DIRDOWN FLUX  DOWNWARD FLUX   NET FLUX    HEATING RATE
          mb          W/m2          W/m2          W/m2        W/m2          W/m2       degree/day
  51    .06700       11.4664        0.0000       25.5798       25.5798      14.113424       0.00000
  50    .07753       11.4664        0.0000       25.5798       25.5798      14.113384       0.03163
  49    .09103       11.4664        0.0000       25.5797       25.5797      14.113333       0.03211
  48    0.1069       11.4664        0.0000       25.5797       25.5797      14.113272       0.03262
  47    0.1255       11.4664        0.0000       25.5796       25.5796      14.113199       0.03312
  46    0.1487       11.4664        0.0000       25.5795       25.5795      14.113103       0.03489
  45    0.1794       11.4664        0.0000       25.5794       25.5794      14.112968       0.03713
  44    0.2165       11.4664        0.0000       25.5792       25.5792      14.112802       0.03770
  43    0.2613       11.4664        0.0000       25.5790       25.5790      14.112599       0.03827
  42    0.3336       11.4664        0.0000       25.5786       25.5786      14.112252       0.04044
  41    0.4307       11.4664        0.0000       25.5782       25.5782      14.111781       0.04098
  40    0.5894       11.4664        0.0000       25.5774       25.5774      14.110991       0.04199
  39     1.339       11.4664        0.0000       25.5735       25.5736      14.107187       0.04283
  38     1.782       11.4664        0.0001       25.5713       25.5714      14.104971       0.04218
  37     2.292       11.4664        0.0001       25.5688       25.5688      14.102463       0.04154
  36     5.035       11.4664        0.0001       25.5647       25.5648      14.098361       0.01262
  35     6.613       11.4664        0.0002       25.5576       25.5578      14.091369       0.03738
  34     8.786       11.4664        0.0002       25.5485       25.5487      14.082307       0.03519
  33     11.80       11.4665        0.0003       25.5362       25.5365      14.070049       0.03432
  32     15.07       11.4665        0.0004       25.5239       25.5243      14.057753       0.03175
  31     18.79       11.4666        0.0005       25.5110       25.5115      14.044896       0.02915
  30     23.16       11.4667        0.0007       25.4971       25.4977      14.031042       0.02679
  29     28.12       11.4668        0.0008       25.4824       25.4833      14.016429       0.02484
  28     33.73       11.4670        0.0010       25.4676       25.4686      14.001610       0.02228
  27     40.54       11.4672        0.0012       25.4514       25.4526      13.985387       0.02013
  26     48.69       11.4676        0.0015       25.4341       25.4356      13.967988       0.01800
  25     57.69       11.4680        0.0018       25.4169       25.4187      13.950689       0.01622
  24     68.43       11.4686        0.0021       25.3983       25.4004      13.931882       0.01479
  23     81.20       11.4693        0.0026       25.3779       25.3804      13.911165       0.01369
  22     96.49       11.4701        0.0030       25.3550       25.3580      13.887874       0.01285
  21     114.6       11.4712        0.0036       25.3288       25.3324      13.861171       0.01247
  20     136.5       11.4725        0.0043       25.2983       25.3027      13.830118       0.01194
  19     162.9       11.4742        0.0051       25.2537       25.2588      13.784650       0.01453
  18     196.4       11.4765        0.0062       25.1601       25.1663      13.689877       0.02386
  17     218.7       11.4781        0.0069       25.0164       25.0232      13.545133       0.05495
  16     243.0       11.4801        0.0076       24.7092       24.7168      13.236690       0.10698
  15     269.0       11.4827        0.0083       24.1621       24.1704      12.687698       0.17809
  14     297.5       11.4862        0.0090       23.4546       23.4636      11.977388       0.21067
  13     328.5       11.4907        0.0097       22.7357       22.7453      11.254613       0.19652
  12     361.9       11.4967        0.0104       21.9226       21.9330      10.436283       0.20705
  11     398.1       11.5048        0.0111       20.9941       21.0052       9.500415       0.21804
  10     437.6       11.5159        0.0118       19.9835       19.9953       8.479342       0.21831
   9     480.5       11.5314        0.0124       18.9485       18.9609       7.429532       0.20618
   8     533.0       11.5575        0.0132       17.7798       17.7930       6.235409       0.19210
   7     589.8       11.5999        0.0140       16.6727       16.6867       5.086753       0.17050
   6     651.6       11.6776        0.0148       15.6344       15.6492       3.971620       0.15250
   5     718.7       11.8203        0.0156       14.7739       14.7896       2.969250       0.12597
   4     792.3       12.1076        0.0166       14.0292       14.0458       1.938212       0.11825
   3     825.4        5.8605        7.0176        0.0020        7.0195       1.159045       0.19888
   2     858.4        2.8269        3.7854        0.0000        3.7854       0.958523       0.05119
   1     891.5        0.0762        0.9797        0.0000        0.9797       0.903496       0.01405
   0    1013.0        0.0776        0.9581        0.0000        0.9581       0.880489       0.00160



 Wavenumbers:  6150. -  7700. cm-1, ATM      1
 LEVEL PRESSURE   UPWARD FLUX   DIFDOWN FLUX  DIRDOWN FLUX  DOWNWARD FLUX   NET FLUX    HEATING RATE
          mb          W/m2          W/m2          W/m2        W/m2          W/m2       degree/day
  51    .06700       18.2697        0.0000       47.3109       47.3109      29.041111       0.00000
  50    .07753       18.2697        0.0000       47.3108       47.3108      29.041054       0.04553
  49    .09103       18.2697        0.0000       47.3107       47.3107      29.040981       0.04583
  48    0.1069       18.2697        0.0000       47.3106       47.3106      29.040894       0.04614
  47    0.1255       18.2697        0.0000       47.3105       47.3105      29.040792       0.04645
  46    0.1487       18.2697        0.0000       47.3104       47.3104      29.040659       0.04852
  45    0.1794       18.2697        0.0000       47.3102       47.3102      29.040472       0.05127
  44    0.2165       18.2697        0.0000       47.3100       47.3100      29.040245       0.05167
  43    0.2613       18.2697        0.0000       47.3097       47.3097      29.039969       0.05210
  42    0.3336       18.2697        0.0000       47.3092       47.3092      29.039499       0.05471
  41    0.4307       18.2697        0.0000       47.3085       47.3086      29.038864       0.05521
  40    0.5894       18.2697        0.0001       47.3074       47.3075      29.037805       0.05633
  39     1.339       18.2697        0.0002       47.3022       47.3024      29.032713       0.05733
  38     1.782       18.2696        0.0002       47.2991       47.2994      29.029743       0.05655
  37     2.292       18.2696        0.0003       47.2956       47.2959      29.026367       0.05591
  36     5.035       18.2695        0.0004       47.2899       47.2903      29.020791       0.01715
  35     6.613       18.2694        0.0006       47.2800       47.2806      29.011216       0.05119
  34     8.786       18.2692        0.0009       47.2670       47.2679      28.998672       0.04872
  33     11.80       18.2690        0.0013       47.2491       47.2504      28.981435       0.04826
  32     15.07       18.2687        0.0017       47.2308       47.2326      28.963810       0.04550
  31     18.79       18.2685        0.0022       47.2112       47.2134      28.944974       0.04271
  30     23.16       18.2681        0.0028       47.1895       47.1923      28.924197       0.04018
  29     28.12       18.2678        0.0035       47.1661       47.1696      28.901793       0.03808
  28     33.73       18.2673        0.0042       47.1416       47.1458      28.878453       0.03509
  27     40.54       18.2668        0.0051       47.1141       47.1192      28.852360       0.03237
  26     48.69       18.2662        0.0062       47.0837       47.0898      28.823620       0.02974
  25     57.69       18.2655        0.0074       47.0527       47.0601      28.794522       0.02727
  24     68.43       18.2647        0.0088       47.0183       47.0270      28.762280       0.02535
  23     81.20       18.2638        0.0104       46.9796       46.9900      28.726250       0.02381
  22     96.49       18.2627        0.0124       46.9356       46.9480      28.685339       0.02258
  21     114.6       18.2613        0.0148       46.8846       46.8994      28.638101       0.02206
  20     136.5       18.2598        0.0176       46.8250       46.8426      28.582837       0.02125
  19     162.9       18.2579        0.0210       46.7403       46.7613      28.503403       0.02539
  18     196.4       18.2557        0.0254       46.5732       46.5986      28.342844       0.04041
  17     218.7       18.2545        0.0281       46.3491       46.3773      28.122762       0.08356
  16     243.0       18.2535        0.0311       45.9309       45.9620      27.708427       0.14371
  15     269.0       18.2534        0.0341       45.1716       45.2056      26.952241       0.24530
  14     297.5       18.2548        0.0370       44.0121       44.0490      25.794233       0.34345
  13     328.5       18.2584        0.0399       42.7247       42.7646      24.506254       0.35020
  12     361.9       18.2652        0.0430       41.3543       41.3973      23.132113       0.34767
  11     398.1       18.2771        0.0460       39.7956       39.8416      21.564518       0.36521
  10     437.6       18.2972        0.0488       37.9951       38.0439      19.746753       0.38865
   9     480.5       18.3292        0.0515       36.0650       36.1166      17.787306       0.38483
   8     533.0       18.3896        0.0545       33.7776       33.8321      15.442439       0.37721
   7     589.8       18.4949        0.0572       31.4085       31.4657      12.970724       0.36688
   6     651.6       18.6984        0.0595       28.8836       28.9431      10.244680       0.37279
   5     718.7       19.0887        0.0615       26.4106       26.4721       7.383432       0.35958
   4     792.3       19.9233        0.0632       24.0058       24.0691       4.145714       0.37133
   3     825.4        8.8585       10.7915        0.0032       10.7947       1.936175       0.56397
   2     858.4        4.1688        5.5962        0.0000        5.5962       1.427441       0.12986
   1     891.5        0.2086        1.4951        0.0000        1.4951       1.286493       0.03599
   0    1013.0        0.2150        1.4398        0.0000        1.4398       1.224863       0.00428



 Wavenumbers:  7700. -  8050. cm-1, ATM      1
 LEVEL PRESSURE   UPWARD FLUX   DIFDOWN FLUX  DIRDOWN FLUX  DOWNWARD FLUX   NET FLUX    HEATING RATE
          mb          W/m2          W/m2          W/m2        W/m2          W/m2       degree/day
  51    .06700        8.4838        0.0000       11.1810       11.1810       2.697186       0.00000
  50    .07753        8.4838        0.0000       11.1809       11.1809       2.697162       0.01901
  49    .09103        8.4838        0.0000       11.1809       11.1809       2.697133       0.01863
  48    0.1069        8.4838        0.0000       11.1809       11.1809       2.697098       0.01824
  47    0.1255        8.4838        0.0000       11.1809       11.1809       2.697059       0.01785
  46    0.1487        8.4838        0.0000       11.1808       11.1808       2.697009       0.01811
  45    0.1794        8.4838        0.0000       11.1808       11.1808       2.696941       0.01864
  44    0.2165        8.4839        0.0000       11.1807       11.1807       2.696861       0.01828
  43    0.2613        8.4839        0.0000       11.1806       11.1806       2.696766       0.01794
  42    0.3336        8.4839        0.0000       11.1805       11.1805       2.696608       0.01836
  41    0.4307        8.4840        0.0000       11.1803       11.1804       2.696400       0.01816
  40    0.5894        8.4841        0.0000       11.1801       11.1801       2.696059       0.01814
  39     1.339        8.4844        0.0001       11.1788       11.1789       2.694445       0.01817
  38     1.782        8.4847        0.0001       11.1781       11.1782       2.693497       0.01805
  37     2.292        8.4849        0.0001       11.1772       11.1773       2.692400       0.01817
  36     5.035        8.4854        0.0002       11.1757       11.1759       2.690496       0.00586
  35     6.613        8.4862        0.0003       11.1731       11.1734       2.687114       0.01808
  34     8.786        8.4874        0.0004       11.1695       11.1699       2.682558       0.01769
  33     11.80        8.4890        0.0006       11.1644       11.1650       2.676043       0.01824
  32     15.07        8.4907        0.0008       11.1589       11.1597       2.669051       0.01805
  31     18.79        8.4926        0.0010       11.1528       11.1538       2.661159       0.01789
  30     23.16        8.4949        0.0013       11.1456       11.1469       2.651948       0.01781
  29     28.12        8.4976        0.0016       11.1374       11.1390       2.641428       0.01788
  28     33.73        8.5005        0.0020       11.1282       11.1302       2.629671       0.01768
  27     40.54        8.5041        0.0024       11.1172       11.1196       2.615490       0.01759
  26     48.69        8.5084        0.0029       11.1040       11.1069       2.598433       0.01765
  25     57.69        8.5132        0.0034       11.0896       11.0930       2.579744       0.01752
  24     68.43        8.5190        0.0041       11.0725       11.0765       2.557554       0.01744
  23     81.20        8.5259        0.0048       11.0523       11.0571       2.531215       0.01740
  22     96.49        8.5342        0.0058       11.0284       11.0342       2.499967       0.01725
  21     114.6        8.5442        0.0069       11.0004       11.0072       2.463058       0.01723
  20     136.5        8.5562        0.0082       10.9676       10.9757       2.419570       0.01672
  19     162.9        8.5706        0.0097       10.9290       10.9387       2.368130       0.01644
  18     196.4        8.5897        0.0117       10.8799       10.8916       2.301937       0.01666
  17     218.7        8.6025        0.0130       10.8482       10.8612       2.258725       0.01641
  16     243.0        8.6166        0.0145       10.8140       10.8285       2.211917       0.01623
  15     269.0        8.6321        0.0160       10.7774       10.7934       2.161288       0.01642
  14     297.5        8.6493        0.0177       10.7382       10.7559       2.106538       0.01624
  13     328.5        8.6684        0.0195       10.6962       10.7156       2.047265       0.01612
  12     361.9        8.6895        0.0214       10.6512       10.6727       1.983147       0.01622
  11     398.1        8.7130        0.0235       10.6031       10.6266       1.913547       0.01622
  10     437.6        8.7394        0.0258       10.5513       10.5771       1.837671       0.01622
   9     480.5        8.7690        0.0282       10.4956       10.5238       1.754764       0.01628
   8     533.0        8.8077        0.0311       10.4264       10.4575       1.649875       0.01687
   7     589.8        8.8527        0.0343       10.3500       10.3843       1.531552       0.01756
   6     651.6        8.9068        0.0377       10.2633       10.3010       1.394258       0.01878
   5     718.7        8.9731        0.0413       10.1637       10.2050       1.231896       0.02040
   4     792.3        9.0575        0.0452       10.0457       10.0909       1.033362       0.02277
   3     825.4        4.7892        5.6190        0.0015        5.6205       0.831315       0.05157
   2     858.4        2.5279        3.2477        0.0000        3.2477       0.719871       0.02845
   1     891.5        0.4755        1.1457        0.0000        1.1457       0.670268       0.01267
   0    1013.0        0.4846        1.1233        0.0000        1.1233       0.638690       0.00219



 Wavenumbers:  8050. - 12850. cm-1, ATM      1
 LEVEL PRESSURE   UPWARD FLUX   DIFDOWN FLUX  DIRDOWN FLUX  DOWNWARD FLUX   NET FLUX    HEATING RATE
          mb          W/m2          W/m2          W/m2        W/m2          W/m2       degree/day
  51    .06700      111.5515        0.0000      156.5418      156.5418      44.990243       0.00000
  50    .07753      111.5515        0.0000      156.5417      156.5417      44.990243       0.00000
  49    .09103      111.5515        0.0001      156.5417      156.5417      44.990243      -0.00000
  48    0.1069      111.5515        0.0001      156.5416      156.5417      44.990243       0.00000
  47    0.1255      111.5515        0.0002      156.5415      156.5417      44.990243      -0.00000
  46    0.1487      111.5514        0.0002      156.5414      156.5417      44.990243      -0.00000
  45    0.1794      111.5514        0.0003      156.5413      156.5416      44.990243       0.00000
  44    0.2165      111.5514        0.0005      156.5412      156.5416      44.990243       0.00000
  43    0.2613      111.5513        0.0006      156.5410      156.5416      44.990243       0.00000
  42    0.3336      111.5513        0.0008      156.5407      156.5415      44.990243      -0.00000
  41    0.4307      111.5512        0.0011      156.5403      156.5414      44.990243       0.00000
  40    0.5894      111.5510        0.0016      156.5397      156.5412      44.990243       0.00000
  39     1.339      111.5503        0.0038      156.5367      156.5405      44.990243      -0.00000
  38     1.782      111.5499        0.0051      156.5350      156.5401      44.990243       0.00000
  37     2.292      111.5494        0.0066      156.5330      156.5396      44.990243      -0.00000
  36     5.035      111.5485        0.0093      156.5295      156.5388      44.990243      -0.00000
  35     6.613      111.5470        0.0140      156.5233      156.5373      44.990243       0.00000
  34     8.786      111.5450        0.0203      156.5149      156.5352      44.990243       0.00000
  33     11.80      111.5421        0.0294      156.5029      156.5323      44.990243      -0.00000
  32     15.07      111.5390        0.0391      156.4901      156.5292      44.990243       0.00000
  31     18.79      111.5354        0.0502      156.4755      156.5257      44.990243       0.00000
  30     23.16      111.5313        0.0631      156.4585      156.5215      44.990243      -0.00000
  29     28.12      111.5266        0.0778      156.4390      156.5168      44.990243      -0.00000
  28     33.73      111.5212        0.0944      156.4171      156.5115      44.990243       0.00000
  27     40.54      111.5148        0.1144      156.3907      156.5051      44.990243       0.00000
  26     48.69      111.5071        0.1385      156.3588      156.4973      44.990243      -0.00000
  25     57.69      111.4986        0.1651      156.3237      156.4888      44.990243      -0.00000
  24     68.43      111.4884        0.1968      156.2818      156.4786      44.990243      -0.00000
  23     81.20      111.4762        0.2346      156.2319      156.4665      44.990243       0.00000
  22     96.49      111.4617        0.2798      156.1722      156.4520      44.990243      -0.00000
  21     114.6      111.4448        0.3335      156.0952      156.4287      44.983959       0.00293
  20     136.5      111.4246        0.3973      156.0034      156.4007      44.976168       0.00300
  19     162.9      111.4005        0.4735      155.8903      156.3638      44.963254       0.00413
  18     196.4      111.3694        0.5725      155.7272      156.2997      44.930228       0.00831
  17     218.7      111.3495        0.6376      155.5805      156.2182      44.868681       0.02337
  16     243.0      111.3290        0.7084      155.3439      156.0523      44.723333       0.05041
  15     269.0      111.3097        0.7850      154.9586      155.7437      44.433946       0.09388
  14     297.5      111.2945        0.8675      154.3968      155.2643      43.969816       0.13766
  13     328.5      111.2853        0.9565      153.7223      154.6788      43.393469       0.15671
  12     361.9      111.2860        1.0520      152.9159      153.9679      42.681915       0.18003
  11     398.1      111.3031        1.1542      151.9057      153.0599      41.756813       0.21553
  10     437.6      111.3479        1.2629      150.6102      151.8732      40.525222       0.26332
   9     480.5      111.4342        1.3780      149.0084      150.3864      38.952232       0.30893
   8     533.0      111.6129        1.5173      146.7445      148.2618      36.648891       0.37053
   7     589.8      111.9408        1.6634      143.8798      145.5432      33.602329       0.45221
   6     651.6      112.5850        1.8133      140.1022      141.9155      29.330531       0.58418
   5     718.7      113.7944        1.9656      135.5343      137.4998      23.705416       0.70692
   4     792.3      116.2027        2.1163      130.0753      132.1916      15.988899       0.88500
   3     825.4       62.7411       72.0243        0.0182       72.0425       9.301345       1.70696
   2     858.4       39.4302       46.6023        0.0000       46.6023       7.172081       0.54353
   1     891.5       19.7367       26.0680        0.0000       26.0680       6.331342       0.21468
   0    1013.0       20.0672       25.5763        0.0000       25.5763       5.509136       0.05709



 Wavenumbers: 12850. - 16000. cm-1, ATM      1
 LEVEL PRESSURE   UPWARD FLUX   DIFDOWN FLUX  DIRDOWN FLUX  DOWNWARD FLUX   NET FLUX    HEATING RATE
          mb          W/m2          W/m2          W/m2        W/m2          W/m2       degree/day
  51    .06700       81.5976        0.0000       98.0872       98.0872      16.489631       0.00000
  50    .07753       81.5976        0.0001       98.0864       98.0864      16.488838       0.63552
  49    .09103       81.5976        0.0002       98.0853       98.0855      16.487842       0.62258
  48    0.1069       81.5976        0.0003       98.0841       98.0843      16.486697       0.60942
  47    0.1255       81.5976        0.0004       98.0826       98.0830      16.485381       0.59658
  46    0.1487       81.5977        0.0005       98.0809       98.0814      16.483720       0.60565
  45    0.1794       81.5977        0.0007       98.0784       98.0792      16.481458       0.62080
  44    0.2165       81.5978        0.0010       98.0756       98.0766      16.478797       0.60547
  43    0.2613       81.5979        0.0013       98.0723       98.0736      16.475664       0.59040
  42    0.3336       81.5982        0.0017       98.0670       98.0688      16.470548       0.59651
  41    0.4307       81.5986        0.0024       98.0602       98.0626      16.463926       0.57581
  40    0.5894       81.5995        0.0034       98.0496       98.0530      16.453476       0.55572
  39     1.339       81.6067        0.0083       98.0043       98.0126      16.405890       0.53573
  38     1.782       81.6132        0.0111       97.9793       97.9904      16.377170       0.54678
  37     2.292       81.6229        0.0144       97.9498       97.9642      16.341296       0.59417
  36     5.035       81.6486        0.0202       97.8891       97.9093      16.260699       0.24798
  35     6.613       81.7025        0.0304       97.7746       97.8050      16.102486       0.84581
  34     8.786       81.7726        0.0441       97.6278       97.6718      15.899215       0.78943
  33     11.80       81.8641        0.0637       97.4339       97.4975      15.633451       0.74406
  32     15.07       81.9518        0.0847       97.2433       97.3279      15.376149       0.66430
  31     18.79       82.0415        0.1084       97.0439       97.1522      15.110715       0.60182
  30     23.16       82.1355        0.1361       96.8292       96.9652      14.829730       0.54333
  29     28.12       82.2304        0.1677       96.6048       96.7725      14.542134       0.48889
  28     33.73       82.3184        0.2031       96.3831       96.5862      14.267740       0.41256
  27     40.54       82.4039        0.2459       96.1494       96.3952      13.991284       0.34298
  26     48.69       82.4867        0.2974       95.9016       96.1991      13.712399       0.28860
  25     57.69       82.5579        0.3541       95.6629       96.0170      13.459114       0.23742
  24     68.43       82.6215        0.4216       95.4149       95.8365      13.215003       0.19190
  23     81.20       82.6681        0.5021       95.1674       95.6695      13.001394       0.14115
  22     96.49       82.6967        0.5982       94.9172       95.5154      12.818674       0.10085
  21     114.6       82.7292        0.7133       94.6421       95.3554      12.626249       0.08985
  20     136.5       82.7562        0.8498       94.3324       95.1822      12.425989       0.07701
  19     162.9       82.7779        1.0123       93.9750       94.9873      12.209413       0.06923
  18     196.4       82.7838        1.2231       93.5336       94.7568      11.972951       0.05952
  17     218.7       82.7799        1.3616       93.2498       94.6114      11.831505       0.05370
  16     243.0       82.7726        1.5121       92.9420       94.4541      11.681517       0.05202
  15     269.0       82.7619        1.6751       92.6087       94.2838      11.521880       0.05179
  14     297.5       82.7489        1.8514       92.2464       94.0978      11.348933       0.05129
  13     328.5       82.7357        2.0418       91.8517       93.8935      11.157769       0.05198
  12     361.9       82.7238        2.2468       91.4219       93.6686      10.944804       0.05388
  11     398.1       82.7152        2.4673       90.9524       93.4198      10.704612       0.05596
  10     437.6       82.7136        2.7041       90.4358       93.1399      10.426318       0.05950
   9     480.5       82.7232        2.9577       89.8659       92.8236      10.100422       0.06400
   8     533.0       82.7562        3.2694       89.1347       92.4041       9.647940       0.07279
   7     589.8       82.8309        3.6044       88.2943       91.8987       9.067817       0.08611
   6     651.6       82.9900        3.9621       87.2867       91.2488       8.258834       0.11063
   5     718.7       83.2675        4.3412       86.1028       90.4440       7.176527       0.13602
   4     792.3       83.7636        4.7377       84.6812       89.4189       5.655354       0.17446
   3     825.4       56.7425       60.7985        0.0123       60.8108       4.068302       0.40509
   2     858.4       46.1959       49.4672        0.0000       49.4672       3.271302       0.20345
   1     891.5       37.3621       40.1589        0.0000       40.1589       2.796756       0.12117
   0    1013.0       37.6452       39.8235        0.0000       39.8235       2.178347       0.04294



 Wavenumbers: 16000. - 22650. cm-1, ATM      1
 LEVEL PRESSURE   UPWARD FLUX   DIFDOWN FLUX  DIRDOWN FLUX  DOWNWARD FLUX   NET FLUX    HEATING RATE
          mb          W/m2          W/m2          W/m2        W/m2          W/m2       degree/day
  51    .06700      140.4803        0.0000      156.3892      156.3892      15.908975       0.00000
  50    .07753      140.4802        0.0004      156.3887      156.3891      15.908828       0.11817
  49    .09103      140.4802        0.0009      156.3879      156.3888      15.908613       0.13404
  48    0.1069      140.4802        0.0015      156.3871      156.3885      15.908326       0.15284
  47    0.1255      140.4802        0.0021      156.3861      156.3882      15.907942       0.17422
  46    0.1487      140.4803        0.0029      156.3847      156.3877      15.907375       0.20645
  45    0.1794      140.4804        0.0041      156.3828      156.3869      15.906490       0.24308
  44    0.2165      140.4806        0.0054      156.3805      156.3859      15.905289       0.27319
  43    0.2613      140.4810        0.0070      156.3776      156.3846      15.903660       0.30714
  42    0.3336      140.4817        0.0096      156.3726      156.3823      15.900562       0.36119
  41    0.4307      140.4829        0.0131      156.3657      156.3788      15.895892       0.40601
  40    0.5894      140.4855        0.0188      156.3537      156.3725      15.886986       0.47360
  39     1.339      140.5080        0.0458      156.2834      156.3292      15.821190       0.74075
  38     1.782      140.5288        0.0616      156.2324      156.2939      15.765139       1.06712
  37     2.292      140.5600        0.0799      156.1641      156.2440      15.684005       1.34379
  36     5.035      140.6438        0.1116      156.0076      156.1192      15.475411       0.64179
  35     6.613      140.8202        0.1680      155.6950      155.8630      15.042772       2.31289
  34     8.786      141.0499        0.2437      155.2860      155.5297      14.479818       2.18631
  33     11.80      141.3488        0.3520      154.7422      155.0942      13.745320       2.05636
  32     15.07      141.6352        0.4680      154.2059      154.6739      13.038768       1.82418
  31     18.79      141.9275        0.5989      153.6432      154.2421      12.314631       1.64184
  30     23.16      142.2329        0.7515      153.0352      153.7866      11.553764       1.47127
  29     28.12      142.5401        0.9257      152.3965      153.3222      10.782133       1.31172
  28     33.73      142.8235        1.1204      151.7604      152.8808      10.057354       1.08972
  27     40.54      143.0960        1.3555      151.0815      152.4370       9.341026       0.88869
  26     48.69      143.3567        1.6386      150.3500      151.9886       8.631866       0.73387
  25     57.69      143.5774        1.9491      149.6296      151.5787       8.001364       0.59100
  24     68.43      143.7694        2.3185      148.8604      151.1789       7.409501       0.46528
  23     81.20      143.9012        2.7583      148.0628      150.8211       6.919902       0.32352
  22     96.49      143.9681        3.2818      147.2220      150.5038       6.535698       0.21205
  21     114.6      144.0013        3.9015      146.2838      150.1853       6.184009       0.16421
  20     136.5      144.0094        4.6333      145.2142      149.8475       5.838045       0.13303
  19     162.9      143.9907        5.5006      143.9816      149.4822       5.491497       0.11077
  18     196.4      143.9050        6.6196      142.4652      149.0848       5.179820       0.07845
  17     218.7      143.8262        7.3508      141.5017      148.8525       5.026271       0.05830
  16     243.0      143.7303        8.1422      140.4717      148.6139       4.883645       0.04947
  15     269.0      143.6157        8.9960      139.3740      148.3700       4.754336       0.04195
  14     297.5      143.4817        9.9142      138.2062      148.1204       4.638697       0.03430
  13     328.5      143.3324       10.9010      136.9574      147.8585       4.526087       0.03062
  12     361.9      143.1674       11.9575      135.6265      147.5840       4.416624       0.02770
  11     398.1      142.9864       13.0877      134.2081      147.2958       4.309376       0.02499
  10     437.6      142.7904       14.2934      132.6981      146.9915       4.201142       0.02314
   9     480.5      142.5789       15.5769      131.0935      146.6705       4.091565       0.02152
   8     533.0      142.3191       17.1446      129.1351      146.2797       3.960569       0.02107
   7     589.8      142.0436       18.8194      127.0392      145.8586       3.814974       0.02161
   6     651.6      141.7595       20.6031      124.7944      145.3975       3.638036       0.02420
   5     718.7      141.4735       22.4974      122.3908      144.8881       3.414636       0.02808
   4     792.3      141.2039       24.4999      119.8121      144.3121       3.108205       0.03514
   3     825.4      113.5928      116.2768        0.0173      116.2941       2.701270       0.10387
   2     858.4      106.0794      108.4787        0.0000      108.4787       2.399338       0.07707
   1     891.5       99.3599      101.5127        0.0000      101.5127       2.152861       0.06294
   0    1013.0       99.5084      101.3117        0.0000      101.3117       1.803349       0.02427



 Wavenumbers: 22650. - 29000. cm-1, ATM      1
 LEVEL PRESSURE   UPWARD FLUX   DIFDOWN FLUX  DIRDOWN FLUX  DOWNWARD FLUX   NET FLUX    HEATING RATE
          mb          W/m2          W/m2          W/m2        W/m2          W/m2       degree/day
  51    .06700       58.5351        0.0000       59.0156       59.0156       0.480548       0.00000
  50    .07753       58.5350        0.0005       59.0151       59.0155       0.480548      -0.00000
  49    .09103       58.5349        0.0010       59.0144       59.0154       0.480548       0.00000
  48    0.1069       58.5347        0.0017       59.0136       59.0153       0.480548      -0.00000
  47    0.1255       58.5346        0.0025       59.0127       59.0151       0.480548      -0.00000
  46    0.1487       58.5344        0.0034       59.0115       59.0149       0.480548       0.00000
  45    0.1794       58.5341        0.0048       59.0099       59.0147       0.480548       0.00000
  44    0.2165       58.5338        0.0063       59.0080       59.0144       0.480548       0.00000
  43    0.2613       58.5335        0.0082       59.0058       59.0140       0.480548       0.00000
  42    0.3336       58.5329        0.0113       59.0022       59.0134       0.480548      -0.00000
  41    0.4307       58.5321        0.0153       58.9973       59.0126       0.480548       0.00000
  40    0.5894       58.5308        0.0220       58.9894       59.0113       0.480548       0.00000
  39     1.339       58.5247        0.0535       58.9518       59.0053       0.480548      -0.00000
  38     1.782       58.5211        0.0720       58.9297       59.0017       0.480548       0.00000
  37     2.292       58.5170        0.0934       58.9042       58.9975       0.480548      -0.00000
  36     5.035       58.5098        0.1305       58.8599       58.9903       0.480548       0.00000
  35     6.613       58.4970        0.1963       58.7812       58.9776       0.480548      -0.00000
  34     8.786       58.4798        0.2850       58.6754       58.9604       0.480548      -0.00000
  33     11.80       58.4553        0.4117       58.5242       58.9359       0.480548       0.00000
  32     15.07       58.4290        0.5475       58.3621       58.9095       0.480548       0.00000
  31     18.79       58.3993        0.7005       58.1794       58.8799       0.480548       0.00000
  30     23.16       58.3648        0.8789       57.9665       58.8453       0.480548       0.00000
  29     28.12       58.3254        1.0822       57.7237       58.8059       0.480548       0.00000
  28     33.73       58.2814        1.3090       57.4530       58.7620       0.480548      -0.00000
  27     40.54       58.2285        1.5818       57.1272       58.7091       0.480548       0.00000
  26     48.69       58.1651        1.9091       56.7366       58.6456       0.480548       0.00000
  25     57.69       58.0958        2.2663       56.3100       58.5764       0.480548       0.00000
  24     68.43       58.0139        2.6888       55.8057       58.4944       0.480548       0.00000
  23     81.20       57.9171        3.1877       55.2100       58.3977       0.480548      -0.00000
  22     96.49       57.8030        3.7758       54.5077       58.2835       0.480548       0.00000
  21     114.6       57.6692        4.4652       53.6845       58.1497       0.480548      -0.00000
  20     136.5       57.5129        5.2698       52.7236       57.9935       0.480548       0.00000
  19     162.9       57.3302        6.2104       51.6003       57.8107       0.480548      -0.00000
  18     196.4       57.0985        7.4020       50.1770       57.5791       0.480548       0.00000
  17     218.7       56.9496        8.1678       49.2623       57.4301       0.480548      -0.00000
  16     243.0       56.7904        8.9853       48.2857       57.2710       0.480548      -0.00000
  15     269.0       56.6212        9.8542       47.2476       57.1018       0.480548       0.00000
  14     297.5       56.4421       10.7735       46.1491       56.9226       0.480548      -0.00000
  13     328.5       56.2527       11.7448       44.9884       56.7332       0.480548       0.00000
  12     361.9       56.0535       12.7654       43.7687       56.5341       0.480548      -0.00000
  11     398.1       55.8446       13.8353       42.4898       56.3251       0.480548       0.00000
  10     437.6       55.6261       14.9525       41.1542       56.1067       0.480548      -0.00000
   9     480.5       55.3987       16.1145       39.7647       55.8792       0.480548       0.00000
   8     533.0       55.1278       17.4966       38.1118       55.6084       0.480548       0.00000
   7     589.8       54.8466       18.9293       36.3978       55.3272       0.480548       0.00000
   6     651.6       54.5564       20.4055       34.6314       55.0369       0.480548       0.00000
   5     718.7       54.2581       21.9195       32.8192       54.7386       0.480548      -0.00000
   4     792.3       53.9534       23.4624       30.9715       54.4339       0.480548      -0.00000
   3     825.4       47.5601       48.0356        0.0043       48.0399       0.479760       0.00020
   2     858.4       46.1080       46.5871        0.0000       46.5871       0.479007       0.00019
   1     891.5       44.6589       45.1371        0.0000       45.1371       0.478277       0.00019
   0    1013.0       44.6422       45.1205        0.0000       45.1205       0.478277       0.00000



 Wavenumbers: 29000. - 38000. cm-1, ATM      1
 LEVEL PRESSURE   UPWARD FLUX   DIFDOWN FLUX  DIRDOWN FLUX  DOWNWARD FLUX   NET FLUX    HEATING RATE
          mb          W/m2          W/m2          W/m2        W/m2          W/m2       degree/day
  51    .06700        8.8121        0.0000       20.8114       20.8114      11.999282       0.00000
  50    .07753        8.8119        0.0003       20.8070       20.8074      11.995474       3.05180
  49    .09103        8.8117        0.0007       20.8009       20.8016      11.989937       3.46113
  48    0.1069        8.8114        0.0012       20.7928       20.7939      11.982526       3.94462
  47    0.1255        8.8111        0.0017       20.7820       20.7837      11.972621       4.49072
  46    0.1487        8.8108        0.0024       20.7665       20.7688      11.958056       5.30889
  45    0.1794        8.8103        0.0033       20.7424       20.7457      11.935389       6.22258
  44    0.2165        8.8098        0.0044       20.7103       20.7147      11.904864       6.94401
  43    0.2613        8.8092        0.0056       20.6675       20.6731      11.863866       7.72802
  42    0.3336        8.8084        0.0077       20.5880       20.5957      11.787298       8.92708
  41    0.4307        8.8073        0.0104       20.4722       20.4826      11.675334       9.73497
  40    0.5894        8.8058        0.0147       20.2637       20.2784      11.472629      10.77958
  39     1.339        8.8025        0.0332       19.0984       19.1315      10.328995      12.87525
  38     1.782        8.8032        0.0428       18.4394       18.4821       9.678940      12.37599
  37     2.292        8.8061        0.0531       17.7714       17.8245       9.018417      10.93999
  36     5.035        8.8190        0.0693       16.7265       16.7957       7.976743       3.20495
  35     6.613        8.8493        0.0965       15.5186       15.6150       6.765773       6.47385
  34     8.786        8.8898        0.1318       14.5590       14.6908       5.801032       3.74670
  33     11.80        8.9430        0.1806       13.7000       13.8807       4.937734       2.41696
  32     15.07        8.9944        0.2309       13.0749       13.3058       4.311419       1.61702
  31     18.79        9.0477        0.2863       12.5486       12.8349       3.787173       1.18863
  30     23.16        9.1045        0.3492       12.0732       12.4223       3.317873       0.90748
  29     28.12        9.1627        0.4193       11.6423       12.0617       2.898962       0.71212
  28     33.73        9.2165        0.4966       11.2628       11.7594       2.542812       0.53548
  27     40.54        9.2677        0.5887       10.8969       11.4855       2.217856       0.40315
  26     48.69        9.3160        0.6978       10.5353       11.2331       1.917104       0.31123
  25     57.69        9.3557        0.8159       10.2040       11.0199       1.664204       0.23706
  24     68.43        9.3878        0.9542        9.8713       10.8255       1.437716       0.17805
  23     81.20        9.4032        1.1175        9.5431       10.6606       1.257435       0.11913
  22     96.49        9.3997        1.3094        9.2107       10.5201       1.120383       0.07564
  21     114.6        9.3858        1.5310        8.8533       10.3843       0.998519       0.05690
  20     136.5        9.3643        1.7843        8.4618       10.2460       0.881712       0.04492
  19     162.9        9.3356        2.0728        8.0302       10.1030       0.767450       0.03652
  18     196.4        9.2872        2.4301        7.5240        9.9541       0.666976       0.02529
  17     218.7        9.2523        2.6548        7.2154        9.8703       0.618014       0.01859
  16     243.0        9.2140        2.8897        6.8972        9.7869       0.572831       0.01567
  15     269.0        9.1722        3.1338        6.5707        9.7045       0.532285       0.01315
  14     297.5        9.1269        3.3861        6.2374        9.6235       0.496565       0.01059
  13     328.5        9.0796        3.6456        5.8964        9.5420       0.462386       0.00929
  12     361.9        9.0307        3.9097        5.5509        9.4606       0.429902       0.00822
  11     398.1        8.9803        4.1779        5.2016        9.3795       0.399137       0.00717
  10     437.6        8.9291        4.4486        4.8500        9.2986       0.369498       0.00634
   9     480.5        8.8773        4.7197        4.4990        9.2187       0.341384       0.00552
   8     533.0        8.8177        5.0286        4.0999        9.1285       0.310758       0.00493
   7     589.8        8.7589        5.3330        3.7070        9.0401       0.281129       0.00440
   6     651.6        8.7018        5.6292        3.3248        8.9539       0.252163       0.00396
   5     718.7        8.6468        5.9155        2.9551        8.8706       0.223816       0.00356
   4     792.3        8.5947        6.1885        2.6023        8.7908       0.196092       0.00318
   3     825.4        7.6421        7.8074        0.0003        7.8077       0.165565       0.00779
   2     858.4        7.1893        7.3285        0.0000        7.3285       0.139160       0.00674
   1     891.5        6.8117        6.9273        0.0000        6.9273       0.115544       0.00603
   0    1013.0        6.8166        6.9071        0.0000        6.9071       0.090483       0.00174



 Wavenumbers: 38000. - 50000. cm-1, ATM      1
 LEVEL PRESSURE   UPWARD FLUX   DIFDOWN FLUX  DIRDOWN FLUX  DOWNWARD FLUX   NET FLUX    HEATING RATE
          mb          W/m2          W/m2          W/m2        W/m2          W/m2       degree/day
  51    .06700        0.0061        0.0000        1.2836        1.2836       1.277566       0.00000
  50    .07753        0.0060        0.0001        1.2812        1.2812       1.275231       1.87147
  49    .09103        0.0059        0.0002        1.2777        1.2778       1.271899       2.08243
  48    0.1069        0.0058        0.0002        1.2731        1.2734       1.267521       2.33056
  47    0.1255        0.0058        0.0004        1.2672        1.2675       1.261766       2.60905
  46    0.1487        0.0056        0.0005        1.2586        1.2591       1.253440       3.03495
  45    0.1794        0.0055        0.0007        1.2455        1.2462       1.240672       3.50516
  44    0.2165        0.0053        0.0009        1.2282        1.2291       1.223746       3.85033
  43    0.2613        0.0051        0.0011        1.2054        1.2065       1.201398       4.21256
  42    0.3336        0.0048        0.0015        1.1639        1.1654       1.160574       4.75965
  41    0.4307        0.0044        0.0020        1.1051        1.1070       1.102615       5.03937
  40    0.5894        0.0039        0.0026        1.0039        1.0064       1.002575       5.32000
  39     1.339        0.0022        0.0035        0.5438        0.5473       0.545166       5.14960
  38     1.782        0.0016        0.0032        0.3635        0.3666       0.365077       3.42860
  37     2.292        0.0011        0.0027        0.2356        0.2383       0.237147       2.11885
  36     5.035        0.0007        0.0019        0.1180        0.1199       0.119172       0.36298
  35     6.613        0.0004        0.0013        0.0504        0.0516       0.051220       0.36327
  34     8.786        0.0002        0.0009        0.0239        0.0248       0.024556       0.10355
  33     11.80        0.0001        0.0006        0.0105        0.0110       0.010913       0.03820
  32     15.07        0.0001        0.0004        0.0048        0.0052       0.005151       0.01488
  31     18.79        0.0000        0.0002        0.0022        0.0024       0.002406       0.00622
  30     23.16        0.0000        0.0001        0.0010        0.0011       0.001079       0.00257
  29     28.12        0.0000        0.0001        0.0004        0.0005       0.000469       0.00104
  28     33.73        0.0000        0.0000        0.0002        0.0002       0.000205       0.00040
  27     40.54        0.0000        0.0000        0.0001        0.0001       0.000083       0.00015
  26     48.69        0.0000        0.0000        0.0000        0.0000       0.000031       0.00005
  25     57.69        0.0000        0.0000        0.0000        0.0000       0.000011       0.00002
  24     68.43        0.0000        0.0000        0.0000        0.0000       0.000004       0.00001
  23     81.20        0.0000        0.0000        0.0000        0.0000       0.000001       0.00000
  22     96.49        0.0000        0.0000        0.0000        0.0000       0.000000       0.00000
  21     114.6        0.0000        0.0000        0.0000        0.0000       0.000000       0.00000
  20     136.5        0.0000        0.0000        0.0000        0.0000       0.000000       0.00000
  19     162.9        0.0000        0.0000        0.0000        0.0000       0.000000       0.00000
  18     196.4        0.0000        0.0000        0.0000        0.0000       0.000000       0.00000
  17     218.7        0.0000        0.0000        0.0000        0.0000       0.000000       0.00000
  16     243.0        0.0000        0.0000        0.0000        0.0000       0.000000       0.00000
  15     269.0        0.0000        0.0000        0.0000        0.0000       0.000000       0.00000
  14     297.5        0.0000        0.0000        0.0000        0.0000       0.000000       0.00000
  13     328.5        0.0000        0.0000        0.0000        0.0000       0.000000       0.00000
  12     361.9        0.0000        0.0000        0.0000        0.0000       0.000000       0.00000
  11     398.1        0.0000        0.0000        0.0000        0.0000       0.000000       0.00000
  10     437.6        0.0000        0.0000        0.0000        0.0000       0.000000       0.00000
   9     480.5        0.0000        0.0000        0.0000        0.0000       0.000000       0.00000
   8     533.0        0.0000        0.0000        0.0000        0.0000       0.000000       0.00000
   7     589.8        0.0000        0.0000        0.0000        0.0000       0.000000       0.00000
   6     651.6        0.0000        0.0000        0.0000        0.0000       0.000000       0.00000
   5     718.7        0.0000        0.0000        0.0000        0.0000       0.000000       0.00000
   4     792.3        0.0000        0.0000        0.0000        0.0000       0.000000       0.00000
   3     825.4        0.0000        0.0000        0.0000        0.0000       0.000000       0.00000
   2     858.4        0.0000        0.0000        0.0000        0.0000       0.000000       0.00000
   1     891.5        0.0000        0.0000        0.0000        0.0000       0.000000       0.00000
   0    1013.0        0.0000        0.0000        0.0000        0.0000       0.000000       0.00000



 Wavenumbers:   820. -  2600. cm-1, ATM      1
 LEVEL PRESSURE   UPWARD FLUX   DIFDOWN FLUX  DIRDOWN FLUX  DOWNWARD FLUX   NET FLUX    HEATING RATE
          mb          W/m2          W/m2          W/m2        W/m2          W/m2       degree/day
  51    .06700        1.5581        0.0000        6.0047        6.0047       4.446538       0.00000
  50    .07753        1.5581        0.0000        6.0008        6.0008       4.442685       3.08825
  49    .09103        1.5581        0.0000        5.9999        5.9999       4.441799       0.55362
  48    0.1069        1.5581        0.0000        5.9989        5.9989       4.440810       0.52656
  47    0.1255        1.5581        0.0000        5.9978        5.9978       4.439692       0.50654
  46    0.1487        1.5581        0.0000        5.9964        5.9964       4.438335       0.49461
  45    0.1794        1.5581        0.0000        5.9947        5.9947       4.436616       0.47204
  44    0.2165        1.5581        0.0000        5.9929        5.9929       4.434773       0.41915
  43    0.2613        1.5581        0.0000        5.9909        5.9909       4.432814       0.36937
  42    0.3336        1.5581        0.0000        5.9880        5.9880       4.429935       0.33561
  41    0.4307        1.5581        0.0000        5.9846        5.9846       4.426465       0.30170
  40    0.5894        1.5581        0.0000        5.9791        5.9791       4.420959       0.29281
  39     1.339        1.5581        0.0000        5.9536        5.9536       4.395467       0.28699
  38     1.782        1.5581        0.0000        5.9395        5.9395       4.381326       0.26922
  37     2.292        1.5581        0.0000        5.9237        5.9237       4.365572       0.26093
  36     5.035        1.5581        0.0000        5.8954        5.8954       4.337298       0.08699
  35     6.613        1.5582        0.0000        5.8469        5.8469       4.288789       0.25933
  34     8.786        1.5582        0.0000        5.7915        5.7915       4.233342       0.21534
  33     11.80        1.5582        0.0000        5.7245        5.7245       4.166266       0.18779
  32     15.07        1.5582        0.0000        5.6684        5.6684       4.110213       0.14472
  31     18.79        1.5583        0.0000        5.6231        5.6231       4.064790       0.10299
  30     23.16        1.5583        0.0000        5.5871        5.5871       4.028790       0.06961
  29     28.12        1.5584        0.0000        5.5583        5.5583       3.999943       0.04904
  28     33.73        1.5584        0.0000        5.5327        5.5328       3.974346       0.03849
  27     40.54        1.5585        0.0000        5.5051        5.5051       3.946604       0.03442
  26     48.69        1.5585        0.0000        5.4733        5.4733       3.914799       0.03291
  25     57.69        1.5586        0.0000        5.4393        5.4394       3.880735       0.03193
  24     68.43        1.5587        0.0000        5.3998        5.3999       3.841137       0.03113
  23     81.20        1.5588        0.0000        5.3545        5.3546       3.795726       0.03001
  22     96.49        1.5590        0.0000        5.3027        5.3028       3.743772       0.02868
  21     114.6        1.5592        0.0000        5.2431        5.2431       3.683935       0.02794
  20     136.5        1.5594        0.0000        5.1754        5.1755       3.616080       0.02609
  19     162.9        1.5597        0.0000        5.0924        5.0924       3.532684       0.02666
  18     196.4        1.5603        0.0000        4.9695        4.9695       3.409266       0.03107
  17     218.7        1.5608        0.0000        4.8606        4.8606       3.299830       0.04155
  16     243.0        1.5617        0.0000        4.7093        4.7093       3.147683       0.05277
  15     269.0        1.5629        0.0000        4.5352        4.5352       2.972248       0.05691
  14     297.5        1.5650        0.0000        4.3425        4.3426       2.777583       0.05774
  13     328.5        1.5678        0.0000        4.1286        4.1286       2.560892       0.05892
  12     361.9        1.5714        0.0000        3.8790        3.8791       2.307668       0.06407
  11     398.1        1.5762        0.0000        3.6162        3.6163       2.040102       0.06234
  10     437.6        1.5823        0.0000        3.3761        3.3761       1.793810       0.05266
   9     480.5        1.5898        0.0000        3.1959        3.1960       1.606116       0.03686
   8     533.0        1.6013        0.0000        3.0468        3.0468       1.445552       0.02583
   7     589.8        1.6182        0.0001        2.9024        2.9024       1.284233       0.02394
   6     651.6        1.6477        0.0001        2.7184        2.7185       1.070805       0.02919
   5     718.7        1.6988        0.0001        2.5059        2.5059       0.807170       0.03313
   4     792.3        1.7977        0.0001        2.2757        2.2757       0.478005       0.03775
   3     825.4        0.6410        0.8374        0.0003        0.8377       0.196743       0.07179
   2     858.4        0.2498        0.3547        0.0000        0.3547       0.104860       0.02345
   1     891.5        0.0004        0.0766        0.0000        0.0766       0.076167       0.00733
   0    1013.0        0.0005        0.0649        0.0000        0.0649       0.064440       0.00081

  Modules and versions used in this calculation:

       rrtmg_sw.1col.f90:  $Revision$                    rrtmg_sw_init.f90:  $Revision$        
     rrtmgsw_cldprop.f90:  $Revision$                  rrtmgsw_cldprmc.f90:  NOT USED          
     rrtmg_sw_reftra.f90:  $Revision$                  rrtmg_sw_spcvrt.f90:  NOT USED          
     rrtmg_sw_spcvmc.f90:  NOT USED                    rrtmgsw_setcoef.f90:  NOT USED          
     rrtmg_sw_taumol.f90:  $Revision$                  rrtmg_sw_vrtqdr.f90:  NOT USED          
                rrtatm.f:  NOT USED                             util_xxx.f:  NOT USED          
                 extra.f:  NOT USED                       rrtmg_sw_k_g.f90:  $Revision$        

