

 Wavenumbers:   820. - 50000. cm-1, ATM      1
 LEVEL PRESSURE   UPWARD FLUX   DIFDOWN FLUX  DIRDOWN FLUX  DOWNWARD FLUX   NET FLUX    HEATING RATE
          mb          W/m2          W/m2          W/m2        W/m2          W/m2       degree/day
  51    .06700      449.8700        0.0000      617.8126      617.8126     167.942591       0.00000
  50    .07753      449.8696        0.0014      617.7947      617.7961     167.926448      12.93871
  49    .09103      449.8692        0.0030      617.7778      617.7808     167.911634       9.25873
  48    0.1069      449.8687        0.0050      617.7581      617.7631     167.894369       9.19068
  47    0.1255      449.8682        0.0072      617.7340      617.7412     167.873019       9.67909
  46    0.1487      449.8676        0.0101      617.7009      617.7109     167.843326      10.82340
  45    0.1794      449.8669        0.0139      617.6521      617.6660     167.799084      12.14538
  44    0.2165      449.8662        0.0184      617.5895      617.6079     167.741749      13.04271
  43    0.2613      449.8655        0.0238      617.5089      617.5327     167.667219      14.04866
  42    0.3336      449.8647        0.0327      617.3641      617.3968     167.532102      15.75331
  41    0.4307      449.8640        0.0443      617.1591      617.2034     167.339432      16.75219
  40    0.5894      449.8639        0.0631      616.8005      616.8635     166.999656      18.06884
  39     1.339      449.8818        0.1480      614.9443      615.0922     165.210486      20.14280
  38     1.782      449.9050        0.1958      613.9670      614.1628     164.257791      18.13779
  37     2.292      449.9434        0.2501      613.0059      613.2560     163.312583      15.65511
  36     5.035      450.0568        0.3428      611.5124      611.8553     161.798461       4.65855
  35     6.613      450.3015        0.5064      609.6144      610.1209     159.819425      10.57993
  34     8.786      450.6208        0.7260      607.8253      608.5513     157.930571       7.33563
  33     11.80      451.0346        1.0381      605.8783      606.9165     155.881899       5.73563
  32     15.07      451.4286        1.3708      604.1777      605.5485     154.119930       4.54906
  31     18.79      451.8288        1.7448      602.5196      604.2644     152.435613       3.81887
  30     23.16      452.2443        2.1792      600.8127      602.9918     150.747507       3.26425
  29     28.12      452.6587        2.6734      599.0712      601.7445     149.085802       2.82479
  28     33.73      453.0334        3.2241      597.3500      600.5742     147.540732       2.32305
  27     40.54      453.3824        3.8870      595.5035      599.3905     146.008149       1.90134
  26     48.69      453.7026        4.6823      593.4958      598.1781     144.475524       1.58603
  25     57.69      453.9568        5.5515      591.4872      597.0388     143.081973       1.30624
  24     68.43      454.1537        6.5811      589.2939      595.8750     141.721288       1.06968
  23     81.20      454.2412        7.8016      586.9289      594.7306     140.489350       0.81405
  22     96.49      454.2091        9.2466      584.3423      593.5890     139.379853       0.61236
  21     114.6      454.1157       10.9465      581.4033      592.3497     138.234017       0.53502
  20     136.5      453.9606       12.9366      578.0541      590.9907     137.030100       0.46293
  19     162.9      453.7385       15.2720      574.1654      589.4374     135.698948       0.42549
  18     196.4      453.3636       18.2501      569.1760      587.4261     134.062464       0.41192
  17     218.7      453.0897       20.1754      565.6314      585.8068     132.717121       0.51078
  16     243.0      452.7850       22.2404      561.3129      583.5534     130.768334       0.67590
  15     269.0      452.4514       24.4465      555.9478      580.3943     127.942884       0.91656
  14     297.5      452.0953       26.7942      549.5394      576.3336     124.238334       1.09873
  13     328.5      451.7271       29.2900      542.6225      571.9125     120.185412       1.10198
  12     361.9      451.3557       31.9302      535.1469      567.0771     115.721349       1.12945
  11     398.1      450.9936       34.7192      526.9326      561.6518     110.658245       1.17959
  10     437.6      450.6648       37.6556      517.8921      555.5478     104.882936       1.23480
   9     480.5      450.3957       40.7376      508.2121      548.9497      98.553944       1.24299
   8     533.0      450.2204       44.4425      496.3783      540.8208      90.600461       1.27946
   7     589.8      450.3164       48.3298      483.5433      531.8731      81.556754       1.34238
   6     651.6      451.0128       52.3864      469.1414      521.5278      70.515059       1.50998
   5     718.7      452.7760       56.6040      453.6623      510.2664      57.490313       1.63685
   4     792.3      456.8443       60.9604      436.9145      497.8750      41.030704       1.88773
   3     825.4      310.6615      337.2622        0.2317      337.4939      26.832448       3.62403
   2     858.4      253.2274      275.0852        0.0002      275.0853      21.857962       1.26982
   1     891.5      203.1890      222.7821        0.0000      222.7821      19.593122       0.57832
   0    1013.0      204.1065      221.2917        0.0000      221.2917      17.185236       0.16719



 Wavenumbers:  2600. -  3250. cm-1, ATM      1
 LEVEL PRESSURE   UPWARD FLUX   DIFDOWN FLUX  DIRDOWN FLUX  DOWNWARD FLUX   NET FLUX    HEATING RATE
          mb          W/m2          W/m2          W/m2        W/m2          W/m2       degree/day
  51    .06700        1.9944        0.0000        5.4450        5.4450       3.450653       0.00000
  50    .07753        1.9944        0.0000        5.4450        5.4450       3.450645       0.00640
  49    .09103        1.9944        0.0000        5.4450        5.4450       3.450635       0.00627
  48    0.1069        1.9944        0.0000        5.4450        5.4450       3.450623       0.00613
  47    0.1255        1.9944        0.0000        5.4450        5.4450       3.450610       0.00599
  46    0.1487        1.9944        0.0000        5.4450        5.4450       3.450594       0.00608
  45    0.1794        1.9944        0.0000        5.4450        5.4450       3.450571       0.00625
  44    0.2165        1.9944        0.0000        5.4449        5.4449       3.450544       0.00612
  43    0.2613        1.9944        0.0000        5.4449        5.4449       3.450512       0.00600
  42    0.3336        1.9944        0.0000        5.4448        5.4448       3.450459       0.00617
  41    0.4307        1.9944        0.0000        5.4448        5.4448       3.450388       0.00620
  40    0.5894        1.9944        0.0000        5.4446        5.4446       3.450268       0.00637
  39     1.339        1.9944        0.0000        5.4439        5.4439       3.449561       0.00797
  38     1.782        1.9944        0.0000        5.4434        5.4434       3.449018       0.01034
  37     2.292        1.9944        0.0000        5.4427        5.4427       3.448301       0.01186
  36     5.035        1.9944        0.0000        5.4412        5.4412       3.446775       0.00470
  35     6.613        1.9944        0.0000        5.4381        5.4381       3.443697       0.01645
  34     8.786        1.9944        0.0000        5.4341        5.4341       3.439690       0.01556
  33     11.80        1.9944        0.0000        5.4288        5.4288       3.434443       0.01469
  32     15.07        1.9944        0.0000        5.4239        5.4239       3.429515       0.01272
  31     18.79        1.9944        0.0000        5.4191        5.4192       3.424769       0.01076
  30     23.16        1.9944        0.0000        5.4144        5.4144       3.420018       0.00919
  29     28.12        1.9944        0.0000        5.4096        5.4096       3.415181       0.00822
  28     33.73        1.9944        0.0000        5.4042        5.4042       3.409812       0.00807
  27     40.54        1.9944        0.0000        5.3972        5.3972       3.402779       0.00873
  26     48.69        1.9945        0.0000        5.3877        5.3877       3.393232       0.00988
  25     57.69        1.9945        0.0000        5.3759        5.3759       3.381383       0.01111
  24     68.43        1.9946        0.0000        5.3604        5.3604       3.365813       0.01224
  23     81.20        1.9947        0.0000        5.3405        5.3405       3.345868       0.01318
  22     96.49        1.9948        0.0000        5.3159        5.3159       3.321149       0.01364
  21     114.6        1.9950        0.0001        5.2857        5.2857       3.290748       0.01420
  20     136.5        1.9952        0.0001        5.2507        5.2508       3.255566       0.01353
  19     162.9        1.9956        0.0001        5.2113        5.2114       3.215843       0.01270
  18     196.4        1.9962        0.0001        5.1642        5.1643       3.168148       0.01201
  17     218.7        1.9968        0.0001        5.1333        5.1334       3.136603       0.01198
  16     243.0        1.9978        0.0001        5.0963        5.0964       3.098696       0.01315
  15     269.0        1.9993        0.0001        5.0512        5.0513       3.052021       0.01514
  14     297.5        2.0016        0.0001        4.9957        4.9958       2.994197       0.01715
  13     328.5        2.0048        0.0001        4.9304        4.9306       2.925711       0.01862
  12     361.9        2.0093        0.0002        4.8511        4.8513       2.841970       0.02119
  11     398.1        2.0155        0.0002        4.7507        4.7509       2.735379       0.02483
  10     437.6        2.0241        0.0002        4.6221        4.6222       2.598137       0.02934
   9     480.5        2.0361        0.0002        4.4625        4.4627       2.426633       0.03368
   8     533.0        2.0556        0.0002        4.2461        4.2463       2.190666       0.03796
   7     589.8        2.0855        0.0002        3.9954        3.9956       1.910107       0.04164
   6     651.6        2.1352        0.0002        3.7089        3.7091       1.573878       0.04598
   5     718.7        2.2180        0.0002        3.4018        3.4020       1.184068       0.04899
   4     792.3        2.3702        0.0002        3.0564        3.0567       0.686465       0.05707
   3     825.4        0.9493        1.2262        0.0014        1.2276       0.278327       0.10417
   2     858.4        0.4850        0.6416        0.0000        0.6416       0.156650       0.03106
   1     891.5        0.1809        0.2925        0.0000        0.2925       0.111537       0.01152
   0    1013.0        0.1958        0.2682        0.0000        0.2682       0.072419       0.00272



 Wavenumbers:  3250. -  4000. cm-1, ATM      1
 LEVEL PRESSURE   UPWARD FLUX   DIFDOWN FLUX  DIRDOWN FLUX  DOWNWARD FLUX   NET FLUX    HEATING RATE
          mb          W/m2          W/m2          W/m2        W/m2          W/m2       degree/day
  51    .06700        0.0603        0.0000        9.1795        9.1795       9.119199       0.00000
  50    .07753        0.0603        0.0000        9.1747        9.1747       9.114356       3.88162
  49    .09103        0.0603        0.0000        9.1713        9.1713       9.110969       2.11758
  48    0.1069        0.0603        0.0000        9.1688        9.1688       9.108443       1.34411
  47    0.1255        0.0603        0.0000        9.1665        9.1665       9.106184       1.02430
  46    0.1487        0.0603        0.0000        9.1641        9.1641       9.103742       0.88998
  45    0.1794        0.0603        0.0000        9.1612        9.1612       9.100864       0.79014
  44    0.2165        0.0603        0.0000        9.1583        9.1583       9.097944       0.66436
  43    0.2613        0.0603        0.0000        9.1553        9.1553       9.094970       0.56046
  42    0.3336        0.0603        0.0000        9.1511        9.1511       9.090791       0.48727
  41    0.4307        0.0603        0.0000        9.1464        9.1464       9.086022       0.41463
  40    0.5894        0.0603        0.0000        9.1393        9.1393       9.079016       0.37258
  39     1.339        0.0603        0.0000        9.1127        9.1127       9.052400       0.29965
  38     1.782        0.0603        0.0000        9.1011        9.1011       9.040811       0.22064
  37     2.292        0.0603        0.0000        9.0901        9.0901       9.029744       0.18331
  36     5.035        0.0603        0.0000        9.0731        9.0731       9.012811       0.05210
  35     6.613        0.0603        0.0000        9.0438        9.0439       8.983531       0.15653
  34     8.786        0.0603        0.0000        9.0058        9.0058       8.945445       0.14791
  33     11.80        0.0603        0.0000        8.9509        8.9509       8.890574       0.15362
  32     15.07        0.0603        0.0000        8.8914        8.8914       8.831095       0.15356
  31     18.79        0.0603        0.0000        8.8241        8.8242       8.763861       0.15244
  30     23.16        0.0603        0.0000        8.7473        8.7474       8.687049       0.14853
  29     28.12        0.0603        0.0000        8.6639        8.6640       8.603666       0.14174
  28     33.73        0.0603        0.0000        8.5784        8.5784       8.518156       0.12857
  27     40.54        0.0603        0.0001        8.4859        8.4860       8.425683       0.11472
  26     48.69        0.0603        0.0001        8.3873        8.3873       8.327059       0.10206
  25     57.69        0.0603        0.0001        8.2887        8.2888       8.228509       0.09238
  24     68.43        0.0602        0.0001        8.1771        8.1772       8.116992       0.08767
  23     81.20        0.0602        0.0001        8.0474        8.0475       7.987271       0.08572
  22     96.49        0.0602        0.0001        7.8963        7.8965       7.836258       0.08335
  21     114.6        0.0602        0.0001        7.7173        7.7174       7.657248       0.08359
  20     136.5        0.0602        0.0002        7.5201        7.5203       7.460132       0.07580
  19     162.9        0.0601        0.0002        7.2919        7.2921       7.232001       0.07292
  18     196.4        0.0601        0.0002        6.9664        6.9666       6.906488       0.08194
  17     218.7        0.0601        0.0002        6.6650        6.6652       6.605131       0.11441
  16     243.0        0.0601        0.0002        6.2620        6.2622       6.202145       0.13977
  15     269.0        0.0601        0.0003        5.7575        5.7578       5.697637       0.16366
  14     297.5        0.0602        0.0003        5.1717        5.1720       5.111709       0.17378
  13     328.5        0.0605        0.0002        4.5755        4.5757       4.515248       0.16218
  12     361.9        0.0608        0.0002        3.9992        3.9995       3.938636       0.14589
  11     398.1        0.0614        0.0002        3.4651        3.4653       3.403916       0.12458
  10     437.6        0.0624        0.0002        2.9736        2.9739       2.911411       0.10530
   9     480.5        0.0641        0.0002        2.5303        2.5305       2.466363       0.08741
   8     533.0        0.0673        0.0002        2.0610        2.0612       1.993861       0.07601
   7     589.8        0.0732        0.0002        1.6146        1.6148       1.541584       0.06713
   6     651.6        0.0855        0.0001        1.1562        1.1563       1.070799       0.06438
   5     718.7        0.1127        0.0001        0.7388        0.7389       0.626247       0.05587
   4     792.3        0.1852        0.0001        0.3984        0.3984       0.213217       0.04737
   3     825.4        0.0095        0.0238        0.0001        0.0238       0.014334       0.05076
   2     858.4        0.0007        0.0017        0.0000        0.0017       0.001063       0.00339
   1     891.5        0.0000        0.0001        0.0000        0.0001       0.000102       0.00025
   0    1013.0        0.0000        0.0000        0.0000        0.0000       0.000003       0.00001



 Wavenumbers:  4000. -  4650. cm-1, ATM      1
 LEVEL PRESSURE   UPWARD FLUX   DIFDOWN FLUX  DIRDOWN FLUX  DOWNWARD FLUX   NET FLUX    HEATING RATE
          mb          W/m2          W/m2          W/m2        W/m2          W/m2       degree/day
  51    .06700        6.6431        0.0000       10.7795       10.7795       4.136492       0.00000
  50    .07753        6.6431        0.0000       10.7795       10.7795       4.136491       0.00080
  49    .09103        6.6431        0.0000       10.7795       10.7795       4.136490       0.00078
  48    0.1069        6.6431        0.0000       10.7795       10.7795       4.136488       0.00077
  47    0.1255        6.6431        0.0000       10.7795       10.7795       4.136487       0.00075
  46    0.1487        6.6431        0.0000       10.7795       10.7795       4.136484       0.00076
  45    0.1794        6.6431        0.0000       10.7795       10.7795       4.136482       0.00078
  44    0.2165        6.6431        0.0000       10.7795       10.7795       4.136478       0.00076
  43    0.2613        6.6431        0.0000       10.7795       10.7795       4.136474       0.00075
  42    0.3336        6.6431        0.0000       10.7795       10.7795       4.136468       0.00077
  41    0.4307        6.6431        0.0000       10.7795       10.7795       4.136459       0.00077
  40    0.5894        6.6430        0.0000       10.7795       10.7795       4.136444       0.00080
  39     1.339        6.6430        0.0000       10.7794       10.7794       4.136354       0.00101
  38     1.782        6.6430        0.0000       10.7793       10.7793       4.136284       0.00133
  37     2.292        6.6430        0.0000       10.7792       10.7792       4.136190       0.00156
  36     5.035        6.6430        0.0000       10.7790       10.7790       4.135981       0.00064
  35     6.613        6.6430        0.0000       10.7785       10.7786       4.135528       0.00243
  34     8.786        6.6430        0.0000       10.7779       10.7779       4.134857       0.00260
  33     11.80        6.6430        0.0000       10.7768       10.7768       4.133804       0.00295
  32     15.07        6.6430        0.0001       10.7755       10.7756       4.132567       0.00319
  31     18.79        6.6430        0.0001       10.7740       10.7741       4.131071       0.00339
  30     23.16        6.6431        0.0001       10.7722       10.7723       4.129211       0.00360
  29     28.12        6.6431        0.0001       10.7699       10.7700       4.126959       0.00383
  28     33.73        6.6431        0.0002       10.7671       10.7673       4.124178       0.00418
  27     40.54        6.6431        0.0002       10.7633       10.7635       4.120403       0.00468
  26     48.69        6.6432        0.0002       10.7583       10.7586       4.115367       0.00521
  25     57.69        6.6433        0.0003       10.7524       10.7527       4.109388       0.00560
  24     68.43        6.6435        0.0003       10.7450       10.7453       4.101883       0.00590
  23     81.20        6.6437        0.0004       10.7359       10.7363       4.092623       0.00612
  22     96.49        6.6440        0.0005       10.7249       10.7253       4.081332       0.00623
  21     114.6        6.6445        0.0006       10.7111       10.7116       4.067176       0.00661
  20     136.5        6.6451        0.0007       10.6945       10.6952       4.050073       0.00658
  19     162.9        6.6461        0.0008       10.6744       10.6752       4.029029       0.00673
  18     196.4        6.6478        0.0010       10.6467       10.6476       3.999859       0.00734
  17     218.7        6.6493        0.0011       10.6258       10.6268       3.977571       0.00846
  16     243.0        6.6514        0.0012       10.5983       10.5995       3.948105       0.01022
  15     269.0        6.6546        0.0013       10.5613       10.5627       3.908052       0.01299
  14     297.5        6.6593        0.0015       10.5122       10.5136       3.854346       0.01593
  13     328.5        6.6657        0.0016       10.4501       10.4517       3.785995       0.01858
  12     361.9        6.6741        0.0018       10.3704       10.3721       3.698026       0.02226
  11     398.1        6.6847        0.0019       10.2679       10.2699       3.585189       0.02629
  10     437.6        6.6982        0.0021       10.1391       10.1412       3.443011       0.03040
   9     480.5        6.7156        0.0023        9.9878        9.9901       3.274500       0.03310
   8     533.0        6.7424        0.0025        9.7937        9.7962       3.053848       0.03550
   7     589.8        6.7813        0.0027        9.5752        9.5779       2.796577       0.03819
   6     651.6        6.8445        0.0029        9.2958        9.2987       2.454258       0.04681
   5     718.7        6.9516        0.0031        8.9267        8.9299       1.978304       0.05981
   4     792.3        7.1555        0.0033        8.4542        8.4576       1.302069       0.07756
   3     825.4        3.6450        4.3641        0.0044        4.3684       0.723405       0.14770
   2     858.4        2.1969        2.7330        0.0000        2.7330       0.536097       0.04781
   1     891.5        1.0124        1.4714        0.0000        1.4714       0.458935       0.01970
   0    1013.0        1.0410        1.4260        0.0000        1.4260       0.385021       0.00513



 Wavenumbers:  4650. -  5150. cm-1, ATM      1
 LEVEL PRESSURE   UPWARD FLUX   DIFDOWN FLUX  DIRDOWN FLUX  DOWNWARD FLUX   NET FLUX    HEATING RATE
          mb          W/m2          W/m2          W/m2        W/m2          W/m2       degree/day
  51    .06700        4.7649        0.0000       10.2033       10.2033       5.438412       0.00000
  50    .07753        4.7649        0.0000       10.2031       10.2031       5.438177       0.18901
  49    .09103        4.7649        0.0000       10.2028       10.2028       5.437882       0.18428
  48    0.1069        4.7649        0.0000       10.2025       10.2025       5.437545       0.17931
  47    0.1255        4.7649        0.0000       10.2021       10.2021       5.437161       0.17426
  46    0.1487        4.7649        0.0000       10.2016       10.2016       5.436679       0.17536
  45    0.1794        4.7649        0.0000       10.2010       10.2010       5.436029       0.17850
  44    0.2165        4.7649        0.0000       10.2002       10.2002       5.435270       0.17277
  43    0.2613        4.7649        0.0000       10.1993       10.1993       5.434384       0.16690
  42    0.3336        4.7649        0.0000       10.1979       10.1979       5.432952       0.16702
  41    0.4307        4.7649        0.0000       10.1960       10.1960       5.431111       0.16002
  40    0.5894        4.7649        0.0000       10.1932       10.1932       5.428237       0.15283
  39     1.339        4.7649        0.0000       10.1816       10.1816       5.416645       0.13051
  38     1.782        4.7649        0.0000       10.1760       10.1760       5.411116       0.10527
  37     2.292        4.7649        0.0000       10.1706       10.1706       5.405659       0.09039
  36     5.035        4.7649        0.0000       10.1630       10.1630       5.398071       0.02334
  35     6.613        4.7649        0.0000       10.1533       10.1533       5.388362       0.05191
  34     8.786        4.7649        0.0000       10.1442       10.1442       5.379266       0.03532
  33     11.80        4.7650        0.0001       10.1340       10.1341       5.369116       0.02842
  32     15.07        4.7650        0.0001       10.1237       10.1238       5.358839       0.02653
  31     18.79        4.7650        0.0001       10.1115       10.1117       5.346631       0.02768
  30     23.16        4.7651        0.0002       10.0961       10.0963       5.331156       0.02992
  29     28.12        4.7652        0.0002       10.0769       10.0771       5.311866       0.03279
  28     33.73        4.7653        0.0002       10.0536       10.0539       5.288532       0.03508
  27     40.54        4.7655        0.0003       10.0235       10.0238       5.258307       0.03750
  26     48.69        4.7658        0.0003        9.9852        9.9855       5.219708       0.03994
  25     57.69        4.7661        0.0004        9.9414        9.9418       5.175656       0.04129
  24     68.43        4.7666        0.0005        9.8884        9.8889       5.122264       0.04197
  23     81.20        4.7673        0.0006        9.8258        9.8263       5.059030       0.04178
  22     96.49        4.7682        0.0007        9.7537        9.7544       4.986142       0.04023
  21     114.6        4.7695        0.0008        9.6735        9.6743       4.904743       0.03801
  20     136.5        4.7713        0.0009        9.5870        9.5879       4.816603       0.03389
  19     162.9        4.7738        0.0011        9.4949        9.4960       4.722190       0.03018
  18     196.4        4.7777        0.0013        9.3889        9.3902       4.612515       0.02761
  17     218.7        4.7807        0.0015        9.3234        9.3249       4.544149       0.02596
  16     243.0        4.7846        0.0016        9.2524        9.2540       4.469349       0.02594
  15     269.0        4.7899        0.0018        9.1720        9.1738       4.383870       0.02773
  14     297.5        4.7972        0.0020        9.0765        9.0785       4.281277       0.03043
  13     328.5        4.8068        0.0021        8.9652        8.9673       4.160556       0.03282
  12     361.9        4.8191        0.0023        8.8351        8.8375       4.018338       0.03598
  11     398.1        4.8352        0.0025        8.6822        8.6847       3.849591       0.03931
  10     437.6        4.8560        0.0028        8.5030        8.5057       3.649706       0.04274
   9     480.5        4.8832        0.0030        8.2950        8.2979       3.414751       0.04614
   8     533.0        4.9247        0.0032        8.0210        8.0242       3.099544       0.05071
   7     589.8        4.9825        0.0035        7.7064        7.7099       2.727372       0.05524
   6     651.6        5.0684        0.0037        7.3413        7.3450       2.276613       0.06164
   5     718.7        5.1989        0.0039        6.9387        6.9426       1.743719       0.06697
   4     792.3        5.4092        0.0041        6.5066        6.5108       1.101601       0.07364
   3     825.4        2.5938        3.1691        0.0033        3.1725       0.578659       0.13348
   2     858.4        1.5005        1.8940        0.0000        1.8940       0.393418       0.04729
   1     891.5        0.6656        0.9840        0.0000        0.9840       0.318465       0.01914
   0    1013.0        0.6902        0.9455        0.0000        0.9455       0.255276       0.00439



 Wavenumbers:  5150. -  6150. cm-1, ATM      1
 LEVEL PRESSURE   UPWARD FLUX   DIFDOWN FLUX  DIRDOWN FLUX  DOWNWARD FLUX   NET FLUX    HEATING RATE
          mb          W/m2          W/m2          W/m2        W/m2          W/m2       degree/day
  51    .06700       11.4704        0.0000       25.5798       25.5798      14.109432       0.00000
  50    .07753       11.4704        0.0000       25.5798       25.5798      14.109393       0.03162
  49    .09103       11.4704        0.0000       25.5797       25.5797      14.109341       0.03211
  48    0.1069       11.4704        0.0000       25.5797       25.5797      14.109280       0.03262
  47    0.1255       11.4704        0.0000       25.5796       25.5796      14.109207       0.03312
  46    0.1487       11.4704        0.0000       25.5795       25.5795      14.109111       0.03489
  45    0.1794       11.4704        0.0000       25.5794       25.5794      14.108976       0.03713
  44    0.2165       11.4704        0.0000       25.5792       25.5792      14.108810       0.03770
  43    0.2613       11.4704        0.0000       25.5790       25.5790      14.108607       0.03827
  42    0.3336       11.4704        0.0000       25.5786       25.5786      14.108260       0.04044
  41    0.4307       11.4704        0.0000       25.5782       25.5782      14.107789       0.04098
  40    0.5894       11.4704        0.0000       25.5774       25.5774      14.106999       0.04199
  39     1.339       11.4704        0.0000       25.5735       25.5736      14.103195       0.04283
  38     1.782       11.4704        0.0001       25.5713       25.5714      14.100979       0.04218
  37     2.292       11.4704        0.0001       25.5688       25.5688      14.098471       0.04154
  36     5.035       11.4704        0.0001       25.5647       25.5648      14.094370       0.01262
  35     6.613       11.4704        0.0002       25.5576       25.5578      14.087379       0.03738
  34     8.786       11.4704        0.0002       25.5485       25.5487      14.078317       0.03519
  33     11.80       11.4705        0.0003       25.5362       25.5365      14.066060       0.03432
  32     15.07       11.4705        0.0004       25.5239       25.5243      14.053766       0.03174
  31     18.79       11.4706        0.0005       25.5110       25.5115      14.040910       0.02915
  30     23.16       11.4707        0.0007       25.4971       25.4977      14.027059       0.02678
  29     28.12       11.4708        0.0008       25.4824       25.4833      14.012449       0.02484
  28     33.73       11.4710        0.0010       25.4676       25.4686      13.997633       0.02228
  27     40.54       11.4712        0.0012       25.4514       25.4526      13.981415       0.02012
  26     48.69       11.4715        0.0015       25.4341       25.4356      13.964023       0.01800
  25     57.69       11.4720        0.0018       25.4169       25.4187      13.946731       0.01621
  24     68.43       11.4725        0.0021       25.3983       25.4004      13.927934       0.01478
  23     81.20       11.4732        0.0026       25.3779       25.3804      13.907229       0.01368
  22     96.49       11.4741        0.0030       25.3550       25.3580      13.883953       0.01285
  21     114.6       11.4751        0.0036       25.3288       25.3324      13.857269       0.01246
  20     136.5       11.4764        0.0043       25.2983       25.3027      13.826238       0.01193
  19     162.9       11.4780        0.0051       25.2537       25.2588      13.780798       0.01452
  18     196.4       11.4803        0.0062       25.1601       25.1663      13.686064       0.02385
  17     218.7       11.4819        0.0069       25.0164       25.0232      13.541349       0.05494
  16     243.0       11.4839        0.0076       24.7092       24.7168      13.232941       0.10697
  15     269.0       11.4864        0.0083       24.1621       24.1704      12.683997       0.17807
  14     297.5       11.4898        0.0090       23.4546       23.4636      11.973755       0.21065
  13     328.5       11.4943        0.0097       22.7357       22.7453      11.251073       0.19650
  12     361.9       11.5001        0.0104       21.9226       21.9330      10.432871       0.20701
  11     398.1       11.5080        0.0111       20.9941       21.0052       9.497185       0.21799
  10     437.6       11.5189        0.0118       19.9835       19.9953       8.476377       0.21826
   9     480.5       11.5340        0.0124       18.9485       18.9609       7.426952       0.20610
   8     533.0       11.5594        0.0132       17.7798       17.7930       6.233513       0.19199
   7     589.8       11.6007        0.0140       16.6727       16.6867       5.086015       0.17033
   6     651.6       11.6761        0.0148       15.6344       15.6492       3.973096       0.15219
   5     718.7       11.8146        0.0156       14.7739       14.7896       2.974974       0.12544
   4     792.3       12.0927        0.0166       14.0292       14.0458       1.953147       0.11719
   3     825.4        6.4955        7.6353        0.0073        7.6427       1.147130       0.20573
   2     858.4        4.0834        4.9986        0.0000        4.9986       0.915139       0.05922
   1     891.5        1.9766        2.8054        0.0000        2.8054       0.828813       0.02204
   0    1013.0        2.0099        2.7533        0.0000        2.7533       0.743393       0.00593



 Wavenumbers:  6150. -  7700. cm-1, ATM      1
 LEVEL PRESSURE   UPWARD FLUX   DIFDOWN FLUX  DIRDOWN FLUX  DOWNWARD FLUX   NET FLUX    HEATING RATE
          mb          W/m2          W/m2          W/m2        W/m2          W/m2       degree/day
  51    .06700       18.1993        0.0000       47.3109       47.3109      29.111575       0.00000
  50    .07753       18.1993        0.0000       47.3108       47.3108      29.111518       0.04553
  49    .09103       18.1993        0.0000       47.3107       47.3107      29.111445       0.04583
  48    0.1069       18.1993        0.0000       47.3106       47.3106      29.111358       0.04614
  47    0.1255       18.1993        0.0000       47.3105       47.3105      29.111256       0.04645
  46    0.1487       18.1993        0.0000       47.3104       47.3104      29.111122       0.04852
  45    0.1794       18.1993        0.0000       47.3102       47.3102      29.110936       0.05127
  44    0.2165       18.1993        0.0000       47.3100       47.3100      29.110709       0.05167
  43    0.2613       18.1993        0.0000       47.3097       47.3097      29.110432       0.05210
  42    0.3336       18.1993        0.0000       47.3092       47.3092      29.109963       0.05471
  41    0.4307       18.1993        0.0000       47.3085       47.3086      29.109328       0.05521
  40    0.5894       18.1992        0.0001       47.3074       47.3075      29.108269       0.05633
  39     1.339       18.1992        0.0002       47.3022       47.3024      29.103176       0.05733
  38     1.782       18.1992        0.0002       47.2991       47.2994      29.100206       0.05655
  37     2.292       18.1991        0.0003       47.2956       47.2959      29.096830       0.05591
  36     5.035       18.1990        0.0004       47.2899       47.2903      29.091255       0.01715
  35     6.613       18.1989        0.0006       47.2800       47.2806      29.081679       0.05119
  34     8.786       18.1988        0.0009       47.2670       47.2679      29.069135       0.04872
  33     11.80       18.1985        0.0013       47.2491       47.2504      29.051898       0.04826
  32     15.07       18.1983        0.0017       47.2308       47.2326      29.034274       0.04550
  31     18.79       18.1980        0.0022       47.2112       47.2134      29.015438       0.04271
  30     23.16       18.1977        0.0028       47.1895       47.1923      28.994661       0.04018
  29     28.12       18.1973        0.0035       47.1661       47.1695      28.972257       0.03808
  28     33.73       18.1969        0.0042       47.1416       47.1458      28.948917       0.03509
  27     40.54       18.1964        0.0051       47.1141       47.1192      28.922825       0.03237
  26     48.69       18.1957        0.0062       47.0837       47.0898      28.894084       0.02974
  25     57.69       18.1951        0.0073       47.0527       47.0601      28.864987       0.02727
  24     68.43       18.1943        0.0088       47.0183       47.0270      28.832745       0.02535
  23     81.20       18.1933        0.0104       46.9796       46.9900      28.796716       0.02381
  22     96.49       18.1922        0.0124       46.9356       46.9480      28.755806       0.02258
  21     114.6       18.1909        0.0148       46.8846       46.8994      28.708569       0.02206
  20     136.5       18.1893        0.0176       46.8250       46.8426      28.653306       0.02125
  19     162.9       18.1875        0.0210       46.7403       46.7613      28.573876       0.02539
  18     196.4       18.1852        0.0253       46.5732       46.5986      28.413326       0.04041
  17     218.7       18.1840        0.0281       46.3491       46.3772      28.193254       0.08355
  16     243.0       18.1830        0.0311       45.9309       45.9619      27.778941       0.14370
  15     269.0       18.1828        0.0340       45.1716       45.2056      27.022803       0.24529
  14     297.5       18.1841        0.0369       44.0121       44.0490      25.864893       0.34342
  13     328.5       18.1875        0.0399       42.7247       42.7646      24.577079       0.35015
  12     361.9       18.1941        0.0429       41.3543       41.3973      23.203205       0.34760
  11     398.1       18.2055        0.0459       39.7956       39.8416      21.636036       0.36512
  10     437.6       18.2249        0.0488       37.9951       38.0439      19.818958       0.38850
   9     480.5       18.2559        0.0515       36.0650       36.1165      17.860584       0.38462
   8     533.0       18.3143        0.0544       33.7776       33.8320      15.517712       0.37689
   7     589.8       18.4161        0.0572       31.4085       31.4656      13.049468       0.36637
   6     651.6       18.6128        0.0594       28.8836       28.9431      10.330222       0.37186
   5     718.7       18.9895        0.0615       26.4106       26.4721       7.482523       0.35788
   4     792.3       19.7926        0.0632       24.0058       24.0690       4.276379       0.36771
   3     825.4        9.7160       11.6972        0.0119       11.7091       1.993126       0.58279
   2     858.4        5.8524        7.2678        0.0000        7.2678       1.415341       0.14749
   1     891.5        2.7258        3.9389        0.0000        3.9389       1.213094       0.05164
   0    1013.0        2.7933        3.8265        0.0000        3.8265       1.033149       0.01249



 Wavenumbers:  7700. -  8050. cm-1, ATM      1
 LEVEL PRESSURE   UPWARD FLUX   DIFDOWN FLUX  DIRDOWN FLUX  DOWNWARD FLUX   NET FLUX    HEATING RATE
          mb          W/m2          W/m2          W/m2        W/m2          W/m2       degree/day
  51    .06700        8.4587        0.0000       11.1810       11.1810       2.722228       0.00000
  50    .07753        8.4587        0.0000       11.1809       11.1809       2.722205       0.01898
  49    .09103        8.4587        0.0000       11.1809       11.1809       2.722175       0.01860
  48    0.1069        8.4588        0.0000       11.1809       11.1809       2.722141       0.01821
  47    0.1255        8.4588        0.0000       11.1809       11.1809       2.722101       0.01782
  46    0.1487        8.4588        0.0000       11.1808       11.1808       2.722052       0.01808
  45    0.1794        8.4588        0.0000       11.1808       11.1808       2.721984       0.01861
  44    0.2165        8.4588        0.0000       11.1807       11.1807       2.721904       0.01825
  43    0.2613        8.4588        0.0000       11.1806       11.1806       2.721809       0.01791
  42    0.3336        8.4589        0.0000       11.1805       11.1805       2.721651       0.01833
  41    0.4307        8.4589        0.0000       11.1803       11.1804       2.721443       0.01813
  40    0.5894        8.4590        0.0000       11.1801       11.1801       2.721102       0.01811
  39     1.339        8.4594        0.0001       11.1788       11.1789       2.719491       0.01814
  38     1.782        8.4596        0.0001       11.1781       11.1782       2.718545       0.01802
  37     2.292        8.4599        0.0001       11.1772       11.1773       2.717449       0.01815
  36     5.035        8.4604        0.0002       11.1757       11.1759       2.715548       0.00585
  35     6.613        8.4612        0.0003       11.1731       11.1734       2.712171       0.01805
  34     8.786        8.4623        0.0004       11.1695       11.1699       2.707622       0.01767
  33     11.80        8.4639        0.0006       11.1644       11.1650       2.701116       0.01821
  32     15.07        8.4656        0.0008       11.1589       11.1597       2.694135       0.01802
  31     18.79        8.4675        0.0010       11.1528       11.1538       2.686255       0.01787
  30     23.16        8.4698        0.0013       11.1456       11.1469       2.677058       0.01778
  29     28.12        8.4724        0.0016       11.1374       11.1390       2.666553       0.01786
  28     33.73        8.4754        0.0020       11.1282       11.1302       2.654814       0.01765
  27     40.54        8.4789        0.0024       11.1172       11.1196       2.640656       0.01756
  26     48.69        8.4832        0.0029       11.1040       11.1069       2.623625       0.01762
  25     57.69        8.4880        0.0034       11.0896       11.0930       2.604966       0.01749
  24     68.43        8.4937        0.0041       11.0725       11.0765       2.582811       0.01742
  23     81.20        8.5006        0.0048       11.0523       11.0571       2.556515       0.01738
  22     96.49        8.5089        0.0058       11.0284       11.0342       2.525319       0.01722
  21     114.6        8.5188        0.0069       11.0004       11.0072       2.488471       0.01721
  20     136.5        8.5307        0.0082       10.9676       10.9757       2.445059       0.01669
  19     162.9        8.5450        0.0097       10.9290       10.9387       2.393710       0.01641
  18     196.4        8.5640        0.0117       10.8799       10.8916       2.327639       0.01663
  17     218.7        8.5767        0.0130       10.8482       10.8612       2.284509       0.01637
  16     243.0        8.5907        0.0144       10.8140       10.8285       2.237792       0.01620
  15     269.0        8.6061        0.0160       10.7774       10.7934       2.187265       0.01639
  14     297.5        8.6232        0.0177       10.7382       10.7558       2.132628       0.01620
  13     328.5        8.6421        0.0195       10.6962       10.7156       2.073480       0.01608
  12     361.9        8.6631        0.0214       10.6512       10.6726       2.009503       0.01619
  11     398.1        8.6865        0.0235       10.6031       10.6266       1.940061       0.01618
  10     437.6        8.7127        0.0257       10.5513       10.5771       1.864362       0.01618
   9     480.5        8.7421        0.0281       10.4956       10.5238       1.781655       0.01624
   8     533.0        8.7805        0.0311       10.4264       10.4575       1.677029       0.01683
   7     589.8        8.8252        0.0343       10.3500       10.3842       1.559017       0.01752
   6     651.6        8.8789        0.0377       10.2633       10.3010       1.422102       0.01872
   5     718.7        8.9447        0.0413       10.1637       10.2050       1.260216       0.02034
   4     792.3        9.0285        0.0451       10.0457       10.0908       1.062314       0.02270
   3     825.4        5.1093        5.9580        0.0055        5.9635       0.854161       0.05313
   2     858.4        3.2181        3.9468        0.0000        3.9468       0.728666       0.03203
   1     891.5        1.5472        2.2032        0.0000        2.2032       0.656016       0.01855
   0    1013.0        1.5772        2.1605        0.0000        2.1605       0.583336       0.00505



 Wavenumbers:  8050. - 12850. cm-1, ATM      1
 LEVEL PRESSURE   UPWARD FLUX   DIFDOWN FLUX  DIRDOWN FLUX  DOWNWARD FLUX   NET FLUX    HEATING RATE
          mb          W/m2          W/m2          W/m2        W/m2          W/m2       degree/day
  51    .06700      109.8011        0.0000      156.5418      156.5418      46.740659       0.00000
  50    .07753      109.8011        0.0000      156.5417      156.5417      46.740659       0.00000
  49    .09103      109.8011        0.0001      156.5417      156.5417      46.740659       0.00000
  48    0.1069      109.8011        0.0001      156.5416      156.5417      46.740659      -0.00000
  47    0.1255      109.8010        0.0002      156.5415      156.5417      46.740659       0.00000
  46    0.1487      109.8010        0.0002      156.5414      156.5417      46.740659       0.00000
  45    0.1794      109.8010        0.0003      156.5413      156.5416      46.740659      -0.00000
  44    0.2165      109.8009        0.0004      156.5412      156.5416      46.740659       0.00000
  43    0.2613      109.8009        0.0006      156.5410      156.5416      46.740659      -0.00000
  42    0.3336      109.8008        0.0008      156.5407      156.5415      46.740659      -0.00000
  41    0.4307      109.8007        0.0011      156.5403      156.5414      46.740659      -0.00000
  40    0.5894      109.8006        0.0016      156.5397      156.5412      46.740659      -0.00000
  39     1.339      109.7999        0.0038      156.5367      156.5405      46.740659       0.00000
  38     1.782      109.7994        0.0051      156.5350      156.5401      46.740659       0.00000
  37     2.292      109.7989        0.0066      156.5330      156.5396      46.740659       0.00000
  36     5.035      109.7981        0.0092      156.5295      156.5387      46.740659       0.00000
  35     6.613      109.7965        0.0139      156.5233      156.5372      46.740659      -0.00000
  34     8.786      109.7945        0.0202      156.5149      156.5351      46.740659      -0.00000
  33     11.80      109.7915        0.0292      156.5029      156.5322      46.740659      -0.00000
  32     15.07      109.7883        0.0389      156.4901      156.5290      46.740659       0.00000
  31     18.79      109.7847        0.0499      156.4755      156.5254      46.740659       0.00000
  30     23.16      109.7805        0.0627      156.4585      156.5212      46.740659      -0.00000
  29     28.12      109.7757        0.0774      156.4390      156.5164      46.740659      -0.00000
  28     33.73      109.7703        0.0939      156.4171      156.5110      46.740659       0.00000
  27     40.54      109.7638        0.1138      156.3907      156.5045      46.740659       0.00000
  26     48.69      109.7559        0.1378      156.3588      156.4966      46.740659      -0.00000
  25     57.69      109.7473        0.1642      156.3237      156.4879      46.740659      -0.00000
  24     68.43      109.7369        0.1958      156.2818      156.4776      46.740659       0.00000
  23     81.20      109.7246        0.2334      156.2319      156.4653      46.740659       0.00000
  22     96.49      109.7099        0.2783      156.1722      156.4505      46.740659      -0.00000
  21     114.6      109.6926        0.3318      156.0952      156.4270      46.734379       0.00293
  20     136.5      109.6721        0.3952      156.0034      156.3987      46.726593       0.00299
  19     162.9      109.6476        0.4710      155.8903      156.3613      46.713688       0.00413
  18     196.4      109.6160        0.5695      155.7272      156.2967      46.680676       0.00831
  17     218.7      109.5957        0.6343      155.5805      156.2148      46.619153       0.02336
  16     243.0      109.5748        0.7047      155.3439      156.0486      46.473866       0.05039
  15     269.0      109.5549        0.7809      154.9586      155.7395      46.184627       0.09383
  14     297.5      109.5390        0.8630      154.3968      155.2598      45.720816       0.13756
  13     328.5      109.5287        0.9515      153.7223      154.6737      45.145013       0.15656
  12     361.9      109.5280        1.0464      152.9159      153.9623      44.434343       0.17981
  11     398.1      109.5432        1.1481      151.9057      153.0538      43.510653       0.21520
  10     437.6      109.5851        1.2562      150.6102      151.8665      42.281325       0.26284
   9     480.5      109.6672        1.3707      149.0084      150.3791      40.711848       0.30824
   8     533.0      109.8387        1.5092      146.7445      148.2536      38.414911       0.36950
   7     589.8      110.1550        1.6544      143.8798      145.5342      35.379187       0.45060
   6     651.6      110.7779        1.8034      140.1022      141.9056      31.127694       0.58140
   5     718.7      111.9486        1.9548      135.5343      137.4890      25.540463       0.70216
   4     792.3      114.2781        2.1046      130.0753      132.1799      17.901748       0.87607
   3     825.4       61.5062       72.4823        0.0684       72.5507      11.044485       1.75028
   2     858.4       38.3552       47.1124        0.0000       47.1124       8.757189       0.58387
   1     891.5       18.3878       26.2186        0.0000       26.2186       7.830822       0.23654
   0    1013.0       18.7306       25.6583        0.0000       25.6583       6.927754       0.06270



 Wavenumbers: 12850. - 16000. cm-1, ATM      1
 LEVEL PRESSURE   UPWARD FLUX   DIFDOWN FLUX  DIRDOWN FLUX  DOWNWARD FLUX   NET FLUX    HEATING RATE
          mb          W/m2          W/m2          W/m2        W/m2          W/m2       degree/day
  51    .06700       79.7979        0.0000       98.0872       98.0872      18.289315       0.00000
  50    .07753       79.7979        0.0001       98.0864       98.0864      18.288523       0.63521
  49    .09103       79.7979        0.0002       98.0853       98.0855      18.287527       0.62224
  48    0.1069       79.7979        0.0003       98.0841       98.0843      18.286383       0.60903
  47    0.1255       79.7979        0.0004       98.0826       98.0830      18.285068       0.59613
  46    0.1487       79.7980        0.0005       98.0809       98.0814      18.283408       0.60511
  45    0.1794       79.7980        0.0007       98.0784       98.0792      18.281149       0.62018
  44    0.2165       79.7981        0.0010       98.0756       98.0766      18.278491       0.60477
  43    0.2613       79.7982        0.0013       98.0723       98.0736      18.275363       0.58960
  42    0.3336       79.7985        0.0017       98.0670       98.0687      18.270254       0.59558
  41    0.4307       79.7989        0.0024       98.0602       98.0625      18.263644       0.57476
  40    0.5894       79.7997        0.0034       98.0496       98.0530      18.253217       0.55449
  39     1.339       79.8068        0.0082       98.0043       98.0126      18.205801       0.53382
  38     1.782       79.8131        0.0110       97.9793       97.9903      18.177226       0.54402
  37     2.292       79.8225        0.0143       97.9498       97.9641      18.141562       0.59070
  36     5.035       79.8476        0.0200       97.8891       97.9091      18.061503       0.24632
  35     6.613       79.9003        0.0301       97.7746       97.8047      17.904411       0.83982
  34     8.786       79.9689        0.0437       97.6278       97.6715      17.702603       0.78375
  33     11.80       80.0583        0.0632       97.4339       97.4970      17.438754       0.73869
  32     15.07       80.1440        0.0840       97.2433       97.3273      17.183303       0.65953
  31     18.79       80.2316        0.1076       97.0439       97.1514      16.919773       0.59750
  30     23.16       80.3234        0.1350       96.8292       96.9642      16.640800       0.53944
  29     28.12       80.4160        0.1664       96.6048       96.7712      16.355254       0.48541
  28     33.73       80.5018        0.2015       96.3831       96.5846      16.082796       0.40965
  27     40.54       80.5850        0.2440       96.1494       96.3933      15.808264       0.34059
  26     48.69       80.6655        0.2951       95.9016       96.1968      15.531299       0.28662
  25     57.69       80.7345        0.3513       95.6629       96.0143      15.279732       0.23581
  24     68.43       80.7960        0.4183       95.4149       95.8332      15.037247       0.19063
  23     81.20       80.8406        0.4982       95.1674       95.6656      14.825002       0.14025
  22     96.49       80.8673        0.5935       94.9172       95.5107      14.643377       0.10024
  21     114.6       80.8975        0.7077       94.6421       95.3498      14.452372       0.08919
  20     136.5       80.9220        0.8431       94.3324       95.1755      14.253539       0.07646
  19     162.9       80.9409        1.0043       93.9750       94.9793      14.038433       0.06876
  18     196.4       80.9437        1.2134       93.5336       94.7471      13.803384       0.05916
  17     218.7       80.9379        1.3508       93.2498       94.6006      13.662693       0.05342
  16     243.0       80.9285        1.5000       92.9420       94.4420      13.513459       0.05176
  15     269.0       80.9158        1.6617       92.6087       94.2704      13.354582       0.05154
  14     297.5       80.9005        1.8365       92.2464       94.0829      13.182423       0.05106
  13     328.5       80.8849        2.0253       91.8517       93.8771      12.992135       0.05174
  12     361.9       80.8703        2.2286       91.4219       93.6505      12.780169       0.05363
  11     398.1       80.8586        2.4473       90.9524       93.3997      12.541148       0.05569
  10     437.6       80.8536        2.6820       90.4358       93.1179      12.264291       0.05919
   9     480.5       80.8591        2.9334       89.8659       92.7993      11.940189       0.06365
   8     533.0       80.8868        3.2424       89.1347       92.3772      11.490401       0.07236
   7     589.8       80.9546        3.5744       88.2943       91.8687      10.914073       0.08555
   6     651.6       81.1046        3.9289       87.2867       91.2156      10.110956       0.10983
   5     718.7       81.3698        4.3044       86.1028       90.4072       9.037469       0.13491
   4     792.3       81.8478        4.6972       84.6812       89.3784       7.530532       0.17283
   3     825.4       52.1984       58.0794        0.0461       58.1255       5.927098       0.40927
   2     858.4       38.9600       44.0821        0.0000       44.0821       5.122093       0.20549
   1     891.5       27.0874       31.7529        0.0000       31.7529       4.665458       0.11660
   0    1013.0       27.3221       31.4300        0.0000       31.4300       4.107904       0.03871



 Wavenumbers: 16000. - 22650. cm-1, ATM      1
 LEVEL PRESSURE   UPWARD FLUX   DIFDOWN FLUX  DIRDOWN FLUX  DOWNWARD FLUX   NET FLUX    HEATING RATE
          mb          W/m2          W/m2          W/m2        W/m2          W/m2       degree/day
  51    .06700      140.2079        0.0000      156.3892      156.3892      16.181325       0.00000
  50    .07753      140.2079        0.0004      156.3887      156.3891      16.181178       0.11806
  49    .09103      140.2079        0.0009      156.3879      156.3888      16.180964       0.13390
  48    0.1069      140.2079        0.0015      156.3871      156.3885      16.180677       0.15269
  47    0.1255      140.2079        0.0021      156.3861      156.3882      16.180293       0.17405
  46    0.1487      140.2079        0.0029      156.3847      156.3877      16.179727       0.20625
  45    0.1794      140.2081        0.0041      156.3828      156.3869      16.178843       0.24284
  44    0.2165      140.2083        0.0054      156.3805      156.3859      16.177643       0.27293
  43    0.2613      140.2086        0.0070      156.3776      156.3846      16.176015       0.30684
  42    0.3336      140.2094        0.0096      156.3726      156.3823      16.172920       0.36083
  41    0.4307      140.2106        0.0131      156.3657      156.3788      16.168255       0.40562
  40    0.5894      140.2131        0.0188      156.3537      156.3725      16.159358       0.47313
  39     1.339      140.2355        0.0457      156.2834      156.3292      16.093626       0.74003
  38     1.782      140.2563        0.0615      156.2324      156.2939      16.037630       1.06607
  37     2.292      140.2874        0.0798      156.1641      156.2439      15.956575       1.34247
  36     5.035      140.3709        0.1116      156.0076      156.1191      15.748186       0.64116
  35     6.613      140.5469        0.1678      155.6950      155.8628      15.315973       2.31061
  34     8.786      140.7760        0.2436      155.2860      155.5295      14.753574       2.18415
  33     11.80      141.0741        0.3517      154.7422      155.0939      14.019803       2.05433
  32     15.07      141.3597        0.4677      154.2059      154.6736      13.313955       1.82236
  31     18.79      141.6511        0.5984      153.6432      154.2417      12.590543       1.64020
  30     23.16      141.9556        0.7509      153.0352      153.7861      11.830442       1.46979
  29     28.12      142.2619        0.9250      152.3965      153.3215      11.059592       1.31039
  28     33.73      142.5445        1.1196      151.7604      152.8800      10.335551       1.08861
  27     40.54      142.8161        1.3545      151.0815      152.4361       9.619956       0.88778
  26     48.69      143.0758        1.6374      150.3500      151.9874       8.911526       0.73311
  25     57.69      143.2956        1.9477      149.6296      151.5773       8.281677       0.59039
  24     68.43      143.4868        2.3168      148.8604      151.1772       7.690431       0.46480
  23     81.20      143.6177        2.7563      148.0628      150.8190       7.201345       0.32318
  22     96.49      143.6838        3.2794      147.2220      150.5014       6.817545       0.21183
  21     114.6      143.7162        3.8986      146.2838      150.1824       6.466211       0.16405
  20     136.5      143.7234        4.6298      145.2142      149.8440       6.120599       0.13290
  19     162.9      143.7036        5.4965      143.9816      149.4780       5.774405       0.11066
  18     196.4      143.6167        6.6146      142.4652      149.0798       5.463049       0.07837
  17     218.7      143.5372        7.3452      141.5017      148.8469       5.309660       0.05824
  16     243.0      143.4405        8.1360      140.4717      148.6077       5.167185       0.04942
  15     269.0      143.3251        8.9891      139.3740      148.3631       5.038016       0.04190
  14     297.5      143.1902        9.9065      138.2062      148.1128       4.922509       0.03426
  13     328.5      143.0400       10.8926      136.9574      147.8500       4.810036       0.03058
  12     361.9      142.8740       11.9482      135.6265      147.5747       4.700715       0.02766
  11     398.1      142.6919       13.0774      134.2081      147.2855       4.593620       0.02495
  10     437.6      142.4947       14.2821      132.6981      146.9802       4.485558       0.02310
   9     480.5      142.2819       15.5646      131.0935      146.6581       4.376179       0.02148
   8     533.0      142.0205       17.1308      129.1351      146.2659       4.245456       0.02103
   7     589.8      141.7432       18.8042      127.0392      145.8434       4.100217       0.02156
   6     651.6      141.4569       20.5863      124.7944      145.3807       3.923798       0.02413
   5     718.7      141.1684       22.4788      122.3908      144.8696       3.701160       0.02798
   4     792.3      140.8957       24.4795      119.8121      144.2916       3.395901       0.03501
   3     825.4      113.8720      116.7919        0.0650      116.8569       2.984846       0.10492
   2     858.4      106.9975      109.6725        0.0000      109.6726       2.675106       0.07907
   1     891.5      100.8072      103.2254        0.0000      103.2254       2.418290       0.06558
   0    1013.0      100.9616      103.0115        0.0000      103.0115       2.049928       0.02558



 Wavenumbers: 22650. - 29000. cm-1, ATM      1
 LEVEL PRESSURE   UPWARD FLUX   DIFDOWN FLUX  DIRDOWN FLUX  DOWNWARD FLUX   NET FLUX    HEATING RATE
          mb          W/m2          W/m2          W/m2        W/m2          W/m2       degree/day
  51    .06700       58.1601        0.0000       59.0156       59.0156       0.855481       0.00000
  50    .07753       58.1600        0.0005       59.0151       59.0155       0.855481       0.00000
  49    .09103       58.1599        0.0010       59.0144       59.0154       0.855481      -0.00000
  48    0.1069       58.1598        0.0017       59.0136       59.0153       0.855481       0.00000
  47    0.1255       58.1596        0.0025       59.0127       59.0151       0.855481       0.00000
  46    0.1487       58.1595        0.0034       59.0115       59.0149       0.855481       0.00000
  45    0.1794       58.1592        0.0048       59.0099       59.0147       0.855481       0.00000
  44    0.2165       58.1589        0.0063       59.0080       59.0144       0.855481      -0.00000
  43    0.2613       58.1585        0.0082       59.0058       59.0140       0.855481       0.00000
  42    0.3336       58.1579        0.0112       59.0022       59.0134       0.855481       0.00000
  41    0.4307       58.1571        0.0153       58.9973       59.0126       0.855481      -0.00000
  40    0.5894       58.1558        0.0219       58.9894       59.0113       0.855481       0.00000
  39     1.339       58.1496        0.0533       58.9518       59.0051       0.855481       0.00000
  38     1.782       58.1460        0.0718       58.9297       59.0015       0.855481       0.00000
  37     2.292       58.1418        0.0931       58.9042       58.9973       0.855481       0.00000
  36     5.035       58.1345        0.1301       58.8599       58.9900       0.855481       0.00000
  35     6.613       58.1216        0.1958       58.7812       58.9771       0.855481       0.00000
  34     8.786       58.1042        0.2843       58.6754       58.9597       0.855481       0.00000
  33     11.80       58.0793        0.4106       58.5242       58.9348       0.855481       0.00000
  32     15.07       58.0526        0.5460       58.3621       58.9081       0.855481      -0.00000
  31     18.79       58.0226        0.6987       58.1794       58.8781       0.855481       0.00000
  30     23.16       57.9876        0.8766       57.9665       58.8430       0.855481       0.00000
  29     28.12       57.9476        1.0794       57.7237       58.8031       0.855481       0.00000
  28     33.73       57.9031        1.3056       57.4530       58.7585       0.855481      -0.00000
  27     40.54       57.8494        1.5777       57.1272       58.7049       0.855481       0.00000
  26     48.69       57.7851        1.9040       56.7366       58.6406       0.855481       0.00000
  25     57.69       57.7149        2.2603       56.3100       58.5704       0.855481       0.00000
  24     68.43       57.6318        2.6816       55.8057       58.4873       0.855481       0.00000
  23     81.20       57.5336        3.1791       55.2100       58.3891       0.855481       0.00000
  22     96.49       57.4179        3.7657       54.5077       58.2733       0.855481       0.00000
  21     114.6       57.2821        4.4531       53.6845       58.1376       0.855481      -0.00000
  20     136.5       57.1235        5.2554       52.7236       57.9790       0.855481       0.00000
  19     162.9       56.9380        6.1932       51.6003       57.7935       0.855481       0.00000
  18     196.4       56.7027        7.3812       50.1770       57.5582       0.855481      -0.00000
  17     218.7       56.5514        8.1446       49.2623       57.4069       0.855481      -0.00000
  16     243.0       56.3897        8.9595       48.2857       57.2452       0.855481       0.00000
  15     269.0       56.2177        9.8255       47.2476       57.0731       0.855481       0.00000
  14     297.5       56.0355       10.7418       46.1491       56.8909       0.855481      -0.00000
  13     328.5       55.8427       11.7098       44.9884       56.6982       0.855481      -0.00000
  12     361.9       55.6400       12.7267       43.7687       56.4955       0.855481       0.00000
  11     398.1       55.4271       13.7928       42.4898       56.2826       0.855481      -0.00000
  10     437.6       55.2045       14.9058       41.1542       56.0600       0.855481      -0.00000
   9     480.5       54.9725       16.0633       39.7647       55.8280       0.855481       0.00000
   8     533.0       54.6960       17.4397       38.1118       55.5515       0.855481       0.00000
   7     589.8       54.4087       18.8664       36.3978       55.2642       0.855481       0.00000
   6     651.6       54.1118       20.3359       34.6314       54.9673       0.855481      -0.00000
   5     718.7       53.8063       21.8427       32.8192       54.6618       0.855481       0.00000
   4     792.3       53.4938       23.3778       30.9715       54.3493       0.855481       0.00000
   3     825.4       46.3516       47.1904        0.0160       47.2064       0.854818       0.00017
   2     858.4       44.2101       45.0643        0.0000       45.0643       0.854215       0.00015
   1     891.5       42.0726       42.9262        0.0000       42.9262       0.853640       0.00015
   0    1013.0       42.0428       42.8965        0.0000       42.8965       0.853640       0.00000



 Wavenumbers: 29000. - 38000. cm-1, ATM      1
 LEVEL PRESSURE   UPWARD FLUX   DIFDOWN FLUX  DIRDOWN FLUX  DOWNWARD FLUX   NET FLUX    HEATING RATE
          mb          W/m2          W/m2          W/m2        W/m2          W/m2       degree/day
  51    .06700        8.7744        0.0000       20.8114       20.8114      12.036933       0.00000
  50    .07753        8.7742        0.0003       20.8070       20.8074      12.033125       3.05176
  49    .09103        8.7740        0.0007       20.8009       20.8016      12.027588       3.46109
  48    0.1069        8.7738        0.0012       20.7928       20.7939      12.020177       3.94456
  47    0.1255        8.7735        0.0017       20.7820       20.7837      12.010272       4.49065
  46    0.1487        8.7731        0.0024       20.7665       20.7688      11.995708       5.30882
  45    0.1794        8.7727        0.0033       20.7424       20.7457      11.973041       6.22249
  44    0.2165        8.7722        0.0044       20.7103       20.7147      11.942516       6.94391
  43    0.2613        8.7716        0.0056       20.6675       20.6731      11.901518       7.72790
  42    0.3336        8.7707        0.0077       20.5880       20.5957      11.824952       8.92694
  41    0.4307        8.7696        0.0104       20.4722       20.4826      11.712990       9.73481
  40    0.5894        8.7681        0.0147       20.2637       20.2784      11.510289      10.77939
  39     1.339        8.7648        0.0331       19.0984       19.1315      10.366682      12.87494
  38     1.782        8.7654        0.0427       18.4394       18.4821       9.716650      12.37555
  37     2.292        8.7683        0.0530       17.7714       17.8244       9.056160      10.93944
  36     5.035        8.7811        0.0692       16.7265       16.7957       8.014568       3.20470
  35     6.613        8.8112        0.0964       15.5186       15.6149       6.803763       6.47297
  34     8.786        8.8514        0.1317       14.5590       14.6907       5.839239       3.74586
  33     11.80        8.9042        0.1804       13.7000       13.8805       4.976226       2.41616
  32     15.07        8.9553        0.2306       13.0749       13.3055       4.350192       1.61630
  31     18.79        9.0083        0.2859       12.5486       12.8345       3.826241       1.18796
  30     23.16        9.0646        0.3487       12.0732       12.4219       3.357259       0.90686
  29     28.12        9.1224        0.4188       11.6423       12.0611       2.938685       0.71155
  28     33.73        9.1758        0.4959       11.2628       11.7587       2.582862       0.53499
  27     40.54        9.2264        0.5878       10.8969       11.4847       2.258242       0.40273
  26     48.69        9.2742        0.6968       10.5353       11.2321       1.957838       0.31087
  25     57.69        9.3134        0.8146       10.2040       11.0186       1.705261       0.23675
  24     68.43        9.3450        0.9527        9.8713       10.8240       1.479089       0.17780
  23     81.20        9.3597        1.1157        9.5431       10.6588       1.299082       0.11895
  22     96.49        9.3557        1.3072        9.2107       10.5179       1.162253       0.07552
  21     114.6        9.3411        1.5284        8.8533       10.3817       1.040603       0.05680
  20     136.5        9.3189        1.7811        8.4618       10.2429       0.924014       0.04483
  19     162.9        9.2893        2.0690        8.0302       10.0992       0.809983       0.03645
  18     196.4        9.2398        2.4255        7.5240        9.9495       0.709729       0.02524
  17     218.7        9.2042        2.6497        7.2154        9.8651       0.660882       0.01855
  16     243.0        9.1653        2.8839        6.8972        9.7811       0.615810       0.01563
  15     269.0        9.1227        3.1274        6.5707        9.6981       0.575369       0.01312
  14     297.5        9.0766        3.3790        6.2374        9.6163       0.539746       0.01057
  13     328.5        9.0284        3.6377        5.8964        9.5340       0.505665       0.00927
  12     361.9        8.9785        3.9009        5.5509        9.4518       0.473279       0.00819
  11     398.1        8.9272        4.1682        5.2016        9.3698       0.442612       0.00714
  10     437.6        8.8748        4.4379        4.8500        9.2879       0.413074       0.00632
   9     480.5        8.8218        4.7079        4.4990        9.2069       0.385059       0.00550
   8     533.0        8.7608        5.0155        4.0999        9.1154       0.354550       0.00491
   7     589.8        8.7005        5.3185        3.7070        9.0255       0.325040       0.00438
   6     651.6        8.6416        5.6130        3.3248        8.9378       0.296201       0.00394
   5     718.7        8.5847        5.8976        2.9551        8.8527       0.267986       0.00355
   4     792.3        8.5306        6.1687        2.6023        8.7710       0.240400       0.00316
   3     825.4        7.5440        7.7528        0.0012        7.7540       0.209961       0.00777
   2     858.4        7.0588        7.2423        0.0000        7.2423       0.183543       0.00674
   1     891.5        6.6358        6.7957        0.0000        6.7957       0.159885       0.00604
   0    1013.0        6.6375        6.7723        0.0000        6.7723       0.134768       0.00174



 Wavenumbers: 38000. - 50000. cm-1, ATM      1
 LEVEL PRESSURE   UPWARD FLUX   DIFDOWN FLUX  DIRDOWN FLUX  DOWNWARD FLUX   NET FLUX    HEATING RATE
          mb          W/m2          W/m2          W/m2        W/m2          W/m2       degree/day
  51    .06700        0.0061        0.0000        1.2836        1.2836       1.277566       0.00000
  50    .07753        0.0060        0.0001        1.2812        1.2812       1.275231       1.87147
  49    .09103        0.0059        0.0002        1.2777        1.2778       1.271899       2.08243
  48    0.1069        0.0058        0.0002        1.2731        1.2734       1.267521       2.33056
  47    0.1255        0.0058        0.0004        1.2672        1.2675       1.261766       2.60905
  46    0.1487        0.0056        0.0005        1.2586        1.2591       1.253440       3.03495
  45    0.1794        0.0055        0.0007        1.2455        1.2462       1.240672       3.50516
  44    0.2165        0.0053        0.0009        1.2282        1.2291       1.223746       3.85033
  43    0.2613        0.0051        0.0011        1.2054        1.2065       1.201398       4.21256
  42    0.3336        0.0048        0.0015        1.1639        1.1654       1.160574       4.75965
  41    0.4307        0.0044        0.0020        1.1051        1.1070       1.102615       5.03937
  40    0.5894        0.0039        0.0026        1.0039        1.0064       1.002575       5.32000
  39     1.339        0.0022        0.0035        0.5438        0.5473       0.545166       5.14960
  38     1.782        0.0016        0.0032        0.3635        0.3666       0.365077       3.42860
  37     2.292        0.0011        0.0027        0.2356        0.2383       0.237147       2.11885
  36     5.035        0.0007        0.0019        0.1180        0.1199       0.119172       0.36298
  35     6.613        0.0004        0.0013        0.0504        0.0516       0.051220       0.36327
  34     8.786        0.0002        0.0009        0.0239        0.0248       0.024556       0.10355
  33     11.80        0.0001        0.0006        0.0105        0.0110       0.010913       0.03820
  32     15.07        0.0001        0.0004        0.0048        0.0052       0.005151       0.01488
  31     18.79        0.0000        0.0002        0.0022        0.0024       0.002406       0.00622
  30     23.16        0.0000        0.0001        0.0010        0.0011       0.001079       0.00257
  29     28.12        0.0000        0.0001        0.0004        0.0005       0.000469       0.00104
  28     33.73        0.0000        0.0000        0.0002        0.0002       0.000205       0.00040
  27     40.54        0.0000        0.0000        0.0001        0.0001       0.000083       0.00015
  26     48.69        0.0000        0.0000        0.0000        0.0000       0.000031       0.00005
  25     57.69        0.0000        0.0000        0.0000        0.0000       0.000011       0.00002
  24     68.43        0.0000        0.0000        0.0000        0.0000       0.000004       0.00001
  23     81.20        0.0000        0.0000        0.0000        0.0000       0.000001       0.00000
  22     96.49        0.0000        0.0000        0.0000        0.0000       0.000000       0.00000
  21     114.6        0.0000        0.0000        0.0000        0.0000       0.000000       0.00000
  20     136.5        0.0000        0.0000        0.0000        0.0000       0.000000       0.00000
  19     162.9        0.0000        0.0000        0.0000        0.0000       0.000000       0.00000
  18     196.4        0.0000        0.0000        0.0000        0.0000       0.000000       0.00000
  17     218.7        0.0000        0.0000        0.0000        0.0000       0.000000       0.00000
  16     243.0        0.0000        0.0000        0.0000        0.0000       0.000000       0.00000
  15     269.0        0.0000        0.0000        0.0000        0.0000       0.000000       0.00000
  14     297.5        0.0000        0.0000        0.0000        0.0000       0.000000       0.00000
  13     328.5        0.0000        0.0000        0.0000        0.0000       0.000000       0.00000
  12     361.9        0.0000        0.0000        0.0000        0.0000       0.000000       0.00000
  11     398.1        0.0000        0.0000        0.0000        0.0000       0.000000       0.00000
  10     437.6        0.0000        0.0000        0.0000        0.0000       0.000000       0.00000
   9     480.5        0.0000        0.0000        0.0000        0.0000       0.000000       0.00000
   8     533.0        0.0000        0.0000        0.0000        0.0000       0.000000       0.00000
   7     589.8        0.0000        0.0000        0.0000        0.0000       0.000000       0.00000
   6     651.6        0.0000        0.0000        0.0000        0.0000       0.000000       0.00000
   5     718.7        0.0000        0.0000        0.0000        0.0000       0.000000       0.00000
   4     792.3        0.0000        0.0000        0.0000        0.0000       0.000000       0.00000
   3     825.4        0.0000        0.0000        0.0000        0.0000       0.000000       0.00000
   2     858.4        0.0000        0.0000        0.0000        0.0000       0.000000       0.00000
   1     891.5        0.0000        0.0000        0.0000        0.0000       0.000000       0.00000
   0    1013.0        0.0000        0.0000        0.0000        0.0000       0.000000       0.00000



 Wavenumbers:   820. -  2600. cm-1, ATM      1
 LEVEL PRESSURE   UPWARD FLUX   DIFDOWN FLUX  DIRDOWN FLUX  DOWNWARD FLUX   NET FLUX    HEATING RATE
          mb          W/m2          W/m2          W/m2        W/m2          W/m2       degree/day
  51    .06700        1.5313        0.0000        6.0047        6.0047       4.473319       0.00000
  50    .07753        1.5313        0.0000        6.0008        6.0008       4.469466       3.08825
  49    .09103        1.5313        0.0000        5.9999        5.9999       4.468581       0.55361
  48    0.1069        1.5313        0.0000        5.9989        5.9989       4.467592       0.52656
  47    0.1255        1.5313        0.0000        5.9978        5.9978       4.466474       0.50653
  46    0.1487        1.5313        0.0000        5.9964        5.9964       4.465117       0.49461
  45    0.1794        1.5313        0.0000        5.9947        5.9947       4.463398       0.47204
  44    0.2165        1.5313        0.0000        5.9929        5.9929       4.461555       0.41914
  43    0.2613        1.5313        0.0000        5.9909        5.9909       4.459596       0.36937
  42    0.3336        1.5313        0.0000        5.9880        5.9880       4.456717       0.33561
  41    0.4307        1.5313        0.0000        5.9846        5.9846       4.453247       0.30170
  40    0.5894        1.5313        0.0000        5.9791        5.9791       4.447741       0.29281
  39     1.339        1.5313        0.0000        5.9536        5.9536       4.422249       0.28699
  38     1.782        1.5313        0.0000        5.9395        5.9395       4.408108       0.26922
  37     2.292        1.5314        0.0000        5.9237        5.9237       4.392354       0.26093
  36     5.035        1.5314        0.0000        5.8954        5.8954       4.364081       0.08699
  35     6.613        1.5314        0.0000        5.8469        5.8469       4.315572       0.25932
  34     8.786        1.5314        0.0000        5.7915        5.7915       4.260126       0.21533
  33     11.80        1.5314        0.0000        5.7245        5.7245       4.193050       0.18779
  32     15.07        1.5314        0.0000        5.6684        5.6684       4.136998       0.14471
  31     18.79        1.5315        0.0000        5.6231        5.6231       4.091576       0.10299
  30     23.16        1.5315        0.0000        5.5871        5.5871       4.055577       0.06961
  29     28.12        1.5316        0.0000        5.5583        5.5583       4.026732       0.04903
  28     33.73        1.5316        0.0000        5.5327        5.5328       4.001136       0.03848
  27     40.54        1.5317        0.0000        5.5051        5.5051       3.973396       0.03442
  26     48.69        1.5317        0.0000        5.4733        5.4733       3.941593       0.03291
  25     57.69        1.5318        0.0000        5.4393        5.4394       3.907531       0.03193
  24     68.43        1.5319        0.0000        5.3998        5.3999       3.867936       0.03113
  23     81.20        1.5320        0.0000        5.3545        5.3546       3.822528       0.03000
  22     96.49        1.5322        0.0000        5.3027        5.3028       3.770578       0.02867
  21     114.6        1.5323        0.0000        5.2431        5.2431       3.710746       0.02794
  20     136.5        1.5326        0.0000        5.1754        5.1755       3.642897       0.02609
  19     162.9        1.5329        0.0000        5.0924        5.0924       3.559510       0.02665
  18     196.4        1.5334        0.0000        4.9695        4.9695       3.436108       0.03106
  17     218.7        1.5339        0.0000        4.8606        4.8606       3.326687       0.04154
  16     243.0        1.5348        0.0000        4.7093        4.7093       3.174564       0.05276
  15     269.0        1.5360        0.0000        4.5352        4.5352       2.999164       0.05690
  14     297.5        1.5380        0.0000        4.3425        4.3426       2.804555       0.05772
  13     328.5        1.5407        0.0000        4.1286        4.1286       2.587939       0.05890
  12     361.9        1.5443        0.0000        3.8790        3.8791       2.334813       0.06404
  11     398.1        1.5489        0.0000        3.6162        3.6163       2.067373       0.06231
  10     437.6        1.5549        0.0000        3.3761        3.3761       1.821245       0.05262
   9     480.5        1.5622        0.0000        3.1959        3.1960       1.633750       0.03682
   8     533.0        1.5734        0.0000        3.0468        3.0468       1.473488       0.02578
   7     589.8        1.5898        0.0001        2.9024        2.9024       1.312616       0.02388
   6     651.6        1.6185        0.0001        2.7184        2.7185       1.099961       0.02908
   5     718.7        1.6682        0.0001        2.5059        2.5059       0.837704       0.03296
   4     792.3        1.7643        0.0001        2.2757        2.2757       0.511449       0.03742
   3     825.4        0.6707        0.8917        0.0011        0.8928       0.222099       0.07386
   2     858.4        0.3087        0.4281        0.0000        0.4281       0.119444       0.02620
   1     891.5        0.0897        0.1678        0.0000        0.1678       0.078064       0.01057
   0    1013.0        0.1045        0.1431        0.0000        0.1431       0.038646       0.00274

  Modules and versions used in this calculation:

       rrtmg_sw.1col.f90:  $Revision$                    rrtmg_sw_init.f90:  $Revision$        
     rrtmgsw_cldprop.f90:  $Revision$                  rrtmgsw_cldprmc.f90:  NOT USED          
     rrtmg_sw_reftra.f90:  $Revision$                  rrtmg_sw_spcvrt.f90:  NOT USED          
     rrtmg_sw_spcvmc.f90:  NOT USED                    rrtmgsw_setcoef.f90:  NOT USED          
     rrtmg_sw_taumol.f90:  $Revision$                  rrtmg_sw_vrtqdr.f90:  NOT USED          
                rrtatm.f:  NOT USED                             util_xxx.f:  NOT USED          
                 extra.f:  NOT USED                       rrtmg_sw_k_g.f90:  $Revision$        

