

 Wavenumbers:   820. - 50000. cm-1, ATM      1
 LEVEL PRESSURE   UPWARD FLUX   DIFDOWN FLUX  DIRDOWN FLUX  DOWNWARD FLUX   NET FLUX    HEATING RATE
          mb          W/m2          W/m2          W/m2        W/m2          W/m2       degree/day
  51    .06700      458.3897        0.0000      617.8126      617.8126     159.422881       0.00000
  50    .07753      458.3893        0.0014      617.7947      617.7961     159.406737      12.93961
  49    .09103      458.3889        0.0031      617.7778      617.7808     159.391922       9.25972
  48    0.1069      458.3884        0.0050      617.7581      617.7631     159.374654       9.19180
  47    0.1255      458.3879        0.0072      617.7340      617.7412     159.353301       9.68034
  46    0.1487      458.3874        0.0101      617.7009      617.7110     159.323605      10.82486
  45    0.1794      458.3867        0.0139      617.6521      617.6660     159.279357      12.14708
  44    0.2165      458.3860        0.0185      617.5895      617.6080     159.222013      13.04460
  43    0.2613      458.3853        0.0239      617.5089      617.5328     159.147472      14.05077
  42    0.3336      458.3845        0.0327      617.3641      617.3968     159.012334      15.75578
  41    0.4307      458.3839        0.0444      617.1591      617.2035     158.819632      16.75495
  40    0.5894      458.3839        0.0632      616.8005      616.8637     158.479796      18.07204
  39     1.339      458.4024        0.1483      614.9443      615.0926     156.690188      20.14774
  38     1.782      458.4261        0.1963      613.9670      614.1633     155.737122      18.14484
  37     2.292      458.4653        0.2508      613.0059      613.2566     154.791381      15.66394
  36     5.035      458.5803        0.3437      611.5124      611.8562     153.275898       4.66274
  35     6.613      458.8282        0.5077      609.6144      610.1222     151.294041      10.59501
  34     8.786      459.1517        0.7279      607.8253      608.5532     149.401500       7.34994
  33     11.80      459.5712        1.0409      605.8783      606.9192     147.347986       5.74919
  32     15.07      459.9709        1.3745      604.1777      605.5522     145.581318       4.56119
  31     18.79      460.3770        1.7495      602.5196      604.2691     143.892141       3.82988
  30     23.16      460.7989        2.1851      600.8127      602.9977     142.198876       3.27423
  29     28.12      461.2200        2.6807      599.0712      601.7518     140.531876       2.83379
  28     33.73      461.6013        3.2330      597.3500      600.5830     138.981759       2.33064
  27     40.54      461.9572        3.8978      595.5035      599.4013     137.444104       1.90764
  26     48.69      462.2848        4.6954      593.4958      598.1912     135.906355       1.59133
  25     57.69      462.5462        5.5671      591.4872      597.0543     134.508138       1.31062
  24     68.43      462.7507        6.5997      589.2939      595.8936     133.142941       1.07323
  23     81.20      462.8457        7.8239      586.9289      594.7528     131.907085       0.81663
  22     96.49      462.8212        9.2732      584.3423      593.6155     130.794272       0.61419
  21     114.6      462.7364       10.9782      581.4033      592.3814     129.645024       0.53662
  20     136.5      462.5911       12.9745      578.0541      591.0286     128.437504       0.46432
  19     162.9      462.3802       15.3172      574.1654      589.4827     127.102421       0.42675
  18     196.4      462.0192       18.3049      569.1760      587.4809     125.461667       0.41300
  17     218.7      461.7543       20.2366      565.6314      585.8680     124.113694       0.51178
  16     243.0      461.4595       22.3085      561.3129      583.6214     122.161893       0.67695
  15     269.0      461.1371       24.5221      555.9478      580.4699     119.332764       0.91776
  14     297.5      460.7940       26.8779      549.5394      576.4173     115.623370       1.10017
  13     328.5      460.4411       29.3826      542.6225      572.0051     111.564046       1.10372
  12     361.9      460.0879       32.0323      535.1469      567.1793     107.091396       1.13162
  11     398.1      459.7478       34.8317      526.9326      561.7643     102.016516       1.18233
  10     437.6      459.4470       37.7794      517.8921      555.6715      96.224510       1.23837
   9     480.5      459.2136       40.8734      508.2121      549.0854      89.871834       1.24764
   8     533.0      459.0934       44.5932      496.3783      540.9715      81.878101       1.28594
   7     589.8      459.2700       48.4967      483.5433      532.0400      72.770013       1.35194
   6     651.6      460.0992       52.5708      469.1414      521.7122      61.613097       1.52574
   5     718.7      462.0908       56.8073      453.6623      510.4696      48.378844       1.66318
   4     792.3      466.6106       61.1838      436.9145      498.0984      31.487740       1.93722
   3     825.4      308.2691      326.6733        0.0028      326.6762      18.407088       3.33876
   2     858.4      245.8833      260.3297        0.0000      260.3297      14.446402       1.01103
   1     891.5      192.8493      205.6800        0.0000      205.6800      12.830686       0.41256
   0    1013.0      193.4412      204.7498        0.0000      204.7498      11.308518       0.10569



 Wavenumbers:  2600. -  3250. cm-1, ATM      1
 LEVEL PRESSURE   UPWARD FLUX   DIFDOWN FLUX  DIRDOWN FLUX  DOWNWARD FLUX   NET FLUX    HEATING RATE
          mb          W/m2          W/m2          W/m2        W/m2          W/m2       degree/day
  51    .06700        2.0851        0.0000        5.4450        5.4450       3.359896       0.00000
  50    .07753        2.0851        0.0000        5.4450        5.4450       3.359888       0.00640
  49    .09103        2.0851        0.0000        5.4450        5.4450       3.359878       0.00627
  48    0.1069        2.0851        0.0000        5.4450        5.4450       3.359867       0.00613
  47    0.1255        2.0851        0.0000        5.4450        5.4450       3.359854       0.00599
  46    0.1487        2.0851        0.0000        5.4450        5.4450       3.359837       0.00608
  45    0.1794        2.0851        0.0000        5.4450        5.4450       3.359814       0.00625
  44    0.2165        2.0851        0.0000        5.4449        5.4449       3.359787       0.00612
  43    0.2613        2.0851        0.0000        5.4449        5.4449       3.359755       0.00600
  42    0.3336        2.0851        0.0000        5.4448        5.4448       3.359703       0.00617
  41    0.4307        2.0851        0.0000        5.4448        5.4448       3.359631       0.00620
  40    0.5894        2.0851        0.0000        5.4446        5.4446       3.359512       0.00637
  39     1.339        2.0851        0.0000        5.4439        5.4439       3.358804       0.00797
  38     1.782        2.0851        0.0000        5.4434        5.4434       3.358261       0.01034
  37     2.292        2.0851        0.0000        5.4427        5.4427       3.357545       0.01186
  36     5.035        2.0851        0.0000        5.4412        5.4412       3.356018       0.00470
  35     6.613        2.0851        0.0000        5.4381        5.4381       3.352941       0.01645
  34     8.786        2.0851        0.0000        5.4341        5.4341       3.348933       0.01556
  33     11.80        2.0851        0.0000        5.4288        5.4288       3.343686       0.01469
  32     15.07        2.0851        0.0000        5.4239        5.4239       3.338758       0.01272
  31     18.79        2.0851        0.0000        5.4191        5.4192       3.334012       0.01076
  30     23.16        2.0852        0.0000        5.4144        5.4144       3.329260       0.00919
  29     28.12        2.0852        0.0000        5.4096        5.4096       3.324422       0.00822
  28     33.73        2.0852        0.0000        5.4042        5.4042       3.319052       0.00807
  27     40.54        2.0852        0.0000        5.3972        5.3972       3.312017       0.00873
  26     48.69        2.0852        0.0000        5.3877        5.3877       3.302468       0.00988
  25     57.69        2.0853        0.0000        5.3759        5.3759       3.290616       0.01111
  24     68.43        2.0853        0.0000        5.3604        5.3604       3.275040       0.01224
  23     81.20        2.0854        0.0000        5.3405        5.3405       3.255088       0.01318
  22     96.49        2.0856        0.0000        5.3159        5.3159       3.230359       0.01365
  21     114.6        2.0858        0.0001        5.2857        5.2857       3.199944       0.01420
  20     136.5        2.0860        0.0001        5.2507        5.2508       3.164742       0.01354
  19     162.9        2.0864        0.0001        5.2113        5.2114       3.124992       0.01271
  18     196.4        2.0871        0.0001        5.1642        5.1643       3.077252       0.01202
  17     218.7        2.0877        0.0001        5.1333        5.1334       3.045665       0.01199
  16     243.0        2.0888        0.0001        5.0963        5.0964       3.007688       0.01317
  15     269.0        2.0904        0.0001        5.0512        5.0513       2.960905       0.01518
  14     297.5        2.0929        0.0001        4.9957        4.9958       2.902918       0.01720
  13     328.5        2.0964        0.0001        4.9304        4.9306       2.834200       0.01868
  12     361.9        2.1012        0.0002        4.8511        4.8513       2.750136       0.02127
  11     398.1        2.1078        0.0002        4.7507        4.7509       2.643092       0.02494
  10     437.6        2.1170        0.0002        4.6221        4.6222       2.505208       0.02948
   9     480.5        2.1299        0.0002        4.4625        4.4627       2.332793       0.03386
   8     533.0        2.1510        0.0002        4.2461        4.2463       2.095308       0.03820
   7     589.8        2.1833        0.0002        3.9954        3.9956       1.812367       0.04200
   6     651.6        2.2370        0.0002        3.7089        3.7091       1.472054       0.04654
   5     718.7        2.3269        0.0002        3.4018        3.4021       1.075125       0.04988
   4     792.3        2.4931        0.0002        3.0564        3.0567       0.563553       0.05867
   3     825.4        0.8474        1.0390        0.0000        1.0390       0.191595       0.09494
   2     858.4        0.3369        0.4391        0.0000        0.4391       0.102151       0.02283
   1     891.5        0.0005        0.0792        0.0000        0.0792       0.078630       0.00601
   0    1013.0        0.0006        0.0724        0.0000        0.0724       0.071760       0.00048



 Wavenumbers:  3250. -  4000. cm-1, ATM      1
 LEVEL PRESSURE   UPWARD FLUX   DIFDOWN FLUX  DIRDOWN FLUX  DOWNWARD FLUX   NET FLUX    HEATING RATE
          mb          W/m2          W/m2          W/m2        W/m2          W/m2       degree/day
  51    .06700        0.0701        0.0000        9.1795        9.1795       9.109400       0.00000
  50    .07753        0.0701        0.0000        9.1747        9.1747       9.104557       3.88162
  49    .09103        0.0701        0.0000        9.1713        9.1713       9.101169       2.11758
  48    0.1069        0.0701        0.0000        9.1688        9.1688       9.098644       1.34411
  47    0.1255        0.0701        0.0000        9.1665        9.1665       9.096385       1.02430
  46    0.1487        0.0701        0.0000        9.1641        9.1641       9.093943       0.88998
  45    0.1794        0.0701        0.0000        9.1612        9.1612       9.091065       0.79014
  44    0.2165        0.0701        0.0000        9.1583        9.1583       9.088145       0.66436
  43    0.2613        0.0701        0.0000        9.1553        9.1553       9.085171       0.56046
  42    0.3336        0.0701        0.0000        9.1511        9.1511       9.080992       0.48727
  41    0.4307        0.0701        0.0000        9.1464        9.1464       9.076223       0.41463
  40    0.5894        0.0701        0.0000        9.1393        9.1393       9.069217       0.37258
  39     1.339        0.0701        0.0000        9.1127        9.1127       9.042601       0.29965
  38     1.782        0.0701        0.0000        9.1011        9.1011       9.031012       0.22064
  37     2.292        0.0701        0.0000        9.0901        9.0901       9.019945       0.18331
  36     5.035        0.0701        0.0000        9.0731        9.0731       9.003012       0.05210
  35     6.613        0.0701        0.0000        9.0438        9.0439       8.973732       0.15653
  34     8.786        0.0701        0.0000        9.0058        9.0058       8.935646       0.14791
  33     11.80        0.0701        0.0000        8.9509        8.9509       8.880775       0.15362
  32     15.07        0.0701        0.0000        8.8914        8.8914       8.821296       0.15356
  31     18.79        0.0701        0.0000        8.8241        8.8242       8.754061       0.15244
  30     23.16        0.0701        0.0000        8.7473        8.7474       8.677249       0.14853
  29     28.12        0.0701        0.0000        8.6639        8.6640       8.593867       0.14174
  28     33.73        0.0701        0.0000        8.5784        8.5784       8.508357       0.12857
  27     40.54        0.0701        0.0001        8.4859        8.4860       8.415884       0.11472
  26     48.69        0.0701        0.0001        8.3873        8.3873       8.317260       0.10206
  25     57.69        0.0701        0.0001        8.2887        8.2888       8.218710       0.09238
  24     68.43        0.0700        0.0001        8.1771        8.1772       8.107193       0.08767
  23     81.20        0.0700        0.0001        8.0474        8.0475       7.977472       0.08572
  22     96.49        0.0700        0.0001        7.8963        7.8965       7.826459       0.08335
  21     114.6        0.0700        0.0001        7.7173        7.7174       7.647449       0.08359
  20     136.5        0.0700        0.0002        7.5201        7.5203       7.450333       0.07580
  19     162.9        0.0699        0.0002        7.2919        7.2921       7.222201       0.07292
  18     196.4        0.0699        0.0002        6.9664        6.9666       6.896687       0.08194
  17     218.7        0.0699        0.0002        6.6650        6.6652       6.595329       0.11441
  16     243.0        0.0699        0.0002        6.2620        6.2622       6.192339       0.13977
  15     269.0        0.0700        0.0003        5.7575        5.7578       5.687821       0.16366
  14     297.5        0.0701        0.0003        5.1717        5.1720       5.101870       0.17379
  13     328.5        0.0703        0.0002        4.5755        4.5757       4.505372       0.16219
  12     361.9        0.0708        0.0002        3.9992        3.9995       3.928699       0.14590
  11     398.1        0.0715        0.0002        3.4651        3.4653       3.393877       0.12460
  10     437.6        0.0726        0.0002        2.9736        2.9739       2.901202       0.10534
   9     480.5        0.0746        0.0002        2.5303        2.5305       2.455880       0.08746
   8     533.0        0.0783        0.0002        2.0610        2.0612       1.982850       0.07610
   7     589.8        0.0852        0.0002        1.6146        1.6148       1.529606       0.06728
   6     651.6        0.0995        0.0001        1.1562        1.1563       1.056801       0.06466
   5     718.7        0.1311        0.0001        0.7388        0.7389       0.607785       0.05643
   4     792.3        0.2157        0.0001        0.3984        0.3984       0.182693       0.04875
   3     825.4        0.0066        0.0137        0.0000        0.0137       0.007130       0.04481
   2     858.4        0.0003        0.0006        0.0000        0.0006       0.000296       0.00174
   1     891.5        0.0000        0.0000        0.0000        0.0000       0.000017       0.00007
   0    1013.0        0.0000        0.0000        0.0000        0.0000       0.000002       0.00000



 Wavenumbers:  4000. -  4650. cm-1, ATM      1
 LEVEL PRESSURE   UPWARD FLUX   DIFDOWN FLUX  DIRDOWN FLUX  DOWNWARD FLUX   NET FLUX    HEATING RATE
          mb          W/m2          W/m2          W/m2        W/m2          W/m2       degree/day
  51    .06700        6.8301        0.0000       10.7795       10.7795       3.949467       0.00000
  50    .07753        6.8301        0.0000       10.7795       10.7795       3.949466       0.00080
  49    .09103        6.8301        0.0000       10.7795       10.7795       3.949465       0.00078
  48    0.1069        6.8301        0.0000       10.7795       10.7795       3.949463       0.00077
  47    0.1255        6.8301        0.0000       10.7795       10.7795       3.949461       0.00075
  46    0.1487        6.8301        0.0000       10.7795       10.7795       3.949459       0.00076
  45    0.1794        6.8301        0.0000       10.7795       10.7795       3.949457       0.00078
  44    0.2165        6.8301        0.0000       10.7795       10.7795       3.949453       0.00076
  43    0.2613        6.8301        0.0000       10.7795       10.7795       3.949449       0.00075
  42    0.3336        6.8301        0.0000       10.7795       10.7795       3.949443       0.00077
  41    0.4307        6.8301        0.0000       10.7795       10.7795       3.949434       0.00078
  40    0.5894        6.8301        0.0000       10.7795       10.7795       3.949419       0.00080
  39     1.339        6.8301        0.0000       10.7794       10.7794       3.949329       0.00101
  38     1.782        6.8301        0.0000       10.7793       10.7793       3.949259       0.00133
  37     2.292        6.8301        0.0000       10.7792       10.7792       3.949165       0.00156
  36     5.035        6.8301        0.0000       10.7790       10.7790       3.948956       0.00064
  35     6.613        6.8301        0.0000       10.7785       10.7786       3.948502       0.00243
  34     8.786        6.8301        0.0000       10.7779       10.7779       3.947832       0.00260
  33     11.80        6.8301        0.0001       10.7768       10.7768       3.946778       0.00295
  32     15.07        6.8301        0.0001       10.7755       10.7756       3.945540       0.00319
  31     18.79        6.8301        0.0001       10.7740       10.7741       3.944043       0.00340
  30     23.16        6.8301        0.0001       10.7722       10.7723       3.942182       0.00360
  29     28.12        6.8301        0.0001       10.7699       10.7700       3.939927       0.00383
  28     33.73        6.8301        0.0002       10.7671       10.7673       3.937143       0.00418
  27     40.54        6.8302        0.0002       10.7633       10.7635       3.933364       0.00469
  26     48.69        6.8303        0.0002       10.7583       10.7586       3.928321       0.00522
  25     57.69        6.8304        0.0003       10.7524       10.7527       3.922332       0.00561
  24     68.43        6.8305        0.0003       10.7450       10.7453       3.914814       0.00591
  23     81.20        6.8308        0.0004       10.7359       10.7363       3.905536       0.00613
  22     96.49        6.8311        0.0005       10.7249       10.7253       3.894218       0.00625
  21     114.6        6.8316        0.0006       10.7111       10.7117       3.880025       0.00663
  20     136.5        6.8323        0.0007       10.6945       10.6952       3.862871       0.00660
  19     162.9        6.8334        0.0008       10.6744       10.6752       3.841756       0.00675
  18     196.4        6.8352        0.0010       10.6467       10.6476       3.812471       0.00737
  17     218.7        6.8368        0.0011       10.6258       10.6268       3.790085       0.00850
  16     243.0        6.8390        0.0012       10.5983       10.5995       3.760486       0.01027
  15     269.0        6.8424        0.0013       10.5613       10.5627       3.720240       0.01306
  14     297.5        6.8474        0.0015       10.5122       10.5136       3.666259       0.01601
  13     328.5        6.8542        0.0016       10.4501       10.4517       3.597535       0.01869
  12     361.9        6.8631        0.0018       10.3704       10.3721       3.509076       0.02238
  11     398.1        6.8743        0.0019       10.2679       10.2699       3.395611       0.02643
  10     437.6        6.8886        0.0021       10.1391       10.1412       3.252606       0.03058
   9     480.5        6.9071        0.0023        9.9878        9.9901       3.082989       0.03331
   8     533.0        6.9357        0.0025        9.7937        9.7962       2.860555       0.03578
   7     589.8        6.9774        0.0027        9.5752        9.5779       2.600562       0.03859
   6     651.6        7.0453        0.0030        9.2958        9.2988       2.253522       0.04746
   5     718.7        7.1610        0.0032        8.9267        8.9299       1.768878       0.06091
   4     792.3        7.3835        0.0034        8.4542        8.4576       1.074086       0.07968
   3     825.4        3.2794        3.8242        0.0001        3.8243       0.544868       0.13508
   2     858.4        1.5070        1.9105        0.0000        1.9105       0.403461       0.03610
   1     891.5        0.0238        0.3864        0.0000        0.3864       0.362513       0.01046
   0    1013.0        0.0246        0.3733        0.0000        0.3733       0.348726       0.00096



 Wavenumbers:  4650. -  5150. cm-1, ATM      1
 LEVEL PRESSURE   UPWARD FLUX   DIFDOWN FLUX  DIRDOWN FLUX  DOWNWARD FLUX   NET FLUX    HEATING RATE
          mb          W/m2          W/m2          W/m2        W/m2          W/m2       degree/day
  51    .06700        4.9153        0.0000       10.2033       10.2033       5.288042       0.00000
  50    .07753        4.9153        0.0000       10.2031       10.2031       5.287807       0.18901
  49    .09103        4.9153        0.0000       10.2028       10.2028       5.287512       0.18428
  48    0.1069        4.9153        0.0000       10.2025       10.2025       5.287175       0.17931
  47    0.1255        4.9153        0.0000       10.2021       10.2021       5.286791       0.17426
  46    0.1487        4.9153        0.0000       10.2016       10.2016       5.286309       0.17536
  45    0.1794        4.9153        0.0000       10.2010       10.2010       5.285659       0.17850
  44    0.2165        4.9153        0.0000       10.2002       10.2002       5.284900       0.17277
  43    0.2613        4.9153        0.0000       10.1993       10.1993       5.284014       0.16690
  42    0.3336        4.9153        0.0000       10.1979       10.1979       5.282582       0.16702
  41    0.4307        4.9153        0.0000       10.1960       10.1960       5.280741       0.16002
  40    0.5894        4.9153        0.0000       10.1932       10.1932       5.277867       0.15283
  39     1.339        4.9153        0.0000       10.1816       10.1816       5.266275       0.13051
  38     1.782        4.9153        0.0000       10.1760       10.1760       5.260746       0.10527
  37     2.292        4.9153        0.0000       10.1706       10.1706       5.255289       0.09039
  36     5.035        4.9153        0.0000       10.1630       10.1630       5.247701       0.02334
  35     6.613        4.9153        0.0000       10.1533       10.1533       5.237991       0.05191
  34     8.786        4.9153        0.0000       10.1442       10.1442       5.228894       0.03533
  33     11.80        4.9153        0.0001       10.1340       10.1341       5.218741       0.02842
  32     15.07        4.9154        0.0001       10.1237       10.1238       5.208461       0.02654
  31     18.79        4.9154        0.0001       10.1115       10.1117       5.196249       0.02769
  30     23.16        4.9155        0.0002       10.0961       10.0963       5.180768       0.02993
  29     28.12        4.9156        0.0002       10.0769       10.0771       5.161470       0.03281
  28     33.73        4.9157        0.0002       10.0536       10.0539       5.138126       0.03510
  27     40.54        4.9159        0.0003       10.0235       10.0238       5.107886       0.03752
  26     48.69        4.9162        0.0003        9.9852        9.9855       5.069266       0.03997
  25     57.69        4.9166        0.0004        9.9414        9.9418       5.025187       0.04132
  24     68.43        4.9171        0.0005        9.8884        9.8889       4.971758       0.04200
  23     81.20        4.9179        0.0006        9.8258        9.8263       4.908473       0.04182
  22     96.49        4.9189        0.0007        9.7537        9.7544       4.835516       0.04027
  21     114.6        4.9203        0.0008        9.6735        9.6743       4.754021       0.03805
  20     136.5        4.9222        0.0009        9.5870        9.5879       4.665750       0.03394
  19     162.9        4.9249        0.0011        9.4949        9.4960       4.571156       0.03024
  18     196.4        4.9290        0.0013        9.3889        9.3902       4.461205       0.02768
  17     218.7        4.9323        0.0015        9.3234        9.3249       4.392624       0.02604
  16     243.0        4.9364        0.0016        9.2524        9.2540       4.317550       0.02604
  15     269.0        4.9421        0.0018        9.1720        9.1738       4.231710       0.02785
  14     297.5        4.9499        0.0020        9.0765        9.0785       4.128622       0.03057
  13     328.5        4.9601        0.0022        8.9652        8.9674       4.007260       0.03300
  12     361.9        4.9733        0.0024        8.8351        8.8375       3.864216       0.03619
  11     398.1        4.9904        0.0026        8.6822        8.6848       3.694394       0.03956
  10     437.6        5.0126        0.0028        8.5030        8.5057       3.493108       0.04304
   9     480.5        5.0416        0.0030        8.2950        8.2980       3.256318       0.04650
   8     533.0        5.0860        0.0032        8.0210        8.0243       2.938283       0.05116
   7     589.8        5.1478        0.0035        7.7064        7.7099       2.562121       0.05583
   6     651.6        5.2397        0.0037        7.3413        7.3450       2.105326       0.06247
   5     718.7        5.3797        0.0040        6.9387        6.9427       1.562941       0.06816
   4     792.3        5.6063        0.0042        6.5066        6.5108       0.904523       0.07551
   3     825.4        2.3242        2.7484        0.0000        2.7484       0.424238       0.12259
   2     858.4        1.0241        1.3095        0.0000        1.3095       0.285431       0.03543
   1     891.5        0.0041        0.2509        0.0000        0.2509       0.246763       0.00987
   0    1013.0        0.0043        0.2404        0.0000        0.2404       0.236080       0.00074



 Wavenumbers:  5150. -  6150. cm-1, ATM      1
 LEVEL PRESSURE   UPWARD FLUX   DIFDOWN FLUX  DIRDOWN FLUX  DOWNWARD FLUX   NET FLUX    HEATING RATE
          mb          W/m2          W/m2          W/m2        W/m2          W/m2       degree/day
  51    .06700       11.7487        0.0000       25.5798       25.5798      13.831090       0.00000
  50    .07753       11.7487        0.0000       25.5798       25.5798      13.831051       0.03163
  49    .09103       11.7487        0.0000       25.5797       25.5797      13.830999       0.03211
  48    0.1069       11.7487        0.0000       25.5797       25.5797      13.830938       0.03262
  47    0.1255       11.7487        0.0000       25.5796       25.5796      13.830865       0.03312
  46    0.1487       11.7487        0.0000       25.5795       25.5795      13.830769       0.03489
  45    0.1794       11.7487        0.0000       25.5794       25.5794      13.830634       0.03714
  44    0.2165       11.7487        0.0000       25.5792       25.5792      13.830468       0.03770
  43    0.2613       11.7487        0.0000       25.5790       25.5790      13.830265       0.03828
  42    0.3336       11.7487        0.0000       25.5786       25.5786      13.829918       0.04044
  41    0.4307       11.7487        0.0000       25.5782       25.5782      13.829447       0.04098
  40    0.5894       11.7487        0.0000       25.5774       25.5774      13.828657       0.04199
  39     1.339       11.7487        0.0000       25.5735       25.5736      13.824852       0.04284
  38     1.782       11.7487        0.0001       25.5713       25.5714      13.822636       0.04219
  37     2.292       11.7487        0.0001       25.5688       25.5688      13.820128       0.04155
  36     5.035       11.7487        0.0001       25.5647       25.5648      13.816026       0.01262
  35     6.613       11.7487        0.0002       25.5576       25.5578      13.809032       0.03739
  34     8.786       11.7488        0.0002       25.5485       25.5487      13.799968       0.03520
  33     11.80       11.7488        0.0003       25.5362       25.5365      13.787706       0.03433
  32     15.07       11.7489        0.0004       25.5239       25.5243      13.775407       0.03176
  31     18.79       11.7490        0.0006       25.5110       25.5115      13.762544       0.02916
  30     23.16       11.7491        0.0007       25.4971       25.4978      13.748684       0.02680
  29     28.12       11.7492        0.0009       25.4824       25.4833      13.734064       0.02485
  28     33.73       11.7494        0.0010       25.4676       25.4686      13.719236       0.02229
  27     40.54       11.7496        0.0013       25.4514       25.4526      13.703001       0.02014
  26     48.69       11.7500        0.0015       25.4341       25.4356      13.685585       0.01802
  25     57.69       11.7504        0.0018       25.4169       25.4187      13.668265       0.01623
  24     68.43       11.7510        0.0022       25.3983       25.4005      13.649432       0.01481
  23     81.20       11.7518        0.0026       25.3779       25.3804      13.628683       0.01371
  22     96.49       11.7527        0.0031       25.3550       25.3580      13.605352       0.01288
  21     114.6       11.7538        0.0036       25.3288       25.3324      13.578600       0.01249
  20     136.5       11.7552        0.0043       25.2983       25.3027      13.547486       0.01196
  19     162.9       11.7569        0.0052       25.2537       25.2589      13.501944       0.01456
  18     196.4       11.7593        0.0062       25.1601       25.1664      13.407070       0.02388
  17     218.7       11.7610        0.0069       25.0164       25.0233      13.262253       0.05498
  16     243.0       11.7631        0.0076       24.7092       24.7169      12.953720       0.10701
  15     269.0       11.7658        0.0083       24.1621       24.1704      12.404614       0.17813
  14     297.5       11.7695        0.0090       23.4546       23.4636      11.694148       0.21072
  13     328.5       11.7742        0.0097       22.7357       22.7454      10.971167       0.19658
  12     361.9       11.7805        0.0105       21.9226       21.9331      10.152560       0.20712
  11     398.1       11.7890        0.0112       20.9941       21.0053       9.216312       0.21812
  10     437.6       11.8007        0.0119       19.9835       19.9954       8.194700       0.21843
   9     480.5       11.8169        0.0125       18.9485       18.9610       7.144127       0.20633
   8     533.0       11.8444        0.0133       17.7798       17.7930       5.948679       0.19231
   7     589.8       11.8890        0.0141       16.6727       16.6868       4.797822       0.17082
   6     651.6       11.9708        0.0149       15.6344       15.6493       3.678552       0.15306
   5     718.7       12.1213        0.0158       14.7739       14.7897       2.668348       0.12695
   4     792.3       12.4255        0.0167       14.0292       14.0460       1.620475       0.12018
   3     825.4        5.8476        6.7350        0.0001        6.7351       0.887483       0.18709
   2     858.4        2.7902        3.5106        0.0000        3.5106       0.720393       0.04265
   1     891.5        0.0573        0.7341        0.0000        0.7341       0.676815       0.01113
   0    1013.0        0.0583        0.7197        0.0000        0.7197       0.661413       0.00107



 Wavenumbers:  6150. -  7700. cm-1, ATM      1
 LEVEL PRESSURE   UPWARD FLUX   DIFDOWN FLUX  DIRDOWN FLUX  DOWNWARD FLUX   NET FLUX    HEATING RATE
          mb          W/m2          W/m2          W/m2        W/m2          W/m2       degree/day
  51    .06700       18.7605        0.0000       47.3109       47.3109      28.550333       0.00000
  50    .07753       18.7605        0.0000       47.3108       47.3108      28.550276       0.04553
  49    .09103       18.7605        0.0000       47.3107       47.3107      28.550203       0.04583
  48    0.1069       18.7605        0.0000       47.3106       47.3106      28.550116       0.04614
  47    0.1255       18.7605        0.0000       47.3105       47.3105      28.550013       0.04645
  46    0.1487       18.7605        0.0000       47.3104       47.3104      28.549880       0.04852
  45    0.1794       18.7605        0.0000       47.3102       47.3102      28.549694       0.05127
  44    0.2165       18.7605        0.0000       47.3100       47.3100      28.549466       0.05167
  43    0.2613       18.7605        0.0000       47.3097       47.3097      28.549190       0.05210
  42    0.3336       18.7605        0.0000       47.3092       47.3092      28.548721       0.05471
  41    0.4307       18.7605        0.0000       47.3085       47.3086      28.548086       0.05521
  40    0.5894       18.7605        0.0001       47.3074       47.3075      28.547026       0.05634
  39     1.339       18.7604        0.0002       47.3022       47.3024      28.541934       0.05733
  38     1.782       18.7604        0.0002       47.2991       47.2994      28.538964       0.05655
  37     2.292       18.7604        0.0003       47.2956       47.2959      28.535588       0.05591
  36     5.035       18.7603        0.0004       47.2899       47.2903      28.530013       0.01715
  35     6.613       18.7602        0.0006       47.2800       47.2806      28.520437       0.05119
  34     8.786       18.7600        0.0009       47.2670       47.2679      28.507893       0.04872
  33     11.80       18.7598        0.0013       47.2491       47.2504      28.490656       0.04826
  32     15.07       18.7595        0.0018       47.2308       47.2326      28.473031       0.04550
  31     18.79       18.7593        0.0023       47.2112       47.2134      28.454195       0.04271
  30     23.16       18.7589        0.0028       47.1895       47.1923      28.433418       0.04018
  29     28.12       18.7586        0.0035       47.1661       47.1696      28.411014       0.03809
  28     33.73       18.7581        0.0042       47.1416       47.1458      28.387674       0.03509
  27     40.54       18.7576        0.0051       47.1141       47.1192      28.361581       0.03237
  26     48.69       18.7570        0.0062       47.0837       47.0899      28.332839       0.02974
  25     57.69       18.7564        0.0074       47.0527       47.0601      28.303741       0.02728
  24     68.43       18.7556        0.0088       47.0183       47.0271      28.271498       0.02535
  23     81.20       18.7546        0.0105       46.9796       46.9901      28.235467       0.02381
  22     96.49       18.7535        0.0125       46.9356       46.9481      28.194555       0.02258
  21     114.6       18.7522        0.0149       46.8846       46.8995      28.147315       0.02206
  20     136.5       18.7507        0.0177       46.8250       46.8427      28.092046       0.02125
  19     162.9       18.7489        0.0211       46.7403       46.7615      28.012607       0.02539
  18     196.4       18.7467        0.0255       46.5732       46.5987      27.852033       0.04042
  17     218.7       18.7455        0.0283       46.3491       46.3774      27.631931       0.08356
  16     243.0       18.7446        0.0313       45.9309       45.9621      27.217555       0.14372
  15     269.0       18.7445        0.0343       45.1716       45.2058      26.461282       0.24533
  14     297.5       18.7462        0.0372       44.0121       44.0493      25.303097       0.34350
  13     328.5       18.7501        0.0402       42.7247       42.7649      24.014821       0.35028
  12     361.9       18.7574        0.0432       41.3543       41.3976      22.640201       0.34779
  11     398.1       18.7700        0.0463       39.7956       39.8419      21.071843       0.36539
  10     437.6       18.7914        0.0491       37.9951       38.0442      19.252851       0.38891
   9     480.5       18.8254        0.0519       36.0650       36.1169      17.291489       0.38520
   8     533.0       18.8894        0.0549       33.7776       33.8325      14.943068       0.37779
   7     589.8       19.0009        0.0576       31.4085       31.4661      12.465172       0.36780
   6     651.6       19.2166        0.0599       28.8836       28.9436       9.727031       0.37445
   5     718.7       19.6310        0.0620       26.4106       26.4726       6.841650       0.36261
   4     792.3       20.5221        0.0638       24.0058       24.0696       3.547531       0.37780
   3     825.4        8.7382       10.2154        0.0001       10.2155       1.477323       0.52841
   2     858.4        4.0478        5.1068        0.0000        5.1068       1.058946       0.10680
   1     891.5        0.1560        1.1074        0.0000        1.1074       0.951389       0.02746
   0    1013.0        0.1601        1.0725        0.0000        1.0725       0.912367       0.00271



 Wavenumbers:  7700. -  8050. cm-1, ATM      1
 LEVEL PRESSURE   UPWARD FLUX   DIFDOWN FLUX  DIRDOWN FLUX  DOWNWARD FLUX   NET FLUX    HEATING RATE
          mb          W/m2          W/m2          W/m2        W/m2          W/m2       degree/day
  51    .06700        8.6522        0.0000       11.1810       11.1810       2.528786       0.00000
  50    .07753        8.6522        0.0000       11.1809       11.1809       2.528762       0.01912
  49    .09103        8.6522        0.0000       11.1809       11.1809       2.528732       0.01874
  48    0.1069        8.6522        0.0000       11.1809       11.1809       2.528698       0.01834
  47    0.1255        8.6522        0.0000       11.1809       11.1809       2.528658       0.01795
  46    0.1487        8.6522        0.0000       11.1808       11.1808       2.528608       0.01822
  45    0.1794        8.6522        0.0000       11.1808       11.1808       2.528540       0.01874
  44    0.2165        8.6523        0.0000       11.1807       11.1807       2.528459       0.01839
  43    0.2613        8.6523        0.0000       11.1806       11.1806       2.528363       0.01804
  42    0.3336        8.6523        0.0000       11.1805       11.1805       2.528205       0.01846
  41    0.4307        8.6524        0.0000       11.1803       11.1804       2.527995       0.01826
  40    0.5894        8.6525        0.0000       11.1801       11.1801       2.527652       0.01824
  39     1.339        8.6529        0.0001       11.1788       11.1789       2.526029       0.01827
  38     1.782        8.6531        0.0001       11.1781       11.1782       2.525076       0.01815
  37     2.292        8.6534        0.0001       11.1772       11.1773       2.523972       0.01828
  36     5.035        8.6539        0.0002       11.1757       11.1759       2.522057       0.00589
  35     6.613        8.6547        0.0003       11.1731       11.1734       2.518656       0.01818
  34     8.786        8.6558        0.0004       11.1695       11.1699       2.514074       0.01780
  33     11.80        8.6575        0.0006       11.1644       11.1650       2.507521       0.01835
  32     15.07        8.6593        0.0008       11.1589       11.1597       2.500488       0.01816
  31     18.79        8.6613        0.0010       11.1528       11.1538       2.492550       0.01800
  30     23.16        8.6636        0.0013       11.1456       11.1469       2.483285       0.01791
  29     28.12        8.6663        0.0016       11.1374       11.1390       2.472702       0.01799
  28     33.73        8.6693        0.0020       11.1282       11.1302       2.460875       0.01778
  27     40.54        8.6730        0.0024       11.1172       11.1196       2.446611       0.01770
  26     48.69        8.6774        0.0029       11.1040       11.1069       2.429450       0.01776
  25     57.69        8.6824        0.0034       11.0896       11.0930       2.410648       0.01762
  24     68.43        8.6883        0.0041       11.0725       11.0766       2.388322       0.01755
  23     81.20        8.6953        0.0049       11.0523       11.0572       2.361819       0.01751
  22     96.49        8.7038        0.0058       11.0284       11.0342       2.330374       0.01736
  21     114.6        8.7141        0.0069       11.0004       11.0073       2.293228       0.01734
  20     136.5        8.7263        0.0082       10.9676       10.9758       2.249456       0.01683
  19     162.9        8.7411        0.0098       10.9290       10.9388       2.197672       0.01655
  18     196.4        8.7607        0.0118       10.8799       10.8917       2.131023       0.01678
  17     218.7        8.7738        0.0131       10.8482       10.8613       2.087506       0.01652
  16     243.0        8.7882        0.0146       10.8140       10.8286       2.040360       0.01635
  15     269.0        8.8042        0.0161       10.7774       10.7935       1.989358       0.01654
  14     297.5        8.8218        0.0178       10.7382       10.7560       1.934195       0.01636
  13     328.5        8.8413        0.0196       10.6962       10.7158       1.874463       0.01624
  12     361.9        8.8630        0.0216       10.6512       10.6728       1.809837       0.01635
  11     398.1        8.8871        0.0237       10.6031       10.6268       1.739670       0.01635
  10     437.6        8.9141        0.0259       10.5513       10.5773       1.663158       0.01636
   9     480.5        8.9445        0.0284       10.4956       10.5240       1.579536       0.01642
   8     533.0        8.9840        0.0313       10.4264       10.4578       1.473713       0.01702
   7     589.8        9.0302        0.0345       10.3500       10.3845       1.354299       0.01772
   6     651.6        9.0856        0.0380       10.2633       10.3013       1.215691       0.01896
   5     718.7        9.1536        0.0416       10.1637       10.2053       1.051707       0.02061
   4     792.3        9.2401        0.0455       10.0457       10.0912       0.851087       0.02301
   3     825.4        4.7327        5.3862        0.0001        5.3862       0.653499       0.05043
   2     858.4        2.4146        2.9632        0.0000        2.9632       0.548605       0.02678
   1     891.5        0.3585        0.8635        0.0000        0.8635       0.505048       0.01112
   0    1013.0        0.3653        0.8468        0.0000        0.8468       0.481486       0.00164



 Wavenumbers:  8050. - 12850. cm-1, ATM      1
 LEVEL PRESSURE   UPWARD FLUX   DIFDOWN FLUX  DIRDOWN FLUX  DOWNWARD FLUX   NET FLUX    HEATING RATE
          mb          W/m2          W/m2          W/m2        W/m2          W/m2       degree/day
  51    .06700      113.5292        0.0000      156.5418      156.5418      43.012574       0.00000
  50    .07753      113.5292        0.0000      156.5417      156.5417      43.012574      -0.00000
  49    .09103      113.5292        0.0001      156.5417      156.5417      43.012574       0.00000
  48    0.1069      113.5291        0.0001      156.5416      156.5417      43.012574       0.00000
  47    0.1255      113.5291        0.0002      156.5415      156.5417      43.012574       0.00000
  46    0.1487      113.5291        0.0002      156.5414      156.5417      43.012574      -0.00000
  45    0.1794      113.5291        0.0003      156.5413      156.5416      43.012574       0.00000
  44    0.2165      113.5290        0.0005      156.5412      156.5416      43.012574       0.00000
  43    0.2613      113.5290        0.0006      156.5410      156.5416      43.012574      -0.00000
  42    0.3336      113.5289        0.0008      156.5407      156.5415      43.012574       0.00000
  41    0.4307      113.5288        0.0011      156.5403      156.5414      43.012574      -0.00000
  40    0.5894      113.5287        0.0016      156.5397      156.5413      43.012574       0.00000
  39     1.339      113.5280        0.0038      156.5367      156.5406      43.012574      -0.00000
  38     1.782      113.5276        0.0051      156.5350      156.5401      43.012574       0.00000
  37     2.292      113.5271        0.0067      156.5330      156.5397      43.012574      -0.00000
  36     5.035      113.5263        0.0093      156.5295      156.5388      43.012574       0.00000
  35     6.613      113.5248        0.0141      156.5233      156.5373      43.012574      -0.00000
  34     8.786      113.5228        0.0204      156.5149      156.5354      43.012574       0.00000
  33     11.80      113.5199        0.0296      156.5029      156.5325      43.012574       0.00000
  32     15.07      113.5169        0.0394      156.4901      156.5294      43.012574       0.00000
  31     18.79      113.5134        0.0504      156.4755      156.5260      43.012574      -0.00000
  30     23.16      113.5093        0.0634      156.4585      156.5219      43.012574      -0.00000
  29     28.12      113.5047        0.0783      156.4390      156.5172      43.012574       0.00000
  28     33.73      113.4995        0.0949      156.4171      156.5120      43.012574       0.00000
  27     40.54      113.4932        0.1150      156.3907      156.5057      43.012574       0.00000
  26     48.69      113.4855        0.1393      156.3588      156.4981      43.012574      -0.00000
  25     57.69      113.4772        0.1660      156.3237      156.4897      43.012574      -0.00000
  24     68.43      113.4672        0.1979      156.2818      156.4798      43.012574       0.00000
  23     81.20      113.4553        0.2360      156.2319      156.4678      43.012574       0.00000
  22     96.49      113.4410        0.2814      156.1722      156.4536      43.012574      -0.00000
  21     114.6      113.4243        0.3354      156.0952      156.4306      43.006283       0.00294
  20     136.5      113.4045        0.3996      156.0034      156.4030      42.998484       0.00300
  19     162.9      113.3809        0.4762      155.8903      156.3665      42.985560       0.00413
  18     196.4      113.3505        0.5758      155.7272      156.3030      42.952512       0.00832
  17     218.7      113.3309        0.6413      155.5805      156.2218      42.890928       0.02338
  16     243.0      113.3109        0.7125      155.3439      156.0564      42.745481       0.05045
  15     269.0      113.2923        0.7895      154.9586      155.7482      42.455850       0.09395
  14     297.5      113.2781        0.8725      154.3968      155.2693      41.991196       0.13781
  13     328.5      113.2703        0.9620      153.7223      154.6843      41.413952       0.15695
  12     361.9      113.2730        1.0581      152.9159      153.9740      40.700940       0.18040
  11     398.1      113.2931        1.1609      151.9057      153.0666      39.773511       0.21607
  10     437.6      113.3423        1.2703      150.6102      151.8805      38.538186       0.26412
   9     480.5      113.4351        1.3861      149.0084      150.3945      36.959397       0.31007
   8     533.0      113.6252        1.5262      146.7445      148.2707      34.645478       0.37224
   7     589.8      113.9720        1.6732      143.8798      145.5530      31.580993       0.45487
   6     651.6      114.6507        1.8241      140.1022      141.9263      27.275543       0.58878
   5     718.7      115.9243        1.9773      135.5343      137.5116      21.587349       0.71485
   4     792.3      118.4643        2.1291      130.0753      132.2044      13.740098       0.89999
   3     825.4       60.8856       68.3146        0.0008       68.3155       7.429882       1.61065
   2     858.4       36.3133       41.9432        0.0000       41.9432       5.629857       0.45949
   1     891.5       15.7577       20.7323        0.0000       20.7323       4.974660       0.16730
   0    1013.0       15.9942       20.3851        0.0000       20.3851       4.390951       0.04053



 Wavenumbers: 12850. - 16000. cm-1, ATM      1
 LEVEL PRESSURE   UPWARD FLUX   DIFDOWN FLUX  DIRDOWN FLUX  DOWNWARD FLUX   NET FLUX    HEATING RATE
          mb          W/m2          W/m2          W/m2        W/m2          W/m2       degree/day
  51    .06700       82.1643        0.0000       98.0872       98.0872      15.922950       0.00000
  50    .07753       82.1643        0.0001       98.0864       98.0864      15.922157       0.63569
  49    .09103       82.1643        0.0002       98.0853       98.0855      15.921161       0.62278
  48    0.1069       82.1643        0.0003       98.0841       98.0843      15.920015       0.60965
  47    0.1255       82.1643        0.0004       98.0826       98.0830      15.918699       0.59683
  46    0.1487       82.1644        0.0005       98.0809       98.0814      15.917037       0.60595
  45    0.1794       82.1644        0.0007       98.0784       98.0792      15.914774       0.62116
  44    0.2165       82.1645        0.0010       98.0756       98.0766      15.912111       0.60588
  43    0.2613       82.1646        0.0013       98.0723       98.0736      15.908976       0.59085
  42    0.3336       82.1649        0.0017       98.0670       98.0688      15.903855       0.59704
  41    0.4307       82.1653        0.0024       98.0602       98.0626      15.897226       0.57641
  40    0.5894       82.1662        0.0034       98.0496       98.0530      15.886762       0.55642
  39     1.339       82.1736        0.0083       98.0043       98.0126      15.839079       0.53683
  38     1.782       82.1802        0.0112       97.9793       97.9904      15.810276       0.54837
  37     2.292       82.1900        0.0145       97.9498       97.9643      15.774281       0.59617
  36     5.035       82.2160        0.0202       97.8891       97.9094      15.693373       0.24893
  35     6.613       82.2705        0.0304       97.7746       97.8050      15.534514       0.84926
  34     8.786       82.3416        0.0442       97.6278       97.6720      15.330401       0.79270
  33     11.80       82.4342        0.0638       97.4339       97.4977      15.063534       0.74714
  32     15.07       82.5230        0.0849       97.2433       97.3282      14.805165       0.66706
  31     18.79       82.6139        0.1087       97.0439       97.1526      14.538632       0.60431
  30     23.16       82.7092        0.1365       96.8292       96.9656      14.256488       0.54558
  29     28.12       82.8053        0.1682       96.6048       96.7730      13.967709       0.49091
  28     33.73       82.8946        0.2037       96.3831       96.5868      13.692197       0.41424
  27     40.54       82.9813        0.2466       96.1494       96.3959      13.414627       0.34436
  26     48.69       83.0653        0.2983       95.9016       96.1999      13.134630       0.28975
  25     57.69       83.1377        0.3551       95.6629       96.0180      12.880341       0.23836
  24     68.43       83.2024        0.4228       95.4149       95.8377      12.635270       0.19266
  23     81.20       83.2501        0.5036       95.1674       95.6709      12.420841       0.14169
  22     96.49       83.2797        0.5999       94.9172       95.5171      12.237441       0.10122
  21     114.6       83.3130        0.7154       94.6421       95.3575      12.044548       0.09007
  20     136.5       83.3409        0.8523       94.3324       95.1847      11.843780       0.07720
  19     162.9       83.3637        1.0153       93.9750       94.9903      11.626631       0.06941
  18     196.4       83.3708        1.2267       93.5336       94.7604      11.389509       0.05969
  17     218.7       83.3677        1.3656       93.2498       94.6154      11.247642       0.05386
  16     243.0       83.3613        1.5165       92.9420       94.4585      11.097177       0.05219
  15     269.0       83.3517        1.6800       92.6087       94.2887      10.936984       0.05197
  14     297.5       83.3399        1.8568       92.2464       94.1032      10.763367       0.05149
  13     328.5       83.3281        2.0478       91.8517       93.8995      10.571376       0.05220
  12     361.9       83.3178        2.2533       91.4219       93.6752      10.357379       0.05414
  11     398.1       83.3111        2.4746       90.9524       93.4270      10.115874       0.05627
  10     437.6       83.3120        2.7120       90.4358       93.1478       9.835865       0.05987
   9     480.5       83.3245        2.9663       89.8659       92.8322       9.507714       0.06445
   8     533.0       83.3619        3.2789       89.1347       92.4136       9.051712       0.07336
   7     589.8       83.4426        3.6148       88.2943       91.9091       8.466498       0.08687
   6     651.6       83.6107        3.9735       87.2867       91.2602       7.649511       0.11173
   5     718.7       83.9014        4.3536       86.1028       90.4564       6.555014       0.13755
   4     792.3       84.4184        4.7512       84.6812       89.4323       5.013985       0.17674
   3     825.4       54.8696       58.3641        0.0006       58.3647       3.495096       0.38769
   2     858.4       42.8420       45.6313        0.0000       45.6313       2.789318       0.18016
   1     891.5       32.7873       35.1844        0.0000       35.1844       2.397091       0.10015
   0    1013.0       33.0102       34.9203        0.0000       34.9203       1.910143       0.03381



 Wavenumbers: 16000. - 22650. cm-1, ATM      1
 LEVEL PRESSURE   UPWARD FLUX   DIFDOWN FLUX  DIRDOWN FLUX  DOWNWARD FLUX   NET FLUX    HEATING RATE
          mb          W/m2          W/m2          W/m2        W/m2          W/m2       degree/day
  51    .06700      140.6544        0.0000      156.3892      156.3892      15.734897       0.00000
  50    .07753      140.6543        0.0004      156.3887      156.3891      15.734750       0.11827
  49    .09103      140.6543        0.0009      156.3879      156.3888      15.734535       0.13415
  48    0.1069      140.6543        0.0015      156.3871      156.3885      15.734248       0.15297
  47    0.1255      140.6543        0.0021      156.3861      156.3882      15.733863       0.17437
  46    0.1487      140.6544        0.0030      156.3847      156.3877      15.733296       0.20662
  45    0.1794      140.6545        0.0041      156.3828      156.3869      15.732410       0.24329
  44    0.2165      140.6547        0.0054      156.3805      156.3859      15.731208       0.27343
  43    0.2613      140.6551        0.0070      156.3776      156.3846      15.729577       0.30740
  42    0.3336      140.6558        0.0096      156.3726      156.3823      15.726477       0.36149
  41    0.4307      140.6570        0.0131      156.3657      156.3788      15.721803       0.40636
  40    0.5894      140.6596        0.0188      156.3537      156.3725      15.712890       0.47400
  39     1.339      140.6822        0.0458      156.2834      156.3292      15.647037       0.74138
  38     1.782      140.7030        0.0616      156.2324      156.2940      15.590939       1.06802
  37     2.292      140.7343        0.0799      156.1641      156.2440      15.509736       1.34493
  36     5.035      140.8183        0.1117      156.0076      156.1193      15.300965       0.64233
  35     6.613      140.9951        0.1680      155.6950      155.8630      14.867958       2.31486
  34     8.786      141.2253        0.2438      155.2860      155.5298      14.304522       2.18818
  33     11.80      141.5249        0.3521      154.7422      155.0943      13.569393       2.05813
  32     15.07      141.8119        0.4682      154.2059      154.6741      12.862231       1.82575
  31     18.79      142.1049        0.5991      153.6432      154.2423      12.137465       1.64327
  30     23.16      142.4110        0.7518      153.0352      153.7869      11.375932       1.47256
  29     28.12      142.7190        0.9261      152.3965      153.3226      10.603622       1.31287
  28     33.73      143.0031        1.1209      151.7604      152.8813       9.878202       1.09069
  27     40.54      143.2764        1.3561      151.0815      152.4376       9.161237       0.88948
  26     48.69      143.5378        1.6392      150.3500      151.9892       8.451441       0.73453
  25     57.69      143.7592        1.9499      149.6296      151.5795       7.820370       0.59153
  24     68.43      143.9519        2.3195      148.8604      151.1799       7.227970       0.46571
  23     81.20      144.0843        2.7594      148.0628      150.8222       6.737925       0.32381
  22     96.49      144.1518        3.2832      147.2220      150.5052       6.353369       0.21225
  21     114.6      144.1856        3.9032      146.2838      150.1870       6.001397       0.16435
  20     136.5      144.1943        4.6352      145.2142      149.8494       5.655153       0.13314
  19     162.9      144.1762        5.5029      143.9816      149.4845       5.308323       0.11086
  18     196.4      144.0912        6.6224      142.4652      149.0876       4.996391       0.07852
  17     218.7      144.0129        7.3540      141.5017      148.8556       4.842714       0.05835
  16     243.0      143.9175        8.1457      140.4717      148.6174       4.699967       0.04951
  15     269.0      143.8034        8.9999      139.3740      148.3739       4.570541       0.04199
  14     297.5      143.6699        9.9185      138.2062      148.1247       4.454786       0.03433
  13     328.5      143.5212       10.9058      136.9574      147.8632       4.342052       0.03065
  12     361.9      143.3569       11.9628      135.6265      147.5893       4.232451       0.02773
  11     398.1      143.1766       13.0935      134.2081      147.3016       4.125045       0.02502
  10     437.6      142.9813       14.2998      132.6981      146.9979       4.016619       0.02318
   9     480.5      142.7707       15.5839      131.0935      146.6775       3.906809       0.02157
   8     533.0      142.5120       17.1523      129.1351      146.2874       3.775468       0.02113
   7     589.8      142.2378       18.8280      127.0392      145.8672       3.629396       0.02168
   6     651.6      141.9553       20.6126      124.7944      145.4070       3.451729       0.02430
   5     718.7      141.6714       22.5078      122.3908      144.8986       3.227225       0.02821
   4     792.3      141.4045       24.5114      119.8121      144.3236       2.919057       0.03534
   3     825.4      111.5071      114.0292        0.0008      114.0300       2.522875       0.10112
   2     858.4      102.1871      104.4267        0.0000      104.4267       2.239541       0.07233
   1     891.5       93.8368       95.8516        0.0000       95.8516       2.014776       0.05739
   0    1013.0       93.9684       95.6713        0.0000       95.6713       1.702950       0.02165



 Wavenumbers: 22650. - 29000. cm-1, ATM      1
 LEVEL PRESSURE   UPWARD FLUX   DIFDOWN FLUX  DIRDOWN FLUX  DOWNWARD FLUX   NET FLUX    HEATING RATE
          mb          W/m2          W/m2          W/m2        W/m2          W/m2       degree/day
  51    .06700       58.5479        0.0000       59.0156       59.0156       0.467737       0.00000
  50    .07753       58.5478        0.0005       59.0151       59.0155       0.467737      -0.00000
  49    .09103       58.5477        0.0010       59.0144       59.0154       0.467737      -0.00000
  48    0.1069       58.5475        0.0017       59.0136       59.0153       0.467737       0.00000
  47    0.1255       58.5474        0.0025       59.0127       59.0151       0.467737       0.00000
  46    0.1487       58.5472        0.0034       59.0115       59.0149       0.467737      -0.00000
  45    0.1794       58.5469        0.0048       59.0099       59.0147       0.467737       0.00000
  44    0.2165       58.5466        0.0063       59.0080       59.0144       0.467737       0.00000
  43    0.2613       58.5463        0.0082       59.0058       59.0140       0.467737       0.00000
  42    0.3336       58.5457        0.0113       59.0022       59.0134       0.467737      -0.00000
  41    0.4307       58.5449        0.0153       58.9973       59.0126       0.467737      -0.00000
  40    0.5894       58.5436        0.0220       58.9894       59.0114       0.467737       0.00000
  39     1.339       58.5375        0.0535       58.9518       59.0053       0.467737       0.00000
  38     1.782       58.5339        0.0720       58.9297       59.0017       0.467737      -0.00000
  37     2.292       58.5298        0.0934       58.9042       58.9975       0.467737       0.00000
  36     5.035       58.5226        0.1305       58.8599       58.9903       0.467737      -0.00000
  35     6.613       58.5099        0.1963       58.7812       58.9776       0.467737      -0.00000
  34     8.786       58.4927        0.2850       58.6754       58.9604       0.467737       0.00000
  33     11.80       58.4682        0.4117       58.5242       58.9359       0.467737       0.00000
  32     15.07       58.4419        0.5475       58.3621       58.9096       0.467737      -0.00000
  31     18.79       58.4122        0.7006       58.1794       58.8799       0.467737       0.00000
  30     23.16       58.3777        0.8789       57.9665       58.8454       0.467737       0.00000
  29     28.12       58.3383        1.0823       57.7237       58.8060       0.467737       0.00000
  28     33.73       58.2943        1.3091       57.4530       58.7621       0.467737       0.00000
  27     40.54       58.2415        1.5820       57.1272       58.7092       0.467737       0.00000
  26     48.69       58.1781        1.9092       56.7366       58.6458       0.467737       0.00000
  25     57.69       58.1088        2.2665       56.3100       58.5766       0.467737       0.00000
  24     68.43       58.0269        2.6890       55.8057       58.4947       0.467737      -0.00000
  23     81.20       57.9302        3.1879       55.2100       58.3979       0.467737       0.00000
  22     96.49       57.8161        3.7762       54.5077       58.2839       0.467737       0.00000
  21     114.6       57.6824        4.4656       53.6845       58.1501       0.467737       0.00000
  20     136.5       57.5262        5.2703       52.7236       57.9940       0.467737       0.00000
  19     162.9       57.3436        6.2110       51.6003       57.8113       0.467737      -0.00000
  18     196.4       57.1120        7.4027       50.1770       57.5798       0.467737      -0.00000
  17     218.7       56.9632        8.1686       49.2623       57.4309       0.467737      -0.00000
  16     243.0       56.8041        8.9862       48.2857       57.2719       0.467737       0.00000
  15     269.0       56.6350        9.8552       47.2476       57.1028       0.467737       0.00000
  14     297.5       56.4560       10.7746       46.1491       56.9237       0.467737       0.00000
  13     328.5       56.2667       11.7460       44.9884       56.7344       0.467737       0.00000
  12     361.9       56.0677       12.7667       43.7687       56.5354       0.467737      -0.00000
  11     398.1       55.8588       13.8368       42.4898       56.3266       0.467737       0.00000
  10     437.6       55.6405       14.9541       41.1542       56.1083       0.467737       0.00000
   9     480.5       55.4133       16.1163       39.7647       55.8810       0.467737       0.00000
   8     533.0       55.1426       17.4985       38.1118       55.6103       0.467737      -0.00000
   7     589.8       54.8616       18.9315       36.3978       55.3293       0.467737       0.00000
   6     651.6       54.5715       20.4079       34.6314       55.0393       0.467737       0.00000
   5     718.7       54.2735       21.9221       32.8192       54.7412       0.467737      -0.00000
   4     792.3       53.9691       23.4653       30.9715       54.4368       0.467737       0.00000
   3     825.4       47.1240       47.5905        0.0002       47.5907       0.466682       0.00027
   2     858.4       45.2581       45.7238        0.0000       45.7238       0.465698       0.00025
   1     891.5       43.3961       43.8608        0.0000       43.8608       0.464753       0.00024
   0    1013.0       43.3799       43.8446        0.0000       43.8446       0.464753      -0.00000



 Wavenumbers: 29000. - 38000. cm-1, ATM      1
 LEVEL PRESSURE   UPWARD FLUX   DIFDOWN FLUX  DIRDOWN FLUX  DOWNWARD FLUX   NET FLUX    HEATING RATE
          mb          W/m2          W/m2          W/m2        W/m2          W/m2       degree/day
  51    .06700        8.8183        0.0000       20.8114       20.8114      11.993076       0.00000
  50    .07753        8.8181        0.0003       20.8070       20.8074      11.989268       3.05181
  49    .09103        8.8179        0.0007       20.8009       20.8016      11.983731       3.46115
  48    0.1069        8.8176        0.0012       20.7928       20.7939      11.976320       3.94464
  47    0.1255        8.8173        0.0017       20.7820       20.7837      11.966414       4.49074
  46    0.1487        8.8170        0.0024       20.7665       20.7688      11.951850       5.30892
  45    0.1794        8.8165        0.0033       20.7424       20.7457      11.929183       6.22261
  44    0.2165        8.8160        0.0044       20.7103       20.7147      11.898657       6.94405
  43    0.2613        8.8155        0.0056       20.6675       20.6731      11.857659       7.72807
  42    0.3336        8.8146        0.0077       20.5880       20.5957      11.781090       8.92714
  41    0.4307        8.8135        0.0104       20.4722       20.4826      11.669126       9.73503
  40    0.5894        8.8120        0.0147       20.2637       20.2784      11.466420      10.77966
  39     1.339        8.8088        0.0332       19.0984       19.1315      10.322775      12.87537
  38     1.782        8.8094        0.0428       18.4394       18.4821       9.672711      12.37616
  37     2.292        8.8123        0.0531       17.7714       17.8245       9.012175      10.94020
  36     5.035        8.8253        0.0693       16.7265       16.7957       7.970469       3.20505
  35     6.613        8.8556        0.0965       15.5186       15.6151       6.759432       6.47421
  34     8.786        8.8962        0.1319       14.5590       14.6908       5.794601       3.74705
  33     11.80        8.9495        0.1807       13.7000       13.8807       4.931182       2.41730
  32     15.07        9.0011        0.2309       13.0749       13.3059       4.304743       1.61734
  31     18.79        9.0546        0.2864       12.5486       12.8350       3.780362       1.18893
  30     23.16        9.1115        0.3492       12.0732       12.4224       3.310912       0.90777
  29     28.12        9.1699        0.4195       11.6423       12.0618       2.891837       0.71240
  28     33.73        9.2240        0.4967       11.2628       11.7595       2.535521       0.53573
  27     40.54        9.2753        0.5888       10.8969       11.4857       2.210388       0.40336
  26     48.69        9.3238        0.6980       10.5353       11.2333       1.909446       0.31143
  25     57.69        9.3638        0.8161       10.2040       11.0201       1.656365       0.23723
  24     68.43        9.3961        0.9545        9.8713       10.8258       1.429692       0.17819
  23     81.20        9.4117        1.1179        9.5431       10.6610       1.249249       0.11923
  22     96.49        9.4085        1.3098        9.2107       10.5205       1.112060       0.07572
  21     114.6        9.3947        1.5315        8.8533       10.3848       0.990064       0.05696
  20     136.5        9.3736        1.7849        8.4618       10.2467       0.873117       0.04497
  19     162.9        9.3451        2.0736        8.0302       10.1038       0.758706       0.03657
  18     196.4        9.2970        2.4311        7.5240        9.9551       0.658087       0.02533
  17     218.7        9.2623        2.6559        7.2154        9.8714       0.609049       0.01862
  16     243.0        9.2243        2.8909        6.8972        9.7881       0.563792       0.01570
  15     269.0        9.1827        3.1352        6.5707        9.7058       0.523176       0.01318
  14     297.5        9.1376        3.3876        6.2374        9.6250       0.487390       0.01061
  13     328.5        9.0905        3.6473        5.8964        9.5437       0.453145       0.00931
  12     361.9        9.0419        3.9116        5.5509        9.4625       0.420593       0.00824
  11     398.1        8.9918        4.1800        5.2016        9.3816       0.389761       0.00718
  10     437.6        8.9409        4.4509        4.8500        9.3009       0.360054       0.00635
   9     480.5        8.8894        4.7223        4.4990        9.2212       0.331871       0.00554
   8     533.0        8.8302        5.0315        4.0999        9.1314       0.301165       0.00494
   7     589.8        8.7719        5.3363        3.7070        9.0433       0.271452       0.00441
   6     651.6        8.7152        5.6328        3.3248        8.9576       0.242399       0.00397
   5     718.7        8.6607        5.9195        2.9551        8.8746       0.213960       0.00357
   4     792.3        8.6092        6.1930        2.6023        8.7953       0.186139       0.00319
   3     825.4        7.5077        7.6638        0.0000        7.6638       0.156063       0.00768
   2     858.4        6.9427        7.0735        0.0000        7.0735       0.130853       0.00644
   1     891.5        6.4708        6.5798        0.0000        6.5798       0.108921       0.00560
   0    1013.0        6.4751        6.5611        0.0000        6.5611       0.085950       0.00159



 Wavenumbers: 38000. - 50000. cm-1, ATM      1
 LEVEL PRESSURE   UPWARD FLUX   DIFDOWN FLUX  DIRDOWN FLUX  DOWNWARD FLUX   NET FLUX    HEATING RATE
          mb          W/m2          W/m2          W/m2        W/m2          W/m2       degree/day
  51    .06700        0.0061        0.0000        1.2836        1.2836       1.277566       0.00000
  50    .07753        0.0060        0.0001        1.2812        1.2812       1.275231       1.87147
  49    .09103        0.0059        0.0002        1.2777        1.2778       1.271899       2.08243
  48    0.1069        0.0058        0.0002        1.2731        1.2734       1.267521       2.33056
  47    0.1255        0.0058        0.0004        1.2672        1.2675       1.261766       2.60905
  46    0.1487        0.0056        0.0005        1.2586        1.2591       1.253440       3.03495
  45    0.1794        0.0055        0.0007        1.2455        1.2462       1.240672       3.50516
  44    0.2165        0.0053        0.0009        1.2282        1.2291       1.223746       3.85033
  43    0.2613        0.0051        0.0011        1.2054        1.2065       1.201398       4.21256
  42    0.3336        0.0048        0.0015        1.1639        1.1654       1.160574       4.75965
  41    0.4307        0.0044        0.0020        1.1051        1.1070       1.102615       5.03937
  40    0.5894        0.0039        0.0026        1.0039        1.0064       1.002575       5.32000
  39     1.339        0.0022        0.0035        0.5438        0.5473       0.545166       5.14960
  38     1.782        0.0016        0.0032        0.3635        0.3666       0.365077       3.42860
  37     2.292        0.0011        0.0027        0.2356        0.2383       0.237147       2.11885
  36     5.035        0.0007        0.0019        0.1180        0.1199       0.119172       0.36298
  35     6.613        0.0004        0.0013        0.0504        0.0516       0.051220       0.36327
  34     8.786        0.0002        0.0009        0.0239        0.0248       0.024556       0.10355
  33     11.80        0.0001        0.0006        0.0105        0.0110       0.010913       0.03820
  32     15.07        0.0001        0.0004        0.0048        0.0052       0.005151       0.01488
  31     18.79        0.0000        0.0002        0.0022        0.0024       0.002406       0.00622
  30     23.16        0.0000        0.0001        0.0010        0.0011       0.001079       0.00257
  29     28.12        0.0000        0.0001        0.0004        0.0005       0.000469       0.00104
  28     33.73        0.0000        0.0000        0.0002        0.0002       0.000205       0.00040
  27     40.54        0.0000        0.0000        0.0001        0.0001       0.000083       0.00015
  26     48.69        0.0000        0.0000        0.0000        0.0000       0.000031       0.00005
  25     57.69        0.0000        0.0000        0.0000        0.0000       0.000011       0.00002
  24     68.43        0.0000        0.0000        0.0000        0.0000       0.000004       0.00001
  23     81.20        0.0000        0.0000        0.0000        0.0000       0.000001       0.00000
  22     96.49        0.0000        0.0000        0.0000        0.0000       0.000000       0.00000
  21     114.6        0.0000        0.0000        0.0000        0.0000       0.000000       0.00000
  20     136.5        0.0000        0.0000        0.0000        0.0000       0.000000       0.00000
  19     162.9        0.0000        0.0000        0.0000        0.0000       0.000000       0.00000
  18     196.4        0.0000        0.0000        0.0000        0.0000       0.000000       0.00000
  17     218.7        0.0000        0.0000        0.0000        0.0000       0.000000       0.00000
  16     243.0        0.0000        0.0000        0.0000        0.0000       0.000000       0.00000
  15     269.0        0.0000        0.0000        0.0000        0.0000       0.000000       0.00000
  14     297.5        0.0000        0.0000        0.0000        0.0000       0.000000       0.00000
  13     328.5        0.0000        0.0000        0.0000        0.0000       0.000000       0.00000
  12     361.9        0.0000        0.0000        0.0000        0.0000       0.000000       0.00000
  11     398.1        0.0000        0.0000        0.0000        0.0000       0.000000       0.00000
  10     437.6        0.0000        0.0000        0.0000        0.0000       0.000000       0.00000
   9     480.5        0.0000        0.0000        0.0000        0.0000       0.000000       0.00000
   8     533.0        0.0000        0.0000        0.0000        0.0000       0.000000       0.00000
   7     589.8        0.0000        0.0000        0.0000        0.0000       0.000000       0.00000
   6     651.6        0.0000        0.0000        0.0000        0.0000       0.000000       0.00000
   5     718.7        0.0000        0.0000        0.0000        0.0000       0.000000       0.00000
   4     792.3        0.0000        0.0000        0.0000        0.0000       0.000000       0.00000
   3     825.4        0.0000        0.0000        0.0000        0.0000       0.000000       0.00000
   2     858.4        0.0000        0.0000        0.0000        0.0000       0.000000       0.00000
   1     891.5        0.0000        0.0000        0.0000        0.0000       0.000000       0.00000
   0    1013.0        0.0000        0.0000        0.0000        0.0000       0.000000       0.00000



 Wavenumbers:   820. -  2600. cm-1, ATM      1
 LEVEL PRESSURE   UPWARD FLUX   DIFDOWN FLUX  DIRDOWN FLUX  DOWNWARD FLUX   NET FLUX    HEATING RATE
          mb          W/m2          W/m2          W/m2        W/m2          W/m2       degree/day
  51    .06700        1.6076        0.0000        6.0047        6.0047       4.397066       0.00000
  50    .07753        1.6076        0.0000        6.0008        6.0008       4.393213       3.08825
  49    .09103        1.6076        0.0000        5.9999        5.9999       4.392327       0.55362
  48    0.1069        1.6076        0.0000        5.9989        5.9989       4.391338       0.52656
  47    0.1255        1.6076        0.0000        5.9978        5.9978       4.390221       0.50654
  46    0.1487        1.6076        0.0000        5.9964        5.9964       4.388864       0.49461
  45    0.1794        1.6076        0.0000        5.9947        5.9947       4.387144       0.47205
  44    0.2165        1.6076        0.0000        5.9929        5.9929       4.385302       0.41915
  43    0.2613        1.6076        0.0000        5.9909        5.9909       4.383342       0.36938
  42    0.3336        1.6076        0.0000        5.9880        5.9880       4.380464       0.33561
  41    0.4307        1.6076        0.0000        5.9846        5.9846       4.376994       0.30170
  40    0.5894        1.6076        0.0000        5.9791        5.9791       4.371488       0.29282
  39     1.339        1.6076        0.0000        5.9536        5.9536       4.345995       0.28700
  38     1.782        1.6076        0.0000        5.9395        5.9395       4.331854       0.26923
  37     2.292        1.6076        0.0000        5.9237        5.9237       4.316099       0.26094
  36     5.035        1.6076        0.0000        5.8954        5.8954       4.287825       0.08699
  35     6.613        1.6076        0.0000        5.8469        5.8469       4.239316       0.25933
  34     8.786        1.6077        0.0000        5.7915        5.7915       4.183868       0.21534
  33     11.80        1.6077        0.0000        5.7245        5.7245       4.116790       0.18780
  32     15.07        1.6077        0.0000        5.6684        5.6684       4.060736       0.14472
  31     18.79        1.6077        0.0000        5.6231        5.6231       4.015311       0.10299
  30     23.16        1.6078        0.0000        5.5871        5.5871       3.979309       0.06962
  29     28.12        1.6078        0.0000        5.5583        5.5583       3.950460       0.04904
  28     33.73        1.6079        0.0000        5.5327        5.5328       3.924861       0.03849
  27     40.54        1.6080        0.0000        5.5051        5.5051       3.897116       0.03442
  26     48.69        1.6080        0.0000        5.4733        5.4733       3.865308       0.03292
  25     57.69        1.6081        0.0000        5.4393        5.4394       3.831240       0.03193
  24     68.43        1.6082        0.0000        5.3998        5.3999       3.791637       0.03113
  23     81.20        1.6083        0.0000        5.3545        5.3546       3.746220       0.03001
  22     96.49        1.6085        0.0000        5.3027        5.3028       3.694259       0.02868
  21     114.6        1.6087        0.0000        5.2431        5.2431       3.634414       0.02794
  20     136.5        1.6089        0.0000        5.1754        5.1755       3.566547       0.02610
  19     162.9        1.6093        0.0000        5.0924        5.0924       3.483136       0.02666
  18     196.4        1.6098        0.0000        4.9695        4.9695       3.359691       0.03107
  17     218.7        1.6104        0.0000        4.8606        4.8606       3.250230       0.04156
  16     243.0        1.6113        0.0000        4.7093        4.7093       3.098041       0.05278
  15     269.0        1.6126        0.0000        4.5352        4.5352       2.922546       0.05693
  14     297.5        1.6148        0.0000        4.3425        4.3426       2.727785       0.05776
  13     328.5        1.6177        0.0000        4.1286        4.1286       2.510966       0.05895
  12     361.9        1.6215        0.0000        3.8790        3.8791       2.257573       0.06411
  11     398.1        1.6265        0.0000        3.6162        3.6163       1.989789       0.06239
  10     437.6        1.6329        0.0000        3.3761        3.3761       1.743215       0.05272
   9     480.5        1.6408        0.0000        3.1959        3.1960       1.555175       0.03693
   8     533.0        1.6528        0.0000        3.0468        3.0468       1.394085       0.02591
   7     589.8        1.6705        0.0001        2.9024        2.9024       1.231987       0.02406
   6     651.6        1.7013        0.0001        2.7184        2.7185       1.017201       0.02937
   5     718.7        1.7548        0.0001        2.5059        2.5059       0.751124       0.03344
   4     792.3        1.8590        0.0001        2.2757        2.2757       0.416776       0.03835
   3     825.4        0.5990        0.7493        0.0000        0.7493       0.150355       0.06800
   2     858.4        0.2192        0.2910        0.0000        0.2910       0.071855       0.02004
   1     891.5        0.0003        0.0496        0.0000        0.0496       0.049310       0.00576
   0    1013.0        0.0003        0.0422        0.0000        0.0422       0.041937       0.00051

  Modules and versions used in this calculation:

       rrtmg_sw.1col.f90:  $Revision$                    rrtmg_sw_init.f90:  $Revision$        
     rrtmgsw_cldprop.f90:  $Revision$                  rrtmgsw_cldprmc.f90:  NOT USED          
     rrtmg_sw_reftra.f90:  $Revision$                  rrtmg_sw_spcvrt.f90:  NOT USED          
     rrtmg_sw_spcvmc.f90:  NOT USED                    rrtmgsw_setcoef.f90:  NOT USED          
     rrtmg_sw_taumol.f90:  $Revision$                  rrtmg_sw_vrtqdr.f90:  NOT USED          
                rrtatm.f:  NOT USED                             util_xxx.f:  NOT USED          
                 extra.f:  NOT USED                       rrtmg_sw_k_g.f90:  $Revision$        

