

 Wavenumbers:   820. - 50000. cm-1, ATM      1
 LEVEL PRESSURE   UPWARD FLUX   DIFDOWN FLUX  DIRDOWN FLUX  DOWNWARD FLUX   NET FLUX    HEATING RATE
          mb          W/m2          W/m2          W/m2        W/m2          W/m2       degree/day
  51    .06700      455.0422        0.0000      617.8126      617.8126     162.770383       0.00000
  50    .07753      455.0418        0.0014      617.7947      617.7961     162.754240      12.93923
  49    .09103      455.0414        0.0030      617.7778      617.7808     162.739426       9.25929
  48    0.1069      455.0409        0.0050      617.7581      617.7631     162.722159       9.19131
  47    0.1255      455.0404        0.0072      617.7340      617.7412     162.700807       9.67979
  46    0.1487      455.0398        0.0101      617.7009      617.7109     162.671112      10.82421
  45    0.1794      455.0391        0.0139      617.6521      617.6660     162.626867      12.14632
  44    0.2165      455.0384        0.0185      617.5895      617.6079     162.569527      13.04375
  43    0.2613      455.0377        0.0238      617.5089      617.5327     162.494991      14.04981
  42    0.3336      455.0369        0.0327      617.3641      617.3968     162.359862      15.75465
  41    0.4307      455.0363        0.0443      617.1591      617.2035     162.167175      16.75368
  40    0.5894      455.0362        0.0631      616.8005      616.8636     161.827367      18.07056
  39     1.339      455.0544        0.1481      614.9443      615.0924     160.037964      20.14543
  38     1.782      455.0779        0.1959      613.9670      614.1629     159.085072      18.14153
  37     2.292      455.1166        0.2503      613.0059      613.2562     158.139582      15.65978
  36     5.035      455.2308        0.3431      611.5124      611.8556     156.624742       4.66076
  35     6.613      455.4771        0.5069      609.6144      610.1213     154.644215      10.58790
  34     8.786      455.7985        0.7266      607.8253      608.5519     152.753411       7.34320
  33     11.80      456.2152        1.0390      605.8783      606.9173     150.702175       5.74281
  32     15.07      456.6120        1.3720      604.1777      605.5497     148.937715       4.55549
  31     18.79      457.0151        1.7463      602.5196      604.2659     147.250816       3.82472
  30     23.16      457.4338        2.1811      600.8127      602.9937     145.559966       3.26956
  29     28.12      457.8514        2.6757      599.0712      601.7469     143.895439       2.82959
  28     33.73      458.2293        3.2270      597.3500      600.5770     142.347671       2.32711
  27     40.54      458.5816        3.8905      595.5035      599.3940     140.812367       1.90472
  26     48.69      458.9053        4.6865      593.4958      598.1823     139.276978       1.58889
  25     57.69      459.1629        5.5565      591.4872      597.0438     137.880894       1.30862
  24     68.43      459.3633        6.5871      589.2939      595.8810     136.517738       1.07162
  23     81.20      459.4541        7.8088      586.9289      594.7377     135.283620       0.81549
  22     96.49      459.4253        9.2552      584.3423      593.5975     134.172233       0.61341
  21     114.6      459.3353       10.9567      581.4033      592.3599     133.024647       0.53584
  20     136.5      459.1841       12.9488      578.0541      591.0029     131.818828       0.46367
  19     162.9      458.9665       15.2866      574.1654      589.4520     130.485537       0.42617
  18     196.4      458.5972       18.2677      569.1760      587.4437     128.846585       0.41254
  17     218.7      458.3269       20.1951      565.6314      585.8265     127.499638       0.51139
  16     243.0      458.0264       22.2624      561.3129      583.5753     125.548944       0.67657
  15     269.0      457.6976       24.4708      555.9478      580.4187     122.721077       0.91735
  14     297.5      457.3474       26.8212      549.5394      576.3606     119.013237       1.09970
  13     328.5      456.9865       29.3199      542.6225      571.9424     114.955893       1.10318
  12     361.9      456.6242       31.9631      535.1469      567.1100     110.485828       1.13097
  11     398.1      456.2736       34.7554      526.9326      561.6881     105.414423       1.18152
  10     437.6      455.9603       37.6955      517.8921      555.5876      99.627284       1.23733
   9     480.5      455.7119       40.7813      508.2121      548.9933      93.281457       1.24630
   8     533.0      455.5700       44.4910      496.3783      540.8693      85.299306       1.28407
   7     589.8      455.7170       48.3834      483.5433      531.9267      76.209699       1.34920
   6     651.6      456.5010       52.4454      469.1414      521.5869      65.085848       1.52122
   5     718.7      458.4194       56.6689      453.6623      510.3312      51.911770       1.65562
   4     792.3      462.8008       61.0313      436.9145      497.9459      35.145055       1.92295
   3     825.4      304.4203      326.1259        0.0132      326.1391      21.718869       3.42696
   2     858.4      239.7025      257.1711        0.0000      257.1711      17.468612       1.08495
   1     891.5      183.6904      199.3740        0.0000      199.3740      15.683509       0.45582
   0    1013.0      184.3535      198.2883        0.0000      198.2883      13.934813       0.12142



 Wavenumbers:  2600. -  3250. cm-1, ATM      1
 LEVEL PRESSURE   UPWARD FLUX   DIFDOWN FLUX  DIRDOWN FLUX  DOWNWARD FLUX   NET FLUX    HEATING RATE
          mb          W/m2          W/m2          W/m2        W/m2          W/m2       degree/day
  51    .06700        2.0635        0.0000        5.4450        5.4450       3.381563       0.00000
  50    .07753        2.0635        0.0000        5.4450        5.4450       3.381555       0.00640
  49    .09103        2.0635        0.0000        5.4450        5.4450       3.381545       0.00627
  48    0.1069        2.0635        0.0000        5.4450        5.4450       3.381533       0.00613
  47    0.1255        2.0635        0.0000        5.4450        5.4450       3.381520       0.00599
  46    0.1487        2.0635        0.0000        5.4450        5.4450       3.381503       0.00608
  45    0.1794        2.0635        0.0000        5.4450        5.4450       3.381481       0.00625
  44    0.2165        2.0635        0.0000        5.4449        5.4449       3.381454       0.00612
  43    0.2613        2.0635        0.0000        5.4449        5.4449       3.381422       0.00600
  42    0.3336        2.0635        0.0000        5.4448        5.4448       3.381369       0.00617
  41    0.4307        2.0635        0.0000        5.4448        5.4448       3.381298       0.00620
  40    0.5894        2.0635        0.0000        5.4446        5.4446       3.381178       0.00637
  39     1.339        2.0635        0.0000        5.4439        5.4439       3.380470       0.00797
  38     1.782        2.0635        0.0000        5.4434        5.4434       3.379927       0.01034
  37     2.292        2.0635        0.0000        5.4427        5.4427       3.379211       0.01186
  36     5.035        2.0635        0.0000        5.4412        5.4412       3.377685       0.00470
  35     6.613        2.0635        0.0000        5.4381        5.4381       3.374607       0.01645
  34     8.786        2.0635        0.0000        5.4341        5.4341       3.370600       0.01556
  33     11.80        2.0635        0.0000        5.4288        5.4288       3.365353       0.01469
  32     15.07        2.0635        0.0000        5.4239        5.4239       3.360425       0.01272
  31     18.79        2.0635        0.0000        5.4191        5.4192       3.355678       0.01076
  30     23.16        2.0635        0.0000        5.4144        5.4144       3.350927       0.00919
  29     28.12        2.0635        0.0000        5.4096        5.4096       3.346089       0.00822
  28     33.73        2.0635        0.0000        5.4042        5.4042       3.340719       0.00807
  27     40.54        2.0635        0.0000        5.3972        5.3972       3.333685       0.00873
  26     48.69        2.0636        0.0000        5.3877        5.3877       3.324137       0.00988
  25     57.69        2.0636        0.0000        5.3759        5.3759       3.312285       0.01111
  24     68.43        2.0637        0.0000        5.3604        5.3604       3.296711       0.01224
  23     81.20        2.0638        0.0000        5.3405        5.3405       3.276761       0.01318
  22     96.49        2.0639        0.0000        5.3159        5.3159       3.252035       0.01365
  21     114.6        2.0641        0.0001        5.2857        5.2857       3.221624       0.01420
  20     136.5        2.0643        0.0001        5.2507        5.2508       3.186427       0.01353
  19     162.9        2.0647        0.0001        5.2113        5.2114       3.146685       0.01270
  18     196.4        2.0654        0.0001        5.1642        5.1643       3.098957       0.01201
  17     218.7        2.0660        0.0001        5.1333        5.1334       3.067381       0.01199
  16     243.0        2.0670        0.0001        5.0963        5.0964       3.029423       0.01317
  15     269.0        2.0686        0.0001        5.0512        5.0513       2.982670       0.01517
  14     297.5        2.0711        0.0001        4.9957        4.9958       2.924727       0.01719
  13     328.5        2.0745        0.0001        4.9304        4.9306       2.856072       0.01867
  12     361.9        2.0792        0.0002        4.8511        4.8513       2.772097       0.02125
  11     398.1        2.0857        0.0002        4.7507        4.7509       2.665177       0.02491
  10     437.6        2.0948        0.0002        4.6221        4.6222       2.527470       0.02944
   9     480.5        2.1074        0.0002        4.4625        4.4627       2.355307       0.03381
   8     533.0        2.1280        0.0002        4.2461        4.2463       2.118243       0.03814
   7     589.8        2.1597        0.0002        3.9954        3.9956       1.835964       0.04190
   6     651.6        2.2123        0.0002        3.7089        3.7091       1.496792       0.04638
   5     718.7        2.3002        0.0002        3.4018        3.4021       1.101862       0.04963
   4     792.3        2.4624        0.0002        3.0564        3.0567       0.594241       0.05822
   3     825.4        0.9014        1.1117        0.0001        1.1118       0.210384       0.09798
   2     858.4        0.4233        0.5330        0.0000        0.5330       0.109695       0.02570
   1     891.5        0.1281        0.2044        0.0000        0.2044       0.076335       0.00852
   0    1013.0        0.1378        0.1888        0.0000        0.1888       0.050975       0.00176



 Wavenumbers:  3250. -  4000. cm-1, ATM      1
 LEVEL PRESSURE   UPWARD FLUX   DIFDOWN FLUX  DIRDOWN FLUX  DOWNWARD FLUX   NET FLUX    HEATING RATE
          mb          W/m2          W/m2          W/m2        W/m2          W/m2       degree/day
  51    .06700        0.0673        0.0000        9.1795        9.1795       9.112281       0.00000
  50    .07753        0.0673        0.0000        9.1747        9.1747       9.107438       3.88162
  49    .09103        0.0673        0.0000        9.1713        9.1713       9.104050       2.11758
  48    0.1069        0.0673        0.0000        9.1688        9.1688       9.101525       1.34411
  47    0.1255        0.0673        0.0000        9.1665        9.1665       9.099266       1.02430
  46    0.1487        0.0672        0.0000        9.1641        9.1641       9.096824       0.88998
  45    0.1794        0.0672        0.0000        9.1612        9.1612       9.093946       0.79014
  44    0.2165        0.0672        0.0000        9.1583        9.1583       9.091025       0.66436
  43    0.2613        0.0672        0.0000        9.1553        9.1553       9.088052       0.56046
  42    0.3336        0.0672        0.0000        9.1511        9.1511       9.083873       0.48727
  41    0.4307        0.0672        0.0000        9.1464        9.1464       9.079104       0.41463
  40    0.5894        0.0672        0.0000        9.1393        9.1393       9.072098       0.37258
  39     1.339        0.0672        0.0000        9.1127        9.1127       9.045482       0.29965
  38     1.782        0.0672        0.0000        9.1011        9.1011       9.033893       0.22064
  37     2.292        0.0672        0.0000        9.0901        9.0901       9.022825       0.18331
  36     5.035        0.0672        0.0000        9.0731        9.0731       9.005893       0.05210
  35     6.613        0.0672        0.0000        9.0438        9.0439       8.976612       0.15653
  34     8.786        0.0672        0.0000        9.0058        9.0058       8.938527       0.14791
  33     11.80        0.0672        0.0000        8.9509        8.9509       8.883656       0.15362
  32     15.07        0.0672        0.0000        8.8914        8.8914       8.824177       0.15356
  31     18.79        0.0672        0.0000        8.8241        8.8242       8.756942       0.15244
  30     23.16        0.0672        0.0000        8.7473        8.7474       8.680130       0.14853
  29     28.12        0.0672        0.0000        8.6639        8.6640       8.596748       0.14174
  28     33.73        0.0672        0.0000        8.5784        8.5784       8.511237       0.12857
  27     40.54        0.0672        0.0001        8.4859        8.4860       8.418764       0.11472
  26     48.69        0.0672        0.0001        8.3873        8.3873       8.320140       0.10206
  25     57.69        0.0672        0.0001        8.2887        8.2888       8.221590       0.09238
  24     68.43        0.0672        0.0001        8.1771        8.1772       8.110073       0.08767
  23     81.20        0.0671        0.0001        8.0474        8.0475       7.980353       0.08572
  22     96.49        0.0671        0.0001        7.8963        7.8965       7.829340       0.08335
  21     114.6        0.0671        0.0001        7.7173        7.7174       7.650330       0.08359
  20     136.5        0.0671        0.0002        7.5201        7.5203       7.453214       0.07580
  19     162.9        0.0671        0.0002        7.2919        7.2921       7.225082       0.07292
  18     196.4        0.0670        0.0002        6.9664        6.9666       6.899568       0.08194
  17     218.7        0.0670        0.0002        6.6650        6.6652       6.598210       0.11441
  16     243.0        0.0670        0.0002        6.2620        6.2622       6.195222       0.13977
  15     269.0        0.0671        0.0003        5.7575        5.7578       5.690706       0.16366
  14     297.5        0.0672        0.0003        5.1717        5.1720       5.104763       0.17378
  13     328.5        0.0674        0.0002        4.5755        4.5757       4.508275       0.16218
  12     361.9        0.0678        0.0002        3.9992        3.9995       3.931620       0.14590
  11     398.1        0.0685        0.0002        3.4651        3.4653       3.396828       0.12459
  10     437.6        0.0696        0.0002        2.9736        2.9739       2.904204       0.10533
   9     480.5        0.0715        0.0002        2.5303        2.5305       2.458962       0.08744
   8     533.0        0.0751        0.0002        2.0610        2.0612       1.986087       0.07607
   7     589.8        0.0817        0.0002        1.6146        1.6148       1.533127       0.06723
   6     651.6        0.0954        0.0001        1.1562        1.1563       1.060917       0.06458
   5     718.7        0.1257        0.0001        0.7388        0.7389       0.613213       0.05626
   4     792.3        0.2067        0.0001        0.3984        0.3984       0.191674       0.04835
   3     825.4        0.0075        0.0164        0.0000        0.0164       0.008954       0.04664
   2     858.4        0.0004        0.0008        0.0000        0.0008       0.000449       0.00217
   1     891.5        0.0000        0.0000        0.0000        0.0000       0.000030       0.00011
   0    1013.0        0.0000        0.0000        0.0000        0.0000       0.000001       0.00000



 Wavenumbers:  4000. -  4650. cm-1, ATM      1
 LEVEL PRESSURE   UPWARD FLUX   DIFDOWN FLUX  DIRDOWN FLUX  DOWNWARD FLUX   NET FLUX    HEATING RATE
          mb          W/m2          W/m2          W/m2        W/m2          W/m2       degree/day
  51    .06700        6.8094        0.0000       10.7795       10.7795       3.970110       0.00000
  50    .07753        6.8094        0.0000       10.7795       10.7795       3.970109       0.00080
  49    .09103        6.8094        0.0000       10.7795       10.7795       3.970108       0.00078
  48    0.1069        6.8094        0.0000       10.7795       10.7795       3.970107       0.00077
  47    0.1255        6.8094        0.0000       10.7795       10.7795       3.970105       0.00075
  46    0.1487        6.8094        0.0000       10.7795       10.7795       3.970103       0.00076
  45    0.1794        6.8094        0.0000       10.7795       10.7795       3.970100       0.00078
  44    0.2165        6.8094        0.0000       10.7795       10.7795       3.970097       0.00076
  43    0.2613        6.8094        0.0000       10.7795       10.7795       3.970093       0.00075
  42    0.3336        6.8094        0.0000       10.7795       10.7795       3.970086       0.00077
  41    0.4307        6.8094        0.0000       10.7795       10.7795       3.970077       0.00077
  40    0.5894        6.8094        0.0000       10.7795       10.7795       3.970062       0.00080
  39     1.339        6.8094        0.0000       10.7794       10.7794       3.969973       0.00101
  38     1.782        6.8094        0.0000       10.7793       10.7793       3.969903       0.00133
  37     2.292        6.8094        0.0000       10.7792       10.7792       3.969808       0.00156
  36     5.035        6.8094        0.0000       10.7790       10.7790       3.969600       0.00064
  35     6.613        6.8094        0.0000       10.7785       10.7786       3.969146       0.00243
  34     8.786        6.8094        0.0000       10.7779       10.7779       3.968475       0.00260
  33     11.80        6.8094        0.0001       10.7768       10.7768       3.967421       0.00295
  32     15.07        6.8094        0.0001       10.7755       10.7756       3.966184       0.00319
  31     18.79        6.8094        0.0001       10.7740       10.7741       3.964687       0.00339
  30     23.16        6.8094        0.0001       10.7722       10.7723       3.962826       0.00360
  29     28.12        6.8095        0.0001       10.7699       10.7700       3.960572       0.00383
  28     33.73        6.8095        0.0002       10.7671       10.7673       3.957790       0.00418
  27     40.54        6.8095        0.0002       10.7633       10.7635       3.954011       0.00469
  26     48.69        6.8096        0.0002       10.7583       10.7586       3.948970       0.00522
  25     57.69        6.8097        0.0003       10.7524       10.7527       3.942984       0.00561
  24     68.43        6.8099        0.0003       10.7450       10.7453       3.935469       0.00591
  23     81.20        6.8101        0.0004       10.7359       10.7363       3.926196       0.00613
  22     96.49        6.8104        0.0005       10.7249       10.7253       3.914886       0.00624
  21     114.6        6.8109        0.0006       10.7111       10.7117       3.900703       0.00662
  20     136.5        6.8117        0.0007       10.6945       10.6952       3.883563       0.00659
  19     162.9        6.8127        0.0008       10.6744       10.6752       3.862467       0.00674
  18     196.4        6.8144        0.0010       10.6467       10.6476       3.833212       0.00736
  17     218.7        6.8160        0.0011       10.6258       10.6268       3.810853       0.00849
  16     243.0        6.8182        0.0012       10.5983       10.5995       3.781288       0.01025
  15     269.0        6.8216        0.0013       10.5613       10.5627       3.741092       0.01304
  14     297.5        6.8265        0.0015       10.5122       10.5136       3.687180       0.01599
  13     328.5        6.8331        0.0016       10.4501       10.4517       3.618552       0.01866
  12     361.9        6.8419        0.0018       10.3704       10.3721       3.530217       0.02235
  11     398.1        6.8530        0.0019       10.2679       10.2699       3.416912       0.02640
  10     437.6        6.8671        0.0021       10.1391       10.1412       3.274121       0.03053
   9     480.5        6.8853        0.0023        9.9878        9.9901       3.104794       0.03326
   8     533.0        6.9134        0.0025        9.7937        9.7962       2.882833       0.03571
   7     589.8        6.9544        0.0027        9.5752        9.5779       2.623571       0.03848
   6     651.6        7.0210        0.0029        9.2958        9.2988       2.277817       0.04728
   5     718.7        7.1343        0.0032        8.9267        8.9299       1.795576       0.06060
   4     792.3        7.3516        0.0034        8.4542        8.4576       1.105996       0.07909
   3     825.4        3.5537        4.1136        0.0002        4.1138       0.560078       0.13934
   2     858.4        2.0089        2.4101        0.0000        2.4101       0.401158       0.04057
   1     891.5        0.7711        1.1132        0.0000        1.1132       0.342114       0.01508
   0    1013.0        0.7905        1.0829        0.0000        1.0829       0.292389       0.00345



 Wavenumbers:  4650. -  5150. cm-1, ATM      1
 LEVEL PRESSURE   UPWARD FLUX   DIFDOWN FLUX  DIRDOWN FLUX  DOWNWARD FLUX   NET FLUX    HEATING RATE
          mb          W/m2          W/m2          W/m2        W/m2          W/m2       degree/day
  51    .06700        4.8927        0.0000       10.2033       10.2033       5.310644       0.00000
  50    .07753        4.8927        0.0000       10.2031       10.2031       5.310409       0.18901
  49    .09103        4.8927        0.0000       10.2028       10.2028       5.310114       0.18428
  48    0.1069        4.8927        0.0000       10.2025       10.2025       5.309777       0.17931
  47    0.1255        4.8927        0.0000       10.2021       10.2021       5.309393       0.17426
  46    0.1487        4.8927        0.0000       10.2016       10.2016       5.308911       0.17536
  45    0.1794        4.8927        0.0000       10.2010       10.2010       5.308261       0.17850
  44    0.2165        4.8927        0.0000       10.2002       10.2002       5.307502       0.17277
  43    0.2613        4.8927        0.0000       10.1993       10.1993       5.306616       0.16690
  42    0.3336        4.8927        0.0000       10.1979       10.1979       5.305184       0.16702
  41    0.4307        4.8927        0.0000       10.1960       10.1960       5.303343       0.16002
  40    0.5894        4.8927        0.0000       10.1932       10.1932       5.300469       0.15283
  39     1.339        4.8927        0.0000       10.1816       10.1816       5.288877       0.13051
  38     1.782        4.8927        0.0000       10.1760       10.1760       5.283348       0.10527
  37     2.292        4.8927        0.0000       10.1706       10.1706       5.277891       0.09039
  36     5.035        4.8927        0.0000       10.1630       10.1630       5.270303       0.02334
  35     6.613        4.8927        0.0000       10.1533       10.1533       5.260593       0.05191
  34     8.786        4.8927        0.0000       10.1442       10.1442       5.251497       0.03533
  33     11.80        4.8927        0.0001       10.1340       10.1341       5.241345       0.02842
  32     15.07        4.8928        0.0001       10.1237       10.1238       5.231065       0.02654
  31     18.79        4.8928        0.0001       10.1115       10.1117       5.218854       0.02769
  30     23.16        4.8929        0.0002       10.0961       10.0963       5.203375       0.02993
  29     28.12        4.8930        0.0002       10.0769       10.0771       5.184079       0.03280
  28     33.73        4.8931        0.0002       10.0536       10.0539       5.160738       0.03509
  27     40.54        4.8933        0.0003       10.0235       10.0238       5.130502       0.03751
  26     48.69        4.8936        0.0003        9.9852        9.9855       5.091888       0.03996
  25     57.69        4.8940        0.0004        9.9414        9.9418       5.047816       0.04131
  24     68.43        4.8945        0.0005        9.8884        9.8889       4.994397       0.04199
  23     81.20        4.8952        0.0006        9.8258        9.8263       4.931126       0.04181
  22     96.49        4.8962        0.0007        9.7537        9.7544       4.858188       0.04026
  21     114.6        4.8976        0.0008        9.6735        9.6743       4.776720       0.03804
  20     136.5        4.8995        0.0009        9.5870        9.5879       4.688485       0.03393
  19     162.9        4.9021        0.0011        9.4949        9.4960       4.593940       0.03022
  18     196.4        4.9061        0.0013        9.3889        9.3902       4.484065       0.02766
  17     218.7        4.9093        0.0015        9.3234        9.3249       4.415544       0.02602
  16     243.0        4.9135        0.0016        9.2524        9.2540       4.340545       0.02601
  15     269.0        4.9190        0.0018        9.1720        9.1738       4.254803       0.02781
  14     297.5        4.9267        0.0020        9.0765        9.0785       4.151849       0.03054
  13     328.5        4.9367        0.0022        8.9652        8.9674       4.030661       0.03295
  12     361.9        4.9496        0.0024        8.8351        8.8375       3.887841       0.03613
  11     398.1        4.9665        0.0026        8.6822        8.6848       3.718311       0.03950
  10     437.6        4.9883        0.0028        8.5030        8.5057       3.517405       0.04295
   9     480.5        5.0168        0.0030        8.2950        8.2980       3.281114       0.04641
   8     533.0        5.0604        0.0032        8.0210        8.0243       2.963848       0.05104
   7     589.8        5.1212        0.0035        7.7064        7.7099       2.588773       0.05567
   6     651.6        5.2114        0.0037        7.3413        7.3450       2.133628       0.06224
   5     718.7        5.3488        0.0039        6.9387        6.9427       1.593849       0.06784
   4     792.3        5.5708        0.0042        6.5066        6.5108       0.939949       0.07500
   3     825.4        2.5093        2.9542        0.0002        2.9544       0.445104       0.12631
   2     858.4        1.3542        1.6430        0.0000        1.6430       0.288803       0.03990
   1     891.5        0.4975        0.7298        0.0000        0.7298       0.232308       0.01443
   0    1013.0        0.5141        0.7043        0.0000        0.7043       0.190160       0.00293



 Wavenumbers:  5150. -  6150. cm-1, ATM      1
 LEVEL PRESSURE   UPWARD FLUX   DIFDOWN FLUX  DIRDOWN FLUX  DOWNWARD FLUX   NET FLUX    HEATING RATE
          mb          W/m2          W/m2          W/m2        W/m2          W/m2       degree/day
  51    .06700       11.7367        0.0000       25.5798       25.5798      13.843153       0.00000
  50    .07753       11.7367        0.0000       25.5798       25.5798      13.843113       0.03163
  49    .09103       11.7367        0.0000       25.5797       25.5797      13.843062       0.03211
  48    0.1069       11.7367        0.0000       25.5797       25.5797      13.843001       0.03262
  47    0.1255       11.7367        0.0000       25.5796       25.5796      13.842927       0.03312
  46    0.1487       11.7367        0.0000       25.5795       25.5795      13.842832       0.03489
  45    0.1794       11.7367        0.0000       25.5794       25.5794      13.842696       0.03714
  44    0.2165       11.7367        0.0000       25.5792       25.5792      13.842531       0.03770
  43    0.2613       11.7367        0.0000       25.5790       25.5790      13.842328       0.03827
  42    0.3336       11.7367        0.0000       25.5786       25.5786      13.841981       0.04044
  41    0.4307       11.7367        0.0000       25.5782       25.5782      13.841510       0.04098
  40    0.5894       11.7367        0.0000       25.5774       25.5774      13.840720       0.04199
  39     1.339       11.7367        0.0000       25.5735       25.5736      13.836915       0.04284
  38     1.782       11.7367        0.0001       25.5713       25.5714      13.834699       0.04219
  37     2.292       11.7367        0.0001       25.5688       25.5688      13.832191       0.04155
  36     5.035       11.7367        0.0001       25.5647       25.5648      13.828089       0.01262
  35     6.613       11.7367        0.0002       25.5576       25.5578      13.821096       0.03738
  34     8.786       11.7367        0.0002       25.5485       25.5487      13.812032       0.03520
  33     11.80       11.7368        0.0003       25.5362       25.5365      13.799772       0.03433
  32     15.07       11.7368        0.0004       25.5239       25.5243      13.787473       0.03175
  31     18.79       11.7369        0.0006       25.5110       25.5115      13.774612       0.02916
  30     23.16       11.7370        0.0007       25.4971       25.4978      13.760754       0.02680
  29     28.12       11.7371        0.0009       25.4824       25.4833      13.746136       0.02485
  28     33.73       11.7373        0.0010       25.4676       25.4686      13.731311       0.02229
  27     40.54       11.7376        0.0013       25.4514       25.4526      13.715079       0.02014
  26     48.69       11.7379        0.0015       25.4341       25.4356      13.697669       0.01802
  25     57.69       11.7384        0.0018       25.4169       25.4187      13.680356       0.01623
  24     68.43       11.7389        0.0022       25.3983       25.4005      13.661530       0.01480
  23     81.20       11.7396        0.0026       25.3779       25.3804      13.640791       0.01370
  22     96.49       11.7405        0.0031       25.3550       25.3580      13.617473       0.01287
  21     114.6       11.7417        0.0036       25.3288       25.3324      13.590736       0.01248
  20     136.5       11.7430        0.0043       25.2983       25.3027      13.559641       0.01196
  19     162.9       11.7447        0.0052       25.2537       25.2589      13.514122       0.01455
  18     196.4       11.7471        0.0062       25.1601       25.1664      13.419279       0.02387
  17     218.7       11.7488        0.0069       25.0164       25.0233      13.274487       0.05497
  16     243.0       11.7509        0.0076       24.7092       24.7168      12.965983       0.10700
  15     269.0       11.7535        0.0083       24.1621       24.1704      12.416915       0.17811
  14     297.5       11.7571        0.0090       23.4546       23.4636      11.706504       0.21070
  13     328.5       11.7618        0.0097       22.7357       22.7454      10.983597       0.19656
  12     361.9       11.7680        0.0105       21.9226       21.9331      10.165093       0.20709
  11     398.1       11.7763        0.0112       20.9941       21.0053       9.228991       0.21809
  10     437.6       11.7878        0.0119       19.9835       19.9954       8.207589       0.21838
   9     480.5       11.8037        0.0125       18.9485       18.9610       7.157321       0.20627
   8     533.0       11.8306        0.0133       17.7798       17.7930       5.962414       0.19222
   7     589.8       11.8743        0.0141       16.6727       16.6868       4.812471       0.17069
   6     651.6       11.9544        0.0149       15.6344       15.6493       3.694945       0.15282
   5     718.7       12.1016        0.0158       14.7739       14.7897       2.688088       0.12653
   4     792.3       12.3984        0.0167       14.0292       14.0460       1.647528       0.11934
   3     825.4        6.3745        7.2640        0.0004        7.2644       0.889909       0.19338
   2     858.4        3.7749        4.4736        0.0000        4.4736       0.698699       0.04881
   1     891.5        1.5257        2.1589        0.0000        2.1589       0.633143       0.01674
   0    1013.0        1.5496        2.1227        0.0000        2.1227       0.573142       0.00417



 Wavenumbers:  6150. -  7700. cm-1, ATM      1
 LEVEL PRESSURE   UPWARD FLUX   DIFDOWN FLUX  DIRDOWN FLUX  DOWNWARD FLUX   NET FLUX    HEATING RATE
          mb          W/m2          W/m2          W/m2        W/m2          W/m2       degree/day
  51    .06700       18.6892        0.0000       47.3109       47.3109      28.621615       0.00000
  50    .07753       18.6892        0.0000       47.3108       47.3108      28.621558       0.04553
  49    .09103       18.6892        0.0000       47.3107       47.3107      28.621485       0.04583
  48    0.1069       18.6892        0.0000       47.3106       47.3106      28.621398       0.04614
  47    0.1255       18.6892        0.0000       47.3105       47.3105      28.621295       0.04645
  46    0.1487       18.6892        0.0000       47.3104       47.3104      28.621162       0.04852
  45    0.1794       18.6892        0.0000       47.3102       47.3102      28.620976       0.05127
  44    0.2165       18.6892        0.0000       47.3100       47.3100      28.620748       0.05167
  43    0.2613       18.6892        0.0000       47.3097       47.3097      28.620472       0.05210
  42    0.3336       18.6892        0.0000       47.3092       47.3092      28.620003       0.05471
  41    0.4307       18.6892        0.0000       47.3085       47.3086      28.619368       0.05521
  40    0.5894       18.6892        0.0001       47.3074       47.3075      28.618309       0.05634
  39     1.339       18.6891        0.0002       47.3022       47.3024      28.613216       0.05733
  38     1.782       18.6891        0.0002       47.2991       47.2994      28.610246       0.05655
  37     2.292       18.6891        0.0003       47.2956       47.2959      28.606870       0.05591
  36     5.035       18.6890        0.0004       47.2899       47.2903      28.601295       0.01715
  35     6.613       18.6889        0.0006       47.2800       47.2806      28.591719       0.05119
  34     8.786       18.6887        0.0009       47.2670       47.2679      28.579175       0.04872
  33     11.80       18.6885        0.0013       47.2491       47.2504      28.561938       0.04826
  32     15.07       18.6882        0.0018       47.2308       47.2326      28.544313       0.04550
  31     18.79       18.6880        0.0022       47.2112       47.2134      28.525477       0.04271
  30     23.16       18.6876        0.0028       47.1895       47.1923      28.504700       0.04018
  29     28.12       18.6873        0.0035       47.1661       47.1696      28.482296       0.03809
  28     33.73       18.6869        0.0042       47.1416       47.1458      28.458956       0.03509
  27     40.54       18.6864        0.0051       47.1141       47.1192      28.432863       0.03237
  26     48.69       18.6857        0.0062       47.0837       47.0899      28.404122       0.02974
  25     57.69       18.6851        0.0074       47.0527       47.0601      28.375024       0.02727
  24     68.43       18.6843        0.0088       47.0183       47.0271      28.342781       0.02535
  23     81.20       18.6833        0.0105       46.9796       46.9901      28.306751       0.02381
  22     96.49       18.6822        0.0125       46.9356       46.9481      28.265840       0.02258
  21     114.6       18.6809        0.0149       46.8846       46.8995      28.218600       0.02206
  20     136.5       18.6794        0.0177       46.8250       46.8427      28.163333       0.02125
  19     162.9       18.6776        0.0211       46.7403       46.7614      28.083896       0.02539
  18     196.4       18.6754        0.0255       46.5732       46.5987      27.923329       0.04042
  17     218.7       18.6742        0.0283       46.3491       46.3774      27.703235       0.08356
  16     243.0       18.6732        0.0312       45.9309       45.9621      27.288877       0.14371
  15     269.0       18.6731        0.0342       45.1716       45.2058      26.532641       0.24532
  14     297.5       18.6747        0.0372       44.0121       44.0492      25.374533       0.34348
  13     328.5       18.6784        0.0402       42.7247       42.7648      24.086387       0.35024
  12     361.9       18.6856        0.0432       41.3543       41.3975      22.711977       0.34774
  11     398.1       18.6979        0.0462       39.7956       39.8418      21.143953       0.36531
  10     437.6       18.7187        0.0491       37.9951       38.0442      19.325501       0.38880
   9     480.5       18.7519        0.0518       36.0650       36.1169      17.364983       0.38504
   8     533.0       18.8143        0.0548       33.7776       33.8324      15.018133       0.37753
   7     589.8       18.9231        0.0576       31.4085       31.4660      12.542973       0.36739
   6     651.6       19.1333        0.0599       28.8836       28.9435       9.810202       0.37371
   5     718.7       19.5370        0.0620       26.4106       26.4726       6.935577       0.36126
   4     792.3       20.4027        0.0637       24.0058       24.0695       3.666781       0.37489
   3     825.4        9.4706       10.9978        0.0007       10.9985       1.527885       0.54594
   2     858.4        5.3678        6.4242        0.0000        6.4242       1.056402       0.12035
   1     891.5        2.0954        3.0035        0.0000        3.0035       0.908129       0.03786
   0    1013.0        2.1399        2.9313        0.0000        2.9313       0.791461       0.00810



 Wavenumbers:  7700. -  8050. cm-1, ATM      1
 LEVEL PRESSURE   UPWARD FLUX   DIFDOWN FLUX  DIRDOWN FLUX  DOWNWARD FLUX   NET FLUX    HEATING RATE
          mb          W/m2          W/m2          W/m2        W/m2          W/m2       degree/day
  51    .06700        8.6288        0.0000       11.1810       11.1810       2.552180       0.00000
  50    .07753        8.6288        0.0000       11.1809       11.1809       2.552157       0.01910
  49    .09103        8.6288        0.0000       11.1809       11.1809       2.552127       0.01871
  48    0.1069        8.6288        0.0000       11.1809       11.1809       2.552092       0.01832
  47    0.1255        8.6288        0.0000       11.1809       11.1809       2.552053       0.01793
  46    0.1487        8.6288        0.0000       11.1808       11.1808       2.552003       0.01819
  45    0.1794        8.6288        0.0000       11.1808       11.1808       2.551934       0.01872
  44    0.2165        8.6289        0.0000       11.1807       11.1807       2.551854       0.01836
  43    0.2613        8.6289        0.0000       11.1806       11.1806       2.551758       0.01802
  42    0.3336        8.6289        0.0000       11.1805       11.1805       2.551600       0.01844
  41    0.4307        8.6290        0.0000       11.1803       11.1804       2.551390       0.01824
  40    0.5894        8.6291        0.0000       11.1801       11.1801       2.551048       0.01822
  39     1.339        8.6295        0.0001       11.1788       11.1789       2.549427       0.01825
  38     1.782        8.6297        0.0001       11.1781       11.1782       2.548475       0.01813
  37     2.292        8.6300        0.0001       11.1772       11.1773       2.547372       0.01826
  36     5.035        8.6304        0.0002       11.1757       11.1759       2.545460       0.00588
  35     6.613        8.6313        0.0003       11.1731       11.1734       2.542063       0.01816
  34     8.786        8.6324        0.0004       11.1695       11.1699       2.537486       0.01777
  33     11.80        8.6341        0.0006       11.1644       11.1650       2.530941       0.01832
  32     15.07        8.6358        0.0008       11.1589       11.1597       2.523917       0.01813
  31     18.79        8.6378        0.0010       11.1528       11.1538       2.515989       0.01798
  30     23.16        8.6401        0.0013       11.1456       11.1469       2.506736       0.01789
  29     28.12        8.6428        0.0016       11.1374       11.1390       2.496166       0.01797
  28     33.73        8.6458        0.0020       11.1282       11.1302       2.484354       0.01776
  27     40.54        8.6495        0.0024       11.1172       11.1196       2.470108       0.01767
  26     48.69        8.6539        0.0029       11.1040       11.1069       2.452969       0.01774
  25     57.69        8.6588        0.0034       11.0896       11.0930       2.434192       0.01760
  24     68.43        8.6647        0.0041       11.0725       11.0766       2.411895       0.01753
  23     81.20        8.6717        0.0049       11.0523       11.0571       2.385427       0.01749
  22     96.49        8.6802        0.0058       11.0284       11.0342       2.354026       0.01733
  21     114.6        8.6904        0.0069       11.0004       11.0073       2.316931       0.01732
  20     136.5        8.7026        0.0082       10.9676       10.9758       2.273221       0.01681
  19     162.9        8.7173        0.0098       10.9290       10.9388       2.221512       0.01653
  18     196.4        8.7368        0.0118       10.8799       10.8917       2.154965       0.01675
  17     218.7        8.7498        0.0131       10.8482       10.8613       2.111515       0.01650
  16     243.0        8.7641        0.0145       10.8140       10.8286       2.064444       0.01633
  15     269.0        8.7800        0.0161       10.7774       10.7935       2.013526       0.01652
  14     297.5        8.7975        0.0178       10.7382       10.7560       1.958456       0.01633
  13     328.5        8.8169        0.0196       10.6962       10.7158       1.898828       0.01621
  12     361.9        8.8385        0.0216       10.6512       10.6728       1.834317       0.01632
  11     398.1        8.8625        0.0237       10.6031       10.6267       1.764280       0.01632
  10     437.6        8.8893        0.0259       10.5513       10.5772       1.687913       0.01633
   9     480.5        8.9195        0.0283       10.4956       10.5240       1.604456       0.01639
   8     533.0        8.9589        0.0313       10.4264       10.4577       1.498849       0.01699
   7     589.8        9.0048        0.0345       10.3500       10.3845       1.379689       0.01769
   6     651.6        9.0599        0.0379       10.2633       10.3013       1.241390       0.01891
   5     718.7        9.1275        0.0416       10.1637       10.2053       1.077794       0.02056
   4     792.3        9.2135        0.0455       10.0457       10.0912       0.877687       0.02295
   3     825.4        5.0104        5.6850        0.0003        5.6853       0.674941       0.05175
   2     858.4        2.9542        3.5128        0.0000        3.5128       0.558603       0.02970
   1     891.5        1.1743        1.6717        0.0000        1.6717       0.497358       0.01564
   0    1013.0        1.1969        1.6396        0.0000        1.6396       0.442697       0.00380



 Wavenumbers:  8050. - 12850. cm-1, ATM      1
 LEVEL PRESSURE   UPWARD FLUX   DIFDOWN FLUX  DIRDOWN FLUX  DOWNWARD FLUX   NET FLUX    HEATING RATE
          mb          W/m2          W/m2          W/m2        W/m2          W/m2       degree/day
  51    .06700      112.3296        0.0000      156.5418      156.5418      44.212118       0.00000
  50    .07753      112.3296        0.0000      156.5417      156.5417      44.212118       0.00000
  49    .09103      112.3296        0.0001      156.5417      156.5417      44.212118      -0.00000
  48    0.1069      112.3296        0.0001      156.5416      156.5417      44.212118       0.00000
  47    0.1255      112.3296        0.0002      156.5415      156.5417      44.212118      -0.00000
  46    0.1487      112.3296        0.0002      156.5414      156.5417      44.212118      -0.00000
  45    0.1794      112.3295        0.0003      156.5413      156.5416      44.212118       0.00000
  44    0.2165      112.3295        0.0005      156.5412      156.5416      44.212118      -0.00000
  43    0.2613      112.3294        0.0006      156.5410      156.5416      44.212118       0.00000
  42    0.3336      112.3294        0.0008      156.5407      156.5415      44.212118      -0.00000
  41    0.4307      112.3293        0.0011      156.5403      156.5414      44.212118      -0.00000
  40    0.5894      112.3291        0.0016      156.5397      156.5413      44.212118       0.00000
  39     1.339      112.3284        0.0038      156.5367      156.5405      44.212118      -0.00000
  38     1.782      112.3280        0.0051      156.5350      156.5401      44.212118       0.00000
  37     2.292      112.3275        0.0067      156.5330      156.5396      44.212118      -0.00000
  36     5.035      112.3267        0.0093      156.5295      156.5388      44.212118       0.00000
  35     6.613      112.3252        0.0140      156.5233      156.5373      44.212118       0.00000
  34     8.786      112.3232        0.0204      156.5149      156.5353      44.212118       0.00000
  33     11.80      112.3203        0.0295      156.5029      156.5324      44.212118       0.00000
  32     15.07      112.3172        0.0392      156.4901      156.5293      44.212118       0.00000
  31     18.79      112.3137        0.0503      156.4755      156.5258      44.212118      -0.00000
  30     23.16      112.3095        0.0632      156.4585      156.5217      44.212118      -0.00000
  29     28.12      112.3048        0.0780      156.4390      156.5170      44.212118       0.00000
  28     33.73      112.2996        0.0946      156.4171      156.5117      44.212118       0.00000
  27     40.54      112.2932        0.1146      156.3907      156.5053      44.212118       0.00000
  26     48.69      112.2855        0.1388      156.3588      156.4976      44.212118      -0.00000
  25     57.69      112.2770        0.1655      156.3237      156.4892      44.212118       0.00000
  24     68.43      112.2669        0.1972      156.2818      156.4791      44.212118      -0.00000
  23     81.20      112.2549        0.2351      156.2319      156.4670      44.212118       0.00000
  22     96.49      112.2405        0.2804      156.1722      156.4526      44.212118      -0.00000
  21     114.6      112.2236        0.3342      156.0952      156.4294      44.205830       0.00294
  20     136.5      112.2036        0.3982      156.0034      156.4016      44.198035       0.00300
  19     162.9      112.1797        0.4745      155.8903      156.3648      44.185117       0.00413
  18     196.4      112.1488        0.5737      155.7272      156.3009      44.152079       0.00832
  17     218.7      112.1290        0.6390      155.5805      156.2196      44.090513       0.02337
  16     243.0      112.1088        0.7100      155.3439      156.0539      43.945112       0.05043
  15     269.0      112.0898        0.7867      154.9586      155.7454      43.655595       0.09392
  14     297.5      112.0750        0.8694      154.3968      155.2662      43.191183       0.13774
  13     328.5      112.0665        0.9586      153.7223      154.6809      42.614353       0.15684
  12     361.9      112.0682        1.0543      152.9159      153.9702      41.902015       0.18023
  11     398.1      112.0868        1.1567      151.9057      153.0624      40.975661       0.21582
  10     437.6      112.1339        1.2657      150.6102      151.8759      39.742060       0.26375
   9     480.5      112.2235        1.3811      149.0084      150.3895      38.165947       0.30954
   8     533.0      112.4082        1.5207      146.7445      148.2651      35.856908       0.37145
   7     589.8      112.7462        1.6671      143.8798      145.5469      32.800692       0.45364
   6     651.6      113.4088        1.8174      140.1022      141.9196      28.510759       0.58666
   5     718.7      114.6526        1.9700      135.5343      137.5043      22.851625       0.71120
   4     792.3      117.1319        2.1211      130.0753      132.1964      15.064528       0.89309
   3     825.4       60.3197       68.9024        0.0039       68.9063       8.586561       1.65346
   2     858.4       35.4081       42.0633        0.0000       42.0633       6.655186       0.49302
   1     891.5       14.1913       20.1397        0.0000       20.1397       5.948369       0.18048
   0    1013.0       14.4261       19.7618        0.0000       19.7618       5.335682       0.04254



 Wavenumbers: 12850. - 16000. cm-1, ATM      1
 LEVEL PRESSURE   UPWARD FLUX   DIFDOWN FLUX  DIRDOWN FLUX  DOWNWARD FLUX   NET FLUX    HEATING RATE
          mb          W/m2          W/m2          W/m2        W/m2          W/m2       degree/day
  51    .06700       80.8354        0.0000       98.0872       98.0872      17.251796       0.00000
  50    .07753       80.8354        0.0001       98.0864       98.0864      17.251003       0.63547
  49    .09103       80.8354        0.0002       98.0853       98.0855      17.250007       0.62253
  48    0.1069       80.8355        0.0003       98.0841       98.0843      17.248862       0.60936
  47    0.1255       80.8355        0.0004       98.0826       98.0830      17.247546       0.59651
  46    0.1487       80.8355        0.0005       98.0809       98.0814      17.245885       0.60557
  45    0.1794       80.8356        0.0007       98.0784       98.0792      17.243624       0.62071
  44    0.2165       80.8356        0.0010       98.0756       98.0766      17.240963       0.60537
  43    0.2613       80.8358        0.0013       98.0723       98.0736      17.237831       0.59028
  42    0.3336       80.8360        0.0017       98.0670       98.0688      17.232716       0.59637
  41    0.4307       80.8365        0.0024       98.0602       98.0626      17.226096       0.57566
  40    0.5894       80.8373        0.0034       98.0496       98.0530      17.215649       0.55554
  39     1.339       80.8445        0.0082       98.0043       98.0126      17.168088       0.53545
  38     1.782       80.8510        0.0111       97.9793       97.9904      17.139389       0.54638
  37     2.292       80.8606        0.0144       97.9498       97.9642      17.103546       0.59366
  36     5.035       80.8862        0.0201       97.8891       97.9092      17.023028       0.24773
  35     6.613       80.9399        0.0303       97.7746       97.8049      16.864979       0.84493
  34     8.786       81.0098        0.0439       97.6278       97.6717      16.661923       0.78860
  33     11.80       81.1009        0.0635       97.4339       97.4973      16.396439       0.74327
  32     15.07       81.1883        0.0844       97.2433       97.3277      16.139408       0.66360
  31     18.79       81.2777        0.1081       97.0439       97.1519      15.874251       0.60119
  30     23.16       81.3713        0.1357       96.8292       96.9649      15.593560       0.54277
  29     28.12       81.4658        0.1672       96.6048       96.7720      15.306262       0.48839
  28     33.73       81.5535        0.2025       96.3831       96.5856      15.032149       0.41214
  27     40.54       81.6386        0.2452       96.1494       96.3945      14.755970       0.34263
  26     48.69       81.7209        0.2966       95.9016       96.1982      14.477359       0.28832
  25     57.69       81.7917        0.3531       95.6629       96.0160      14.224312       0.23719
  24     68.43       81.8549        0.4204       95.4149       95.8353      13.980416       0.19173
  23     81.20       81.9011        0.5007       95.1674       95.6681      13.766974       0.14104
  22     96.49       81.9294        0.5965       94.9172       95.5137      13.584366       0.10079
  21     114.6       81.9609        0.7113       94.6421       95.3534      13.392525       0.08958
  20     136.5       81.9869        0.8474       94.3324       95.1798      13.192815       0.07679
  19     162.9       82.0077        1.0094       93.9750       94.9844      12.976758       0.06906
  18     196.4       82.0125        1.2196       93.5336       94.7532      12.740688       0.05942
  17     218.7       82.0080        1.3576       93.2498       94.6074      12.599384       0.05365
  16     243.0       82.0002        1.5076       92.9420       94.4496      12.449482       0.05199
  15     269.0       81.9890        1.6702       92.6087       94.2789      12.289858       0.05178
  14     297.5       81.9755        1.8459       92.2464       94.0923      12.116832       0.05132
  13     328.5       81.9619        2.0357       91.8517       93.8874      11.925498       0.05202
  12     361.9       81.9496        2.2400       91.4219       93.6619      11.712248       0.05395
  11     398.1       81.9407        2.4599       90.9524       93.4123      11.471621       0.05606
  10     437.6       81.9390        2.6958       90.4358       93.1317      11.192686       0.05964
   9     480.5       81.9485        2.9485       89.8659       92.8144      10.865874       0.06418
   8     533.0       81.9820        3.2591       89.1347       92.3938      10.411878       0.07303
   7     589.8       82.0576        3.5928       88.2943       91.8871       9.829482       0.08645
   6     651.6       82.2189        3.9491       87.2867       91.2358       9.016842       0.11113
   5     718.7       82.5005        4.3265       86.1028       90.4294       7.928876       0.13673
   4     792.3       83.0041        4.7213       84.6812       89.4025       6.398393       0.17553
   3     825.4       50.7821       55.6414        0.0026       55.6440       4.861926       0.39217
   2     858.4       35.6798       39.8297        0.0000       39.8297       4.149866       0.18177
   1     891.5       22.2237       26.0057        0.0000       26.0057       3.782051       0.09392
   0    1013.0       22.3977       25.7652        0.0000       25.7652       3.367515       0.02878



 Wavenumbers: 16000. - 22650. cm-1, ATM      1
 LEVEL PRESSURE   UPWARD FLUX   DIFDOWN FLUX  DIRDOWN FLUX  DOWNWARD FLUX   NET FLUX    HEATING RATE
          mb          W/m2          W/m2          W/m2        W/m2          W/m2       degree/day
  51    .06700      140.4114        0.0000      156.3892      156.3892      15.977879       0.00000
  50    .07753      140.4113        0.0004      156.3887      156.3891      15.977732       0.11817
  49    .09103      140.4113        0.0009      156.3879      156.3888      15.977517       0.13403
  48    0.1069      140.4113        0.0015      156.3871      156.3885      15.977230       0.15284
  47    0.1255      140.4113        0.0021      156.3861      156.3882      15.976846       0.17422
  46    0.1487      140.4114        0.0029      156.3847      156.3877      15.976279       0.20645
  45    0.1794      140.4115        0.0041      156.3828      156.3869      15.975394       0.24308
  44    0.2165      140.4117        0.0054      156.3805      156.3859      15.974193       0.27319
  43    0.2613      140.4121        0.0070      156.3776      156.3846      15.972564       0.30713
  42    0.3336      140.4128        0.0096      156.3726      156.3823      15.969466       0.36118
  41    0.4307      140.4140        0.0131      156.3657      156.3788      15.964796       0.40601
  40    0.5894      140.4166        0.0188      156.3537      156.3725      15.955890       0.47359
  39     1.339      140.4391        0.0458      156.2834      156.3292      15.890094       0.74075
  38     1.782      140.4599        0.0616      156.2324      156.2939      15.834044       1.06711
  37     2.292      140.4911        0.0799      156.1641      156.2440      15.752910       1.34378
  36     5.035      140.5749        0.1116      156.0076      156.1192      15.544317       0.64179
  35     6.613      140.7512        0.1679      155.6950      155.8629      15.111680       2.31288
  34     8.786      140.9809        0.2437      155.2860      155.5297      14.548728       2.18630
  33     11.80      141.2798        0.3519      154.7422      155.0941      13.814233       2.05636
  32     15.07      141.5661        0.4679      154.2059      154.6738      13.107683       1.82417
  31     18.79      141.8584        0.5987      153.6432      154.2419      12.383549       1.64184
  30     23.16      142.1638        0.7513      153.0352      153.7864      11.622683       1.47127
  29     28.12      142.4709        0.9255      152.3965      153.3220      10.851053       1.31172
  28     33.73      142.7543        1.1202      151.7604      152.8806      10.126276       1.08972
  27     40.54      143.0268        1.3552      151.0815      152.4367       9.409948       0.88868
  26     48.69      143.2874        1.6382      150.3500      151.9882       8.700788       0.73387
  25     57.69      143.5080        1.9486      149.6296      151.5783       8.070286       0.59100
  24     68.43      143.6999        2.3179      148.8604      151.1783       7.478423       0.46528
  23     81.20      143.8316        2.7576      148.0628      150.8204       6.988824       0.32352
  22     96.49      143.8984        3.2810      147.2220      150.5030       6.604620       0.21205
  21     114.6      143.9314        3.9006      146.2838      150.1843       6.252959       0.16420
  20     136.5      143.9393        4.6321      145.2142      149.8463       5.907024       0.13302
  19     162.9      143.9203        5.4992      143.9816      149.4808       5.560505       0.11076
  18     196.4      143.8342        6.6179      142.4652      149.0831       5.248854       0.07845
  17     218.7      143.7553        7.3489      141.5017      148.8506       5.095317       0.05829
  16     243.0      143.6592        8.1401      140.4717      148.6119       4.952702       0.04946
  15     269.0      143.5443        8.9937      139.3740      148.3677       4.823398       0.04195
  14     297.5      143.4101        9.9116      138.2062      148.1178       4.707758       0.03430
  13     328.5      143.2605       10.8982      136.9574      147.8556       4.595140       0.03062
  12     361.9      143.0953       11.9544      135.6265      147.5809       4.485659       0.02770
  11     398.1      142.9140       13.0842      134.2081      147.2924       4.378381       0.02499
  10     437.6      142.7176       14.2896      132.6981      146.9877       4.270097       0.02315
   9     480.5      142.5059       15.5728      131.0935      146.6663       4.160447       0.02153
   8     533.0      142.2457       17.1400      129.1351      146.2751       4.029324       0.02109
   7     589.8      141.9700       18.8143      127.0392      145.8535       3.883532       0.02164
   6     651.6      141.6856       20.5975      124.7944      145.3919       3.706267       0.02424
   5     718.7      141.3996       22.4911      122.3908      144.8819       3.482346       0.02814
   4     792.3      141.1301       24.4930      119.8121      144.3052       3.175071       0.03524
   3     825.4      111.7556      114.5267        0.0037      114.5304       2.774819       0.10216
   2     858.4      102.8243      105.3088        0.0000      105.3088       2.484463       0.07412
   1     891.5       94.7566       97.0085        0.0000       97.0085       2.251855       0.05940
   0    1013.0       94.8917       96.8184        0.0000       96.8184       1.926686       0.02258



 Wavenumbers: 22650. - 29000. cm-1, ATM      1
 LEVEL PRESSURE   UPWARD FLUX   DIFDOWN FLUX  DIRDOWN FLUX  DOWNWARD FLUX   NET FLUX    HEATING RATE
          mb          W/m2          W/m2          W/m2        W/m2          W/m2       degree/day
  51    .06700       58.2005        0.0000       59.0156       59.0156       0.815117       0.00000
  50    .07753       58.2004        0.0005       59.0151       59.0155       0.815117      -0.00000
  49    .09103       58.2003        0.0010       59.0144       59.0154       0.815117       0.00000
  48    0.1069       58.2002        0.0017       59.0136       59.0153       0.815117      -0.00000
  47    0.1255       58.2000        0.0025       59.0127       59.0151       0.815117       0.00000
  46    0.1487       58.1998        0.0034       59.0115       59.0149       0.815117       0.00000
  45    0.1794       58.1996        0.0048       59.0099       59.0147       0.815117       0.00000
  44    0.2165       58.1992        0.0063       59.0080       59.0144       0.815117      -0.00000
  43    0.2613       58.1989        0.0082       59.0058       59.0140       0.815117       0.00000
  42    0.3336       58.1983        0.0112       59.0022       59.0134       0.815117       0.00000
  41    0.4307       58.1975        0.0153       58.9973       59.0126       0.815117       0.00000
  40    0.5894       58.1962        0.0219       58.9894       59.0113       0.815117      -0.00000
  39     1.339       58.1900        0.0533       58.9518       59.0051       0.815117       0.00000
  38     1.782       58.1864        0.0718       58.9297       59.0015       0.815117      -0.00000
  37     2.292       58.1822        0.0931       58.9042       58.9973       0.815117      -0.00000
  36     5.035       58.1749        0.1302       58.8599       58.9900       0.815117      -0.00000
  35     6.613       58.1620        0.1959       58.7812       58.9771       0.815117       0.00000
  34     8.786       58.1446        0.2843       58.6754       58.9597       0.815117       0.00000
  33     11.80       58.1198        0.4107       58.5242       58.9349       0.815117       0.00000
  32     15.07       58.0932        0.5462       58.3621       58.9083       0.815117       0.00000
  31     18.79       58.0631        0.6989       58.1794       58.8783       0.815117       0.00000
  30     23.16       58.0282        0.8768       57.9665       58.8433       0.815117       0.00000
  29     28.12       57.9883        1.0797       57.7237       58.8034       0.815117       0.00000
  28     33.73       57.9438        1.3059       57.4530       58.7589       0.815117      -0.00000
  27     40.54       57.8902        1.5781       57.1272       58.7054       0.815117       0.00000
  26     48.69       57.8260        1.9046       56.7366       58.6411       0.815117       0.00000
  25     57.69       57.7559        2.2610       56.3100       58.5710       0.815117       0.00000
  24     68.43       57.6729        2.6824       55.8057       58.4880       0.815117      -0.00000
  23     81.20       57.5749        3.1800       55.2100       58.3900       0.815117       0.00000
  22     96.49       57.4593        3.7668       54.5077       58.2744       0.815117      -0.00000
  21     114.6       57.3238        4.4544       53.6845       58.1389       0.815117       0.00000
  20     136.5       57.1654        5.2569       52.7236       57.9806       0.815117      -0.00000
  19     162.9       56.9802        6.1950       51.6003       57.7953       0.815117       0.00000
  18     196.4       56.7453        7.3834       50.1770       57.5605       0.815117      -0.00000
  17     218.7       56.5943        8.1471       49.2623       57.4094       0.815117      -0.00000
  16     243.0       56.4328        8.9623       48.2857       57.2479       0.815117       0.00000
  15     269.0       56.2611        9.8286       47.2476       57.0762       0.815117       0.00000
  14     297.5       56.0792       10.7452       46.1491       56.8943       0.815117      -0.00000
  13     328.5       55.8869       11.7135       44.9884       56.7020       0.815117      -0.00000
  12     361.9       55.6845       12.7309       43.7687       56.4996       0.815117       0.00000
  11     398.1       55.4720       13.7974       42.4898       56.2872       0.815117       0.00000
  10     437.6       55.2499       14.9108       41.1542       56.0650       0.815117      -0.00000
   9     480.5       55.0184       16.0688       39.7647       55.8335       0.815117       0.00000
   8     533.0       54.7425       17.4458       38.1118       55.5576       0.815117       0.00000
   7     589.8       54.4559       18.8732       36.3978       55.2710       0.815117       0.00000
   6     651.6       54.1597       20.3434       34.6314       54.9748       0.815117      -0.00000
   5     718.7       53.8550       21.8509       32.8192       54.6701       0.815117       0.00000
   4     792.3       53.5433       23.3869       30.9715       54.3584       0.815117       0.00000
   3     825.4       45.7089       46.5222        0.0009       46.5231       0.814211       0.00023
   2     858.4       42.8784       43.6918        0.0000       43.6918       0.813389       0.00021
   1     891.5       40.0508       40.8634        0.0000       40.8634       0.812618       0.00020
   0    1013.0       40.0225       40.8351        0.0000       40.8351       0.812618       0.00000



 Wavenumbers: 29000. - 38000. cm-1, ATM      1
 LEVEL PRESSURE   UPWARD FLUX   DIFDOWN FLUX  DIRDOWN FLUX  DOWNWARD FLUX   NET FLUX    HEATING RATE
          mb          W/m2          W/m2          W/m2        W/m2          W/m2       degree/day
  51    .06700        8.7842        0.0000       20.8114       20.8114      12.027130       0.00000
  50    .07753        8.7840        0.0003       20.8070       20.8074      12.023323       3.05178
  49    .09103        8.7838        0.0007       20.8009       20.8016      12.017785       3.46111
  48    0.1069        8.7836        0.0012       20.7928       20.7939      12.010375       3.94459
  47    0.1255        8.7833        0.0017       20.7820       20.7837      12.000469       4.49069
  46    0.1487        8.7829        0.0024       20.7665       20.7688      11.985905       5.30885
  45    0.1794        8.7825        0.0033       20.7424       20.7457      11.963238       6.22253
  44    0.2165        8.7820        0.0044       20.7103       20.7147      11.932713       6.94396
  43    0.2613        8.7814        0.0056       20.6675       20.6731      11.891715       7.72796
  42    0.3336        8.7805        0.0077       20.5880       20.5957      11.815148       8.92701
  41    0.4307        8.7794        0.0104       20.4722       20.4826      11.703185       9.73489
  40    0.5894        8.7779        0.0147       20.2637       20.2784      11.500482      10.77949
  39     1.339        8.7747        0.0332       19.0984       19.1315      10.356861      12.87509
  38     1.782        8.7753        0.0427       18.4394       18.4821       9.706818      12.37577
  37     2.292        8.7781        0.0530       17.7714       17.8244       9.046311      10.93972
  36     5.035        8.7910        0.0692       16.7265       16.7957       8.004676       3.20483
  35     6.613        8.8212        0.0964       15.5186       15.6150       6.793784       6.47343
  34     8.786        8.8616        0.1317       14.5590       14.6907       5.829143       3.74632
  33     11.80        8.9146        0.1805       13.7000       13.8805       4.965974       2.41660
  32     15.07        8.9658        0.2307       13.0749       13.3056       4.339780       1.61671
  31     18.79        9.0190        0.2860       12.5486       12.8346       3.815657       1.18835
  30     23.16        9.0755        0.3488       12.0732       12.4220       3.346484       0.90723
  29     28.12        9.1336        0.4189       11.6423       12.0613       2.927702       0.71190
  28     33.73        9.1872        0.4961       11.2628       11.7588       2.571670       0.53530
  27     40.54        9.2381        0.5881       10.8969       11.4849       2.246829       0.40300
  26     48.69        9.2862        0.6971       10.5353       11.2323       1.946189       0.31112
  25     57.69        9.3256        0.8150       10.2040       11.0190       1.693387       0.23696
  24     68.43        9.3575        0.9532        9.8713       10.8245       1.466988       0.17798
  23     81.20        9.3726        1.1162        9.5431       10.6593       1.286780       0.11908
  22     96.49        9.3688        1.3079        9.2107       10.5186       1.149783       0.07561
  21     114.6        9.3545        1.5292        8.8533       10.3825       1.027971       0.05688
  20     136.5        9.3326        1.7821        8.4618       10.2438       0.911212       0.04490
  19     162.9        9.3034        2.0702        8.0302       10.1004       0.797000       0.03651
  18     196.4        9.2544        2.4269        7.5240        9.9509       0.696569       0.02528
  17     218.7        9.2191        2.6513        7.2154        9.8667       0.647630       0.01858
  16     243.0        9.1804        2.8857        6.8972        9.7829       0.602468       0.01566
  15     269.0        9.1381        3.1294        6.5707        9.7001       0.561941       0.01315
  14     297.5        9.0923        3.3812        6.2374        9.6186       0.526239       0.01059
  13     328.5        9.0445        3.6402        5.8964        9.5365       0.492078       0.00929
  12     361.9        8.9950        3.9037        5.5509        9.4546       0.459610       0.00821
  11     398.1        8.9440        4.1713        5.2016        9.3729       0.428862       0.00716
  10     437.6        8.8921        4.4413        4.8500        9.2913       0.399241       0.00633
   9     480.5        8.8395        4.7117        4.4990        9.2107       0.371143       0.00552
   8     533.0        8.7791        5.0198        4.0999        9.1196       0.340536       0.00492
   7     589.8        8.7193        5.3232        3.7070        9.0302       0.310926       0.00440
   6     651.6        8.6611        5.6183        3.3248        8.9431       0.281981       0.00396
   5     718.7        8.6049        5.9035        2.9551        8.8586       0.253655       0.00356
   4     792.3        8.5516        6.1752        2.6023        8.7776       0.225952       0.00318
   3     825.4        7.3968        7.5926        0.0001        7.5927       0.195934       0.00766
   2     858.4        6.7666        6.9374        0.0000        6.9374       0.170755       0.00643
   1     891.5        6.2172        6.3661        0.0000        6.3661       0.148964       0.00556
   0    1013.0        6.2184        6.3446        0.0000        6.3446       0.126258       0.00158



 Wavenumbers: 38000. - 50000. cm-1, ATM      1
 LEVEL PRESSURE   UPWARD FLUX   DIFDOWN FLUX  DIRDOWN FLUX  DOWNWARD FLUX   NET FLUX    HEATING RATE
          mb          W/m2          W/m2          W/m2        W/m2          W/m2       degree/day
  51    .06700        0.0061        0.0000        1.2836        1.2836       1.277566       0.00000
  50    .07753        0.0060        0.0001        1.2812        1.2812       1.275231       1.87147
  49    .09103        0.0059        0.0002        1.2777        1.2778       1.271899       2.08243
  48    0.1069        0.0058        0.0002        1.2731        1.2734       1.267521       2.33056
  47    0.1255        0.0058        0.0004        1.2672        1.2675       1.261766       2.60905
  46    0.1487        0.0056        0.0005        1.2586        1.2591       1.253440       3.03495
  45    0.1794        0.0055        0.0007        1.2455        1.2462       1.240672       3.50516
  44    0.2165        0.0053        0.0009        1.2282        1.2291       1.223746       3.85033
  43    0.2613        0.0051        0.0011        1.2054        1.2065       1.201398       4.21256
  42    0.3336        0.0048        0.0015        1.1639        1.1654       1.160574       4.75965
  41    0.4307        0.0044        0.0020        1.1051        1.1070       1.102615       5.03937
  40    0.5894        0.0039        0.0026        1.0039        1.0064       1.002575       5.32000
  39     1.339        0.0022        0.0035        0.5438        0.5473       0.545166       5.14960
  38     1.782        0.0016        0.0032        0.3635        0.3666       0.365077       3.42860
  37     2.292        0.0011        0.0027        0.2356        0.2383       0.237147       2.11885
  36     5.035        0.0007        0.0019        0.1180        0.1199       0.119172       0.36298
  35     6.613        0.0004        0.0013        0.0504        0.0516       0.051220       0.36327
  34     8.786        0.0002        0.0009        0.0239        0.0248       0.024556       0.10355
  33     11.80        0.0001        0.0006        0.0105        0.0110       0.010913       0.03820
  32     15.07        0.0001        0.0004        0.0048        0.0052       0.005151       0.01488
  31     18.79        0.0000        0.0002        0.0022        0.0024       0.002406       0.00622
  30     23.16        0.0000        0.0001        0.0010        0.0011       0.001079       0.00257
  29     28.12        0.0000        0.0001        0.0004        0.0005       0.000469       0.00104
  28     33.73        0.0000        0.0000        0.0002        0.0002       0.000205       0.00040
  27     40.54        0.0000        0.0000        0.0001        0.0001       0.000083       0.00015
  26     48.69        0.0000        0.0000        0.0000        0.0000       0.000031       0.00005
  25     57.69        0.0000        0.0000        0.0000        0.0000       0.000011       0.00002
  24     68.43        0.0000        0.0000        0.0000        0.0000       0.000004       0.00001
  23     81.20        0.0000        0.0000        0.0000        0.0000       0.000001       0.00000
  22     96.49        0.0000        0.0000        0.0000        0.0000       0.000000       0.00000
  21     114.6        0.0000        0.0000        0.0000        0.0000       0.000000       0.00000
  20     136.5        0.0000        0.0000        0.0000        0.0000       0.000000       0.00000
  19     162.9        0.0000        0.0000        0.0000        0.0000       0.000000       0.00000
  18     196.4        0.0000        0.0000        0.0000        0.0000       0.000000       0.00000
  17     218.7        0.0000        0.0000        0.0000        0.0000       0.000000       0.00000
  16     243.0        0.0000        0.0000        0.0000        0.0000       0.000000       0.00000
  15     269.0        0.0000        0.0000        0.0000        0.0000       0.000000       0.00000
  14     297.5        0.0000        0.0000        0.0000        0.0000       0.000000       0.00000
  13     328.5        0.0000        0.0000        0.0000        0.0000       0.000000       0.00000
  12     361.9        0.0000        0.0000        0.0000        0.0000       0.000000       0.00000
  11     398.1        0.0000        0.0000        0.0000        0.0000       0.000000       0.00000
  10     437.6        0.0000        0.0000        0.0000        0.0000       0.000000       0.00000
   9     480.5        0.0000        0.0000        0.0000        0.0000       0.000000       0.00000
   8     533.0        0.0000        0.0000        0.0000        0.0000       0.000000       0.00000
   7     589.8        0.0000        0.0000        0.0000        0.0000       0.000000       0.00000
   6     651.6        0.0000        0.0000        0.0000        0.0000       0.000000       0.00000
   5     718.7        0.0000        0.0000        0.0000        0.0000       0.000000       0.00000
   4     792.3        0.0000        0.0000        0.0000        0.0000       0.000000       0.00000
   3     825.4        0.0000        0.0000        0.0000        0.0000       0.000000       0.00000
   2     858.4        0.0000        0.0000        0.0000        0.0000       0.000000       0.00000
   1     891.5        0.0000        0.0000        0.0000        0.0000       0.000000       0.00000
   0    1013.0        0.0000        0.0000        0.0000        0.0000       0.000000       0.00000



 Wavenumbers:   820. -  2600. cm-1, ATM      1
 LEVEL PRESSURE   UPWARD FLUX   DIFDOWN FLUX  DIRDOWN FLUX  DOWNWARD FLUX   NET FLUX    HEATING RATE
          mb          W/m2          W/m2          W/m2        W/m2          W/m2       degree/day
  51    .06700        1.5874        0.0000        6.0047        6.0047       4.417231       0.00000
  50    .07753        1.5874        0.0000        6.0008        6.0008       4.413378       3.08825
  49    .09103        1.5874        0.0000        5.9999        5.9999       4.412492       0.55362
  48    0.1069        1.5874        0.0000        5.9989        5.9989       4.411503       0.52656
  47    0.1255        1.5874        0.0000        5.9978        5.9978       4.410386       0.50654
  46    0.1487        1.5874        0.0000        5.9964        5.9964       4.409029       0.49461
  45    0.1794        1.5874        0.0000        5.9947        5.9947       4.407309       0.47204
  44    0.2165        1.5874        0.0000        5.9929        5.9929       4.405467       0.41915
  43    0.2613        1.5874        0.0000        5.9909        5.9909       4.403507       0.36938
  42    0.3336        1.5874        0.0000        5.9880        5.9880       4.400629       0.33561
  41    0.4307        1.5874        0.0000        5.9846        5.9846       4.397159       0.30170
  40    0.5894        1.5874        0.0000        5.9791        5.9791       4.391652       0.29281
  39     1.339        1.5874        0.0000        5.9536        5.9536       4.366160       0.28700
  38     1.782        1.5874        0.0000        5.9395        5.9395       4.352019       0.26923
  37     2.292        1.5874        0.0000        5.9237        5.9237       4.336264       0.26094
  36     5.035        1.5874        0.0000        5.8954        5.8954       4.307990       0.08699
  35     6.613        1.5875        0.0000        5.8469        5.8469       4.259482       0.25933
  34     8.786        1.5875        0.0000        5.7915        5.7915       4.204034       0.21534
  33     11.80        1.5875        0.0000        5.7245        5.7245       4.136957       0.18780
  32     15.07        1.5875        0.0000        5.6684        5.6684       4.080903       0.14472
  31     18.79        1.5876        0.0000        5.6231        5.6231       4.035479       0.10299
  30     23.16        1.5876        0.0000        5.5871        5.5871       3.999478       0.06961
  29     28.12        1.5877        0.0000        5.5583        5.5583       3.970630       0.04904
  28     33.73        1.5877        0.0000        5.5327        5.5328       3.945032       0.03849
  27     40.54        1.5878        0.0000        5.5051        5.5051       3.917288       0.03442
  26     48.69        1.5879        0.0000        5.4733        5.4733       3.885481       0.03291
  25     57.69        1.5879        0.0000        5.4393        5.4394       3.851415       0.03193
  24     68.43        1.5880        0.0000        5.3998        5.3999       3.811815       0.03113
  23     81.20        1.5882        0.0000        5.3545        5.3546       3.766401       0.03001
  22     96.49        1.5883        0.0000        5.3027        5.3028       3.714442       0.02868
  21     114.6        1.5885        0.0000        5.2431        5.2431       3.654601       0.02794
  20     136.5        1.5887        0.0000        5.1754        5.1755       3.586739       0.02609
  19     162.9        1.5891        0.0000        5.0924        5.0924       3.503335       0.02666
  18     196.4        1.5896        0.0000        4.9695        4.9695       3.379902       0.03107
  17     218.7        1.5902        0.0000        4.8606        4.8606       3.270452       0.04155
  16     243.0        1.5911        0.0000        4.7093        4.7093       3.118282       0.05278
  15     269.0        1.5924        0.0000        4.5352        4.5352       2.942814       0.05692
  14     297.5        1.5945        0.0000        4.3425        4.3426       2.748095       0.05775
  13     328.5        1.5973        0.0000        4.1286        4.1286       2.531334       0.05894
  12     361.9        1.6011        0.0000        3.8790        3.8791       2.278015       0.06409
  11     398.1        1.6059        0.0000        3.6162        3.6163       2.010329       0.06237
  10     437.6        1.6122        0.0000        3.3761        3.3761       1.763880       0.05269
   9     480.5        1.6200        0.0000        3.1959        3.1960       1.575993       0.03690
   8     533.0        1.6317        0.0000        3.0468        3.0468       1.415135       0.02588
   7     589.8        1.6491        0.0001        2.9024        2.9024       1.253381       0.02401
   6     651.6        1.6793        0.0001        2.7184        2.7185       1.039193       0.02929
   5     718.7        1.7317        0.0001        2.5059        2.5059       0.774191       0.03330
   4     792.3        1.8336        0.0001        2.2757        2.2757       0.442138       0.03808
   3     825.4        0.6299        0.7980        0.0001        0.7981       0.168161       0.06993
   2     858.4        0.2616        0.3427        0.0000        0.3427       0.081143       0.02221
   1     891.5        0.0588        0.1090        0.0000        0.1090       0.050236       0.00789
   0    1013.0        0.0682        0.0934        0.0000        0.0934       0.025228       0.00174

  Modules and versions used in this calculation:

       rrtmg_sw.1col.f90:  $Revision$                    rrtmg_sw_init.f90:  $Revision$        
     rrtmgsw_cldprop.f90:  $Revision$                  rrtmgsw_cldprmc.f90:  NOT USED          
     rrtmg_sw_reftra.f90:  $Revision$                  rrtmg_sw_spcvrt.f90:  NOT USED          
     rrtmg_sw_spcvmc.f90:  NOT USED                    rrtmgsw_setcoef.f90:  NOT USED          
     rrtmg_sw_taumol.f90:  $Revision$                  rrtmg_sw_vrtqdr.f90:  NOT USED          
                rrtatm.f:  NOT USED                             util_xxx.f:  NOT USED          
                 extra.f:  NOT USED                       rrtmg_sw_k_g.f90:  $Revision$        

