

 Wavenumbers:   820. - 50000. cm-1, ATM      1
 LEVEL PRESSURE   UPWARD FLUX   DIFDOWN FLUX  DIRDOWN FLUX  DOWNWARD FLUX   NET FLUX    HEATING RATE
          mb          W/m2          W/m2          W/m2        W/m2          W/m2       degree/day
  51    .06700      433.4172        0.0000      617.8126      617.8126     184.395344       0.00000
  50    .07753      433.4169        0.0013      617.7947      617.7961     184.379203      12.93722
  49    .09103      433.4164        0.0030      617.7778      617.7808     184.364393       9.25709
  48    0.1069      433.4159        0.0050      617.7581      617.7631     184.347130       9.18888
  47    0.1255      433.4154        0.0072      617.7340      617.7412     184.325784       9.67710
  46    0.1487      433.4148        0.0100      617.7009      617.7109     184.296098      10.82110
  45    0.1794      433.4141        0.0139      617.6521      617.6660     184.251866      12.14273
  44    0.2165      433.4134        0.0184      617.5895      617.6079     184.194544      13.03979
  43    0.2613      433.4126        0.0238      617.5089      617.5327     184.120030      14.04543
  42    0.3336      433.4118        0.0326      617.3641      617.3967     183.984946      15.74956
  41    0.4307      433.4110        0.0442      617.1591      617.2033     183.792324      16.74802
  40    0.5894      433.4108        0.0629      616.8005      616.8634     183.452638      18.06404
  39     1.339      433.4278        0.1477      614.9443      615.0919     181.664118      20.13549
  38     1.782      433.4504        0.1954      613.9670      614.1624     180.711966      18.12744
  37     2.292      433.4880        0.2496      613.0059      613.2555     179.767540      15.64217
  36     5.035      433.5991        0.3421      611.5124      611.8545     178.255407       4.65243
  35     6.613      433.8393        0.5053      609.6144      610.1198     176.280493      10.55789
  34     8.786      434.1527        0.7244      607.8253      608.5497     174.397030       7.31469
  33     11.80      434.5587        1.0358      605.8783      606.9141     172.355451       5.71578
  32     15.07      434.9451        1.3677      604.1777      605.5454     170.600375       4.53127
  31     18.79      435.3372        1.7408      602.5196      604.2604     168.923195       3.80268
  30     23.16      435.7441        2.1742      600.8127      602.9868     167.242681       3.24957
  29     28.12      436.1496        2.6672      599.0712      601.7383     165.588782       2.81152
  28     33.73      436.5155        3.2166      597.3500      600.5667     164.051177       2.31183
  27     40.54      436.8553        3.8779      595.5035      599.3814     162.526136       1.89199
  26     48.69      437.1659        4.6713      593.4958      598.1670     161.001177       1.57809
  25     57.69      437.4109        5.5383      591.4872      597.0256     159.614672       1.29964
  24     68.43      437.5984        6.5653      589.2939      595.8593     158.260889       1.06425
  23     81.20      437.6767        7.7828      586.9289      594.7118     157.035091       0.80999
  22     96.49      437.6355        9.2241      584.3423      593.5664     155.930989       0.60939
  21     114.6      437.5328       10.9196      581.4033      592.3228     154.790041       0.53274
  20     136.5      437.3672       12.9046      578.0541      590.9587     153.591507       0.46086
  19     162.9      437.1327       15.2337      574.1654      589.3992     152.266499       0.42353
  18     196.4      436.7424       18.2037      569.1760      587.3797     150.637299       0.41009
  17     218.7      436.4583       20.1237      565.6314      585.7551     149.296800       0.50894
  16     243.0      436.1419       22.1829      561.3129      583.4958     147.353858       0.67388
  15     269.0      435.7945       24.3826      555.9478      580.3304     144.535928       0.91412
  14     297.5      435.4211       26.7234      549.5394      576.2628     140.841739       1.09566
  13     328.5      435.0314       29.2118      542.6225      571.8343     136.802819       1.09817
  12     361.9      434.6330       31.8439      535.1469      566.9908     132.357826       1.12463
  11     398.1      434.2357       34.6242      526.9326      561.5568     127.321151       1.17343
  10     437.6      433.8599       37.5513      517.8921      555.4434     121.583534       1.22674
   9     480.5      433.5271       40.6232      508.2121      548.8353     115.308178       1.23246
   8     533.0      433.2482       44.3158      496.3783      540.6941     107.445939       1.26478
   7     589.8      433.1851       48.1899      483.5433      531.7331      98.548010       1.32074
   6     651.6      433.6076       52.2324      469.1414      521.3739      87.766233       1.47444
   5     718.7      434.8872       56.4353      453.6623      510.0976      75.210396       1.57792
   4     792.3      437.9911       60.7762      436.9145      497.6908      59.699614       1.77891
   3     825.4      324.6813      349.3831       18.9863      368.3694      43.688095       4.08685
   2     858.4      285.4665      321.1188        1.0385      322.1573      36.690790       1.78618
   1     891.5      253.0571      285.6980        0.0571      285.7551      32.698018       1.01953
   0    1013.0      254.9819      282.5293        0.0544      282.5836      27.601716       0.35386



 Wavenumbers:  2600. -  3250. cm-1, ATM      1
 LEVEL PRESSURE   UPWARD FLUX   DIFDOWN FLUX  DIRDOWN FLUX  DOWNWARD FLUX   NET FLUX    HEATING RATE
          mb          W/m2          W/m2          W/m2        W/m2          W/m2       degree/day
  51    .06700        1.7601        0.0000        5.4450        5.4450       3.684969       0.00000
  50    .07753        1.7601        0.0000        5.4450        5.4450       3.684961       0.00640
  49    .09103        1.7601        0.0000        5.4450        5.4450       3.684951       0.00627
  48    0.1069        1.7601        0.0000        5.4450        5.4450       3.684940       0.00613
  47    0.1255        1.7601        0.0000        5.4450        5.4450       3.684927       0.00599
  46    0.1487        1.7601        0.0000        5.4450        5.4450       3.684910       0.00608
  45    0.1794        1.7601        0.0000        5.4450        5.4450       3.684887       0.00625
  44    0.2165        1.7601        0.0000        5.4449        5.4449       3.684860       0.00612
  43    0.2613        1.7601        0.0000        5.4449        5.4449       3.684829       0.00600
  42    0.3336        1.7601        0.0000        5.4448        5.4448       3.684776       0.00617
  41    0.4307        1.7601        0.0000        5.4448        5.4448       3.684704       0.00620
  40    0.5894        1.7601        0.0000        5.4446        5.4446       3.684585       0.00637
  39     1.339        1.7601        0.0000        5.4439        5.4439       3.683877       0.00797
  38     1.782        1.7601        0.0000        5.4434        5.4434       3.683334       0.01034
  37     2.292        1.7601        0.0000        5.4427        5.4427       3.682618       0.01186
  36     5.035        1.7601        0.0000        5.4412        5.4412       3.681091       0.00470
  35     6.613        1.7601        0.0000        5.4381        5.4381       3.678014       0.01645
  34     8.786        1.7601        0.0000        5.4341        5.4341       3.674007       0.01556
  33     11.80        1.7601        0.0000        5.4288        5.4288       3.668760       0.01469
  32     15.07        1.7601        0.0000        5.4239        5.4239       3.663833       0.01272
  31     18.79        1.7601        0.0000        5.4191        5.4192       3.659088       0.01076
  30     23.16        1.7601        0.0000        5.4144        5.4144       3.654338       0.00918
  29     28.12        1.7601        0.0000        5.4096        5.4096       3.649503       0.00822
  28     33.73        1.7601        0.0000        5.4042        5.4042       3.644136       0.00807
  27     40.54        1.7601        0.0000        5.3972        5.3972       3.637107       0.00872
  26     48.69        1.7601        0.0000        5.3877        5.3877       3.627567       0.00987
  25     57.69        1.7602        0.0000        5.3759        5.3759       3.615726       0.01110
  24     68.43        1.7602        0.0000        5.3604        5.3604       3.600167       0.01223
  23     81.20        1.7603        0.0000        5.3405        5.3405       3.580239       0.01317
  22     96.49        1.7604        0.0000        5.3159        5.3159       3.555543       0.01363
  21     114.6        1.7605        0.0001        5.2857        5.2857       3.525174       0.01418
  20     136.5        1.7607        0.0001        5.2507        5.2508       3.490037       0.01351
  19     162.9        1.7610        0.0001        5.2113        5.2114       3.450378       0.01268
  18     196.4        1.7615        0.0001        5.1642        5.1643       3.402788       0.01198
  17     218.7        1.7620        0.0001        5.1333        5.1334       3.371343       0.01194
  16     243.0        1.7628        0.0001        5.0963        5.0964       3.333600       0.01309
  15     269.0        1.7641        0.0001        5.0512        5.0513       3.287178       0.01506
  14     297.5        1.7661        0.0001        4.9957        4.9958       3.229741       0.01704
  13     328.5        1.7688        0.0001        4.9304        4.9306       3.161800       0.01847
  12     361.9        1.7725        0.0001        4.8511        4.8513       3.078815       0.02100
  11     398.1        1.7776        0.0002        4.7507        4.7509       2.973283       0.02459
  10     437.6        1.7847        0.0002        4.6221        4.6222       2.837537       0.02902
   9     480.5        1.7945        0.0002        4.4625        4.4627       2.668144       0.03327
   8     533.0        1.8106        0.0002        4.2461        4.2463       2.435684       0.03740
   7     589.8        1.8350        0.0002        3.9954        3.9956       2.160600       0.04083
   6     651.6        1.8754        0.0002        3.7089        3.7091       1.833700       0.04470
   5     718.7        1.9420        0.0002        3.4018        3.4020       1.459992       0.04696
   4     792.3        2.0631        0.0002        3.0564        3.0567       0.993563       0.05349
   3     825.4        1.0175        1.4282        0.1187        1.5469       0.529330       0.11849
   2     858.4        0.6451        0.9876        0.0060        0.9936       0.348488       0.04616
   1     891.5        0.3839        0.6422        0.0003        0.6425       0.258593       0.02295
   0    1013.0        0.4216        0.5773        0.0003        0.5776       0.155939       0.00713



 Wavenumbers:  3250. -  4000. cm-1, ATM      1
 LEVEL PRESSURE   UPWARD FLUX   DIFDOWN FLUX  DIRDOWN FLUX  DOWNWARD FLUX   NET FLUX    HEATING RATE
          mb          W/m2          W/m2          W/m2        W/m2          W/m2       degree/day
  51    .06700        0.0410        0.0000        9.1795        9.1795       9.138514       0.00000
  50    .07753        0.0410        0.0000        9.1747        9.1747       9.133671       3.88162
  49    .09103        0.0410        0.0000        9.1713        9.1713       9.130283       2.11758
  48    0.1069        0.0410        0.0000        9.1688        9.1688       9.127758       1.34411
  47    0.1255        0.0410        0.0000        9.1665        9.1665       9.125498       1.02430
  46    0.1487        0.0410        0.0000        9.1641        9.1641       9.123057       0.88998
  45    0.1794        0.0410        0.0000        9.1612        9.1612       9.120179       0.79014
  44    0.2165        0.0410        0.0000        9.1583        9.1583       9.117258       0.66436
  43    0.2613        0.0410        0.0000        9.1553        9.1553       9.114285       0.56046
  42    0.3336        0.0410        0.0000        9.1511        9.1511       9.110105       0.48727
  41    0.4307        0.0410        0.0000        9.1464        9.1464       9.105337       0.41463
  40    0.5894        0.0410        0.0000        9.1393        9.1393       9.098331       0.37258
  39     1.339        0.0410        0.0000        9.1127        9.1127       9.071715       0.29965
  38     1.782        0.0410        0.0000        9.1011        9.1011       9.060126       0.22064
  37     2.292        0.0410        0.0000        9.0901        9.0901       9.049058       0.18331
  36     5.035        0.0410        0.0000        9.0731        9.0731       9.032126       0.05210
  35     6.613        0.0410        0.0000        9.0438        9.0439       9.002845       0.15653
  34     8.786        0.0410        0.0000        9.0058        9.0058       8.964760       0.14791
  33     11.80        0.0410        0.0000        8.9509        8.9509       8.909889       0.15362
  32     15.07        0.0410        0.0000        8.8914        8.8914       8.850410       0.15356
  31     18.79        0.0410        0.0000        8.8241        8.8242       8.783175       0.15244
  30     23.16        0.0410        0.0000        8.7473        8.7474       8.706363       0.14853
  29     28.12        0.0410        0.0000        8.6639        8.6640       8.622981       0.14174
  28     33.73        0.0410        0.0000        8.5784        8.5784       8.537470       0.12857
  27     40.54        0.0410        0.0001        8.4859        8.4860       8.444997       0.11472
  26     48.69        0.0410        0.0001        8.3873        8.3873       8.346373       0.10206
  25     57.69        0.0409        0.0001        8.2887        8.2888       8.247823       0.09238
  24     68.43        0.0409        0.0001        8.1771        8.1772       8.136306       0.08767
  23     81.20        0.0409        0.0001        8.0474        8.0475       8.006586       0.08572
  22     96.49        0.0409        0.0001        7.8963        7.8965       7.855573       0.08335
  21     114.6        0.0409        0.0001        7.7173        7.7174       7.676563       0.08359
  20     136.5        0.0409        0.0002        7.5201        7.5203       7.479448       0.07580
  19     162.9        0.0408        0.0002        7.2919        7.2921       7.251317       0.07292
  18     196.4        0.0408        0.0002        6.9664        6.9666       6.925805       0.08194
  17     218.7        0.0408        0.0002        6.6650        6.6652       6.624451       0.11441
  16     243.0        0.0408        0.0002        6.2620        6.2622       6.221474       0.13977
  15     269.0        0.0408        0.0003        5.7575        5.7578       5.716986       0.16365
  14     297.5        0.0409        0.0003        5.1717        5.1720       5.131100       0.17377
  13     328.5        0.0410        0.0002        4.5755        4.5757       4.534713       0.16216
  12     361.9        0.0412        0.0002        3.9992        3.9995       3.958224       0.14586
  11     398.1        0.0416        0.0002        3.4651        3.4653       3.423704       0.12453
  10     437.6        0.0423        0.0002        2.9736        2.9738       2.931533       0.10523
   9     480.5        0.0434        0.0002        2.5303        2.5305       2.487025       0.08730
   8     533.0        0.0456        0.0002        2.0610        2.0612       2.015564       0.07584
   7     589.8        0.0496        0.0002        1.6146        1.6148       1.565191       0.06685
   6     651.6        0.0579        0.0001        1.1562        1.1563       1.098384       0.06384
   5     718.7        0.0763        0.0001        0.7388        0.7389       0.662612       0.05476
   4     792.3        0.1252        0.0001        0.3984        0.3984       0.273171       0.04466
   3     825.4        0.0123        0.0431        0.0055        0.0486       0.036329       0.06045
   2     858.4        0.0018        0.0073        0.0001        0.0074       0.005641       0.00783
   1     891.5        0.0000        0.0010        0.0000        0.0010       0.001030       0.00118
   0    1013.0        0.0001        0.0001        0.0000        0.0001       0.000029       0.00007



 Wavenumbers:  4000. -  4650. cm-1, ATM      1
 LEVEL PRESSURE   UPWARD FLUX   DIFDOWN FLUX  DIRDOWN FLUX  DOWNWARD FLUX   NET FLUX    HEATING RATE
          mb          W/m2          W/m2          W/m2        W/m2          W/m2       degree/day
  51    .06700        6.0824        0.0000       10.7795       10.7795       4.697108       0.00000
  50    .07753        6.0824        0.0000       10.7795       10.7795       4.697107       0.00080
  49    .09103        6.0824        0.0000       10.7795       10.7795       4.697106       0.00078
  48    0.1069        6.0824        0.0000       10.7795       10.7795       4.697104       0.00076
  47    0.1255        6.0824        0.0000       10.7795       10.7795       4.697103       0.00075
  46    0.1487        6.0824        0.0000       10.7795       10.7795       4.697101       0.00076
  45    0.1794        6.0824        0.0000       10.7795       10.7795       4.697098       0.00078
  44    0.2165        6.0824        0.0000       10.7795       10.7795       4.697094       0.00076
  43    0.2613        6.0824        0.0000       10.7795       10.7795       4.697090       0.00075
  42    0.3336        6.0824        0.0000       10.7795       10.7795       4.697084       0.00077
  41    0.4307        6.0824        0.0000       10.7795       10.7795       4.697075       0.00077
  40    0.5894        6.0824        0.0000       10.7795       10.7795       4.697060       0.00080
  39     1.339        6.0824        0.0000       10.7794       10.7794       4.696970       0.00101
  38     1.782        6.0824        0.0000       10.7793       10.7793       4.696901       0.00133
  37     2.292        6.0824        0.0000       10.7792       10.7792       4.696806       0.00156
  36     5.035        6.0824        0.0000       10.7790       10.7790       4.696598       0.00064
  35     6.613        6.0824        0.0000       10.7785       10.7786       4.696144       0.00242
  34     8.786        6.0824        0.0000       10.7779       10.7779       4.695475       0.00260
  33     11.80        6.0824        0.0000       10.7768       10.7768       4.694423       0.00295
  32     15.07        6.0824        0.0001       10.7755       10.7756       4.693188       0.00319
  31     18.79        6.0824        0.0001       10.7740       10.7741       4.691693       0.00339
  30     23.16        6.0824        0.0001       10.7722       10.7723       4.689837       0.00359
  29     28.12        6.0824        0.0001       10.7699       10.7700       4.687589       0.00382
  28     33.73        6.0825        0.0002       10.7671       10.7673       4.684815       0.00417
  27     40.54        6.0825        0.0002       10.7633       10.7635       4.681051       0.00467
  26     48.69        6.0825        0.0002       10.7583       10.7586       4.676030       0.00520
  25     57.69        6.0826        0.0003       10.7524       10.7527       4.670072       0.00558
  24     68.43        6.0827        0.0003       10.7450       10.7453       4.662597       0.00588
  23     81.20        6.0829        0.0004       10.7359       10.7363       4.653381       0.00609
  22     96.49        6.0832        0.0005       10.7249       10.7253       4.642150       0.00620
  21     114.6        6.0836        0.0005       10.7111       10.7116       4.628080       0.00657
  20     136.5        6.0841        0.0007       10.6945       10.6952       4.611096       0.00653
  19     162.9        6.0849        0.0008       10.6744       10.6751       4.590221       0.00667
  18     196.4        6.0863        0.0009       10.6467       10.6476       4.561322       0.00727
  17     218.7        6.0875        0.0010       10.6258       10.6268       4.539265       0.00837
  16     243.0        6.0894        0.0012       10.5983       10.5995       4.510125       0.01011
  15     269.0        6.0921        0.0013       10.5613       10.5626       4.470539       0.01284
  14     297.5        6.0961        0.0014       10.5122       10.5136       4.417503       0.01573
  13     328.5        6.1016        0.0016       10.4501       10.4516       4.350064       0.01834
  12     361.9        6.1088        0.0017       10.3704       10.3721       4.263291       0.02195
  11     398.1        6.1178        0.0019       10.2679       10.2698       4.151979       0.02593
  10     437.6        6.1294        0.0020       10.1391       10.1412       4.011798       0.02997
   9     480.5        6.1441        0.0022        9.9878        9.9900       3.845928       0.03258
   8     533.0        6.1667        0.0024        9.7937        9.7962       3.629491       0.03482
   7     589.8        6.1992        0.0026        9.5752        9.5778       3.378583       0.03724
   6     651.6        6.2515        0.0028        9.2958        9.2987       3.047134       0.04533
   5     718.7        6.3390        0.0031        8.9267        8.9298       2.590811       0.05735
   4     792.3        6.5020        0.0032        8.4542        8.4575       1.955446       0.07287
   3     825.4        3.8175        4.7605        0.3576        5.1181       1.300634       0.16714
   2     858.4        2.7359        3.7512        0.0193        3.7705       1.034554       0.06792
   1     891.5        1.8520        2.7416        0.0011        2.7427       0.890669       0.03674
   0    1013.0        1.9199        2.6290        0.0010        2.6300       0.710098       0.01254



 Wavenumbers:  4650. -  5150. cm-1, ATM      1
 LEVEL PRESSURE   UPWARD FLUX   DIFDOWN FLUX  DIRDOWN FLUX  DOWNWARD FLUX   NET FLUX    HEATING RATE
          mb          W/m2          W/m2          W/m2        W/m2          W/m2       degree/day
  51    .06700        4.3330        0.0000       10.2033       10.2033       5.870390       0.00000
  50    .07753        4.3330        0.0000       10.2031       10.2031       5.870155       0.18901
  49    .09103        4.3330        0.0000       10.2028       10.2028       5.869860       0.18428
  48    0.1069        4.3330        0.0000       10.2025       10.2025       5.869523       0.17931
  47    0.1255        4.3330        0.0000       10.2021       10.2021       5.869139       0.17426
  46    0.1487        4.3330        0.0000       10.2016       10.2016       5.868658       0.17536
  45    0.1794        4.3330        0.0000       10.2010       10.2010       5.868007       0.17850
  44    0.2165        4.3330        0.0000       10.2002       10.2002       5.867248       0.17277
  43    0.2613        4.3330        0.0000       10.1993       10.1993       5.866362       0.16690
  42    0.3336        4.3330        0.0000       10.1979       10.1979       5.864930       0.16702
  41    0.4307        4.3330        0.0000       10.1960       10.1960       5.863089       0.16002
  40    0.5894        4.3330        0.0000       10.1932       10.1932       5.860215       0.15283
  39     1.339        4.3329        0.0000       10.1816       10.1816       5.848623       0.13050
  38     1.782        4.3329        0.0000       10.1760       10.1760       5.843094       0.10527
  37     2.292        4.3329        0.0000       10.1706       10.1706       5.837637       0.09038
  36     5.035        4.3329        0.0000       10.1630       10.1630       5.830051       0.02334
  35     6.613        4.3329        0.0000       10.1533       10.1533       5.820343       0.05190
  34     8.786        4.3330        0.0000       10.1442       10.1442       5.811250       0.03531
  33     11.80        4.3330        0.0001       10.1340       10.1341       5.801105       0.02840
  32     15.07        4.3330        0.0001       10.1237       10.1238       5.790835       0.02652
  31     18.79        4.3330        0.0001       10.1115       10.1117       5.778637       0.02766
  30     23.16        4.3331        0.0001       10.0961       10.0963       5.763176       0.02990
  29     28.12        4.3332        0.0002       10.0769       10.0771       5.743905       0.03276
  28     33.73        4.3333        0.0002       10.0536       10.0538       5.720596       0.03505
  27     40.54        4.3334        0.0003       10.0235       10.0238       5.690407       0.03745
  26     48.69        4.3336        0.0003        9.9852        9.9855       5.651857       0.03989
  25     57.69        4.3339        0.0004        9.9414        9.9418       5.607869       0.04123
  24     68.43        4.3343        0.0005        9.8884        9.8889       5.554565       0.04190
  23     81.20        4.3349        0.0005        9.8258        9.8263       5.491451       0.04170
  22     96.49        4.3356        0.0006        9.7537        9.7544       5.418730       0.04014
  21     114.6        4.3367        0.0008        9.6735        9.6743       5.337559       0.03790
  20     136.5        4.3382        0.0009        9.5870        9.5879       5.249731       0.03377
  19     162.9        4.3403        0.0011        9.4949        9.4960       5.155749       0.03004
  18     196.4        4.3434        0.0013        9.3889        9.3902       5.046733       0.02744
  17     218.7        4.3460        0.0014        9.3234        9.3248       4.978879       0.02576
  16     243.0        4.3492        0.0016        9.2524        9.2539       4.904734       0.02572
  15     269.0        4.3536        0.0017        9.1720        9.1737       4.820120       0.02745
  14     297.5        4.3597        0.0019        9.0765        9.0785       4.718715       0.03008
  13     328.5        4.3678        0.0021        8.9652        8.9673       4.599535       0.03240
  12     361.9        4.3781        0.0023        8.8351        8.8374       4.459301       0.03548
  11     398.1        4.3916        0.0025        8.6822        8.6847       4.293132       0.03871
  10     437.6        4.4090        0.0027        8.5030        8.5057       4.096610       0.04202
   9     480.5        4.4318        0.0029        8.2950        8.2979       3.866054       0.04528
   8     533.0        4.4665        0.0031        8.0210        8.0242       3.557609       0.04962
   7     589.8        4.5149        0.0034        7.7064        7.7098       3.194943       0.05383
   6     651.6        4.5864        0.0036        7.3413        7.3449       2.758499       0.05968
   5     718.7        4.6946        0.0038        6.9387        6.9425       2.247911       0.06417
   4     792.3        4.8672        0.0040        6.5066        6.5106       1.643423       0.06933
   3     825.4        2.7401        3.5231        0.2723        3.7954       1.055312       0.15011
   2     858.4        1.9091        2.6851        0.0144        2.6995       0.790407       0.06762
   1     891.5        1.2646        1.9103        0.0008        1.9111       0.646507       0.03674
   0    1013.0        1.3239        1.8128        0.0007        1.8135       0.489652       0.01089



 Wavenumbers:  5150. -  6150. cm-1, ATM      1
 LEVEL PRESSURE   UPWARD FLUX   DIFDOWN FLUX  DIRDOWN FLUX  DOWNWARD FLUX   NET FLUX    HEATING RATE
          mb          W/m2          W/m2          W/m2        W/m2          W/m2       degree/day
  51    .06700       10.5902        0.0000       25.5798       25.5798      14.989599       0.00000
  50    .07753       10.5902        0.0000       25.5798       25.5798      14.989560       0.03162
  49    .09103       10.5902        0.0000       25.5797       25.5797      14.989508       0.03210
  48    0.1069       10.5902        0.0000       25.5797       25.5797      14.989447       0.03261
  47    0.1255       10.5902        0.0000       25.5796       25.5796      14.989374       0.03311
  46    0.1487       10.5902        0.0000       25.5795       25.5795      14.989278       0.03488
  45    0.1794       10.5902        0.0000       25.5794       25.5794      14.989143       0.03713
  44    0.2165       10.5902        0.0000       25.5792       25.5792      14.988977       0.03769
  43    0.2613       10.5902        0.0000       25.5790       25.5790      14.988774       0.03826
  42    0.3336       10.5902        0.0000       25.5786       25.5786      14.988428       0.04043
  41    0.4307       10.5902        0.0000       25.5782       25.5782      14.987956       0.04097
  40    0.5894       10.5902        0.0000       25.5774       25.5774      14.987167       0.04198
  39     1.339       10.5902        0.0000       25.5735       25.5736      14.983363       0.04282
  38     1.782       10.5902        0.0001       25.5713       25.5714      14.981149       0.04217
  37     2.292       10.5902        0.0001       25.5688       25.5688      14.978641       0.04153
  36     5.035       10.5902        0.0001       25.5647       25.5647      14.974543       0.01261
  35     6.613       10.5902        0.0002       25.5576       25.5578      14.967556       0.03735
  34     8.786       10.5902        0.0002       25.5485       25.5487      14.958503       0.03516
  33     11.80       10.5903        0.0003       25.5362       25.5365      14.946258       0.03428
  32     15.07       10.5903        0.0004       25.5239       25.5243      14.933977       0.03171
  31     18.79       10.5904        0.0005       25.5110       25.5115      14.921138       0.02911
  30     23.16       10.5904        0.0007       25.4971       25.4977      14.907308       0.02674
  29     28.12       10.5905        0.0008       25.4824       25.4832      14.892724       0.02479
  28     33.73       10.5906        0.0010       25.4676       25.4686      14.877941       0.02223
  27     40.54       10.5908        0.0012       25.4514       25.4526      14.861766       0.02007
  26     48.69       10.5911        0.0015       25.4341       25.4355      14.844433       0.01794
  25     57.69       10.5915        0.0018       25.4169       25.4187      14.827213       0.01614
  24     68.43       10.5919        0.0021       25.3983       25.4004      14.808505       0.01471
  23     81.20       10.5925        0.0025       25.3779       25.3804      14.787913       0.01361
  22     96.49       10.5932        0.0030       25.3550       25.3579      14.764776       0.01277
  21     114.6       10.5941        0.0036       25.3288       25.3323      14.738263       0.01238
  20     136.5       10.5951        0.0042       25.2983       25.3026      14.707440       0.01185
  19     162.9       10.5965        0.0050       25.2537       25.2587      14.662259       0.01444
  18     196.4       10.5984        0.0061       25.1601       25.1662      14.567877       0.02376
  17     218.7       10.5997        0.0068       25.0164       25.0231      14.423415       0.05485
  16     243.0       10.6013        0.0074       24.7092       24.7167      14.115319       0.10686
  15     269.0       10.6035        0.0081       24.1621       24.1702      13.566775       0.17795
  14     297.5       10.6063        0.0088       23.4546       23.4634      12.857080       0.21049
  13     328.5       10.6100        0.0095       22.7357       22.7452      12.135121       0.19630
  12     361.9       10.6149        0.0102       21.9226       21.9328      11.317892       0.20677
  11     398.1       10.6214        0.0109       20.9941       21.0050      10.383540       0.21768
  10     437.6       10.6304        0.0115       19.9835       19.9950       9.364628       0.21785
   9     480.5       10.6427        0.0122       18.9485       18.9606       8.317888       0.20558
   8     533.0       10.6635        0.0129       17.7798       17.7926       7.129119       0.19124
   7     589.8       10.6970        0.0136       16.6727       16.6864       5.989379       0.16917
   6     651.6       10.7578        0.0144       15.6344       15.6488       4.891035       0.15020
   5     718.7       10.8687        0.0152       14.7739       14.7892       3.920412       0.12198
   4     792.3       11.0889        0.0162       14.0292       14.0454       2.956527       0.11055
   3     825.4        6.7652        8.2036        0.6000        8.8036       2.038396       0.23435
   2     858.4        4.9983        6.6529        0.0326        6.6855       1.687200       0.08965
   1     891.5        3.4966        5.0134        0.0018        5.0152       1.518581       0.04306
   0    1013.0        3.5690        4.8874        0.0017        4.8891       1.320048       0.01379



 Wavenumbers:  6150. -  7700. cm-1, ATM      1
 LEVEL PRESSURE   UPWARD FLUX   DIFDOWN FLUX  DIRDOWN FLUX  DOWNWARD FLUX   NET FLUX    HEATING RATE
          mb          W/m2          W/m2          W/m2        W/m2          W/m2       degree/day
  51    .06700       16.5692        0.0000       47.3109       47.3109      30.741659       0.00000
  50    .07753       16.5692        0.0000       47.3108       47.3108      30.741603       0.04553
  49    .09103       16.5692        0.0000       47.3107       47.3107      30.741529       0.04583
  48    0.1069       16.5692        0.0000       47.3106       47.3106      30.741443       0.04614
  47    0.1255       16.5692        0.0000       47.3105       47.3105      30.741340       0.04645
  46    0.1487       16.5692        0.0000       47.3104       47.3104      30.741207       0.04852
  45    0.1794       16.5692        0.0000       47.3102       47.3102      30.741020       0.05127
  44    0.2165       16.5692        0.0000       47.3100       47.3100      30.740793       0.05167
  43    0.2613       16.5692        0.0000       47.3097       47.3097      30.740517       0.05210
  42    0.3336       16.5692        0.0000       47.3092       47.3092      30.740048       0.05471
  41    0.4307       16.5692        0.0000       47.3085       47.3086      30.739413       0.05521
  40    0.5894       16.5692        0.0001       47.3074       47.3075      30.738353       0.05633
  39     1.339       16.5691        0.0002       47.3022       47.3024      30.733261       0.05733
  38     1.782       16.5691        0.0002       47.2991       47.2994      30.730291       0.05655
  37     2.292       16.5690        0.0003       47.2956       47.2959      30.726915       0.05591
  36     5.035       16.5690        0.0004       47.2899       47.2903      30.721339       0.01715
  35     6.613       16.5688        0.0006       47.2800       47.2806      30.711764       0.05119
  34     8.786       16.5687        0.0009       47.2670       47.2679      30.699220       0.04872
  33     11.80       16.5684        0.0013       47.2491       47.2504      30.681983       0.04826
  32     15.07       16.5682        0.0017       47.2308       47.2325      30.664359       0.04550
  31     18.79       16.5679        0.0022       47.2112       47.2134      30.645524       0.04271
  30     23.16       16.5675        0.0028       47.1895       47.1923      30.624747       0.04018
  29     28.12       16.5671        0.0034       47.1661       47.1695      30.602344       0.03808
  28     33.73       16.5667        0.0041       47.1416       47.1457      30.579005       0.03509
  27     40.54       16.5662        0.0050       47.1141       47.1191      30.552914       0.03237
  26     48.69       16.5655        0.0061       47.0837       47.0897      30.524175       0.02974
  25     57.69       16.5648        0.0072       47.0527       47.0599      30.495080       0.02727
  24     68.43       16.5640        0.0086       47.0183       47.0269      30.462841       0.02534
  23     81.20       16.5630        0.0102       46.9796       46.9898      30.426816       0.02380
  22     96.49       16.5619        0.0122       46.9356       46.9478      30.385912       0.02258
  21     114.6       16.5605        0.0145       46.8846       46.8992      30.338683       0.02205
  20     136.5       16.5588        0.0173       46.8250       46.8423      30.283432       0.02125
  19     162.9       16.5569        0.0206       46.7403       46.7609      30.204023       0.02538
  18     196.4       16.5546        0.0249       46.5732       46.5981      30.043527       0.04040
  17     218.7       16.5532        0.0276       46.3491       46.3767      29.823526       0.08353
  16     243.0       16.5520        0.0305       45.9309       45.9614      29.409357       0.14365
  15     269.0       16.5514        0.0334       45.1716       45.2049      28.653525       0.24519
  14     297.5       16.5520        0.0362       44.0121       44.0483      27.496234       0.34324
  13     328.5       16.5543        0.0391       42.7247       42.7638      26.209462       0.34987
  12     361.9       16.5591        0.0421       41.3543       41.3964      24.837265       0.34718
  11     398.1       16.5678        0.0450       39.7956       39.8406      23.272766       0.36449
  10     437.6       16.5828        0.0477       37.9951       38.0428      21.459972       0.38759
   9     480.5       16.6071        0.0503       36.0650       36.1153      19.508272       0.38331
   8     533.0       16.6530        0.0532       33.7776       33.8307      17.177762       0.37490
   7     589.8       16.7332        0.0557       31.4085       31.4642      14.730950       0.36319
   6     651.6       16.8881        0.0579       28.8836       28.9415      12.053384       0.36616
   5     718.7       17.1826        0.0598       26.4106       26.4704       9.287771       0.34756
   4     792.3       17.7989        0.0614       24.0058       24.0672       6.268301       0.34630
   3     825.4       10.1705       12.8467        0.9751       13.8218       3.651304       0.66797
   2     858.4        7.2470        9.9629        0.0515       10.0144       2.767384       0.22564
   1     891.5        4.9032        7.2540        0.0028        7.2568       2.353577       0.10566
   0    1013.0        5.0743        6.9485        0.0026        6.9511       1.876785       0.03311



 Wavenumbers:  7700. -  8050. cm-1, ATM      1
 LEVEL PRESSURE   UPWARD FLUX   DIFDOWN FLUX  DIRDOWN FLUX  DOWNWARD FLUX   NET FLUX    HEATING RATE
          mb          W/m2          W/m2          W/m2        W/m2          W/m2       degree/day
  51    .06700        7.8863        0.0000       11.1810       11.1810       3.294679       0.00000
  50    .07753        7.8863        0.0000       11.1809       11.1809       3.294656       0.01860
  49    .09103        7.8863        0.0000       11.1809       11.1809       3.294627       0.01823
  48    0.1069        7.8863        0.0000       11.1809       11.1809       3.294594       0.01784
  47    0.1255        7.8863        0.0000       11.1809       11.1809       3.294555       0.01746
  46    0.1487        7.8863        0.0000       11.1808       11.1808       3.294506       0.01772
  45    0.1794        7.8863        0.0000       11.1808       11.1808       3.294440       0.01823
  44    0.2165        7.8864        0.0000       11.1807       11.1807       3.294361       0.01789
  43    0.2613        7.8864        0.0000       11.1806       11.1806       3.294268       0.01755
  42    0.3336        7.8864        0.0000       11.1805       11.1805       3.294114       0.01796
  41    0.4307        7.8865        0.0000       11.1803       11.1804       3.293910       0.01776
  40    0.5894        7.8865        0.0000       11.1801       11.1801       3.293576       0.01774
  39     1.339        7.8869        0.0001       11.1788       11.1789       3.291998       0.01777
  38     1.782        7.8871        0.0001       11.1781       11.1782       3.291070       0.01766
  37     2.292        7.8873        0.0001       11.1772       11.1773       3.289997       0.01778
  36     5.035        7.8878        0.0002       11.1757       11.1759       3.288134       0.00573
  35     6.613        7.8885        0.0003       11.1731       11.1733       3.284826       0.01768
  34     8.786        7.8895        0.0004       11.1695       11.1699       3.280369       0.01731
  33     11.80        7.8910        0.0006       11.1644       11.1650       3.273996       0.01784
  32     15.07        7.8926        0.0008       11.1589       11.1597       3.267158       0.01765
  31     18.79        7.8943        0.0010       11.1528       11.1538       3.259439       0.01750
  30     23.16        7.8964        0.0013       11.1456       11.1468       3.250432       0.01742
  29     28.12        7.8988        0.0016       11.1374       11.1389       3.240145       0.01749
  28     33.73        7.9015        0.0019       11.1282       11.1301       3.228651       0.01728
  27     40.54        7.9047        0.0023       11.1172       11.1195       3.214790       0.01720
  26     48.69        7.9087        0.0028       11.1040       11.1068       3.198120       0.01725
  25     57.69        7.9130        0.0033       11.0896       11.0929       3.179860       0.01712
  24     68.43        7.9183        0.0040       11.0725       11.0765       3.158183       0.01704
  23     81.20        7.9245        0.0047       11.0523       11.0570       3.132462       0.01700
  22     96.49        7.9321        0.0056       11.0284       11.0340       3.101958       0.01684
  21     114.6        7.9411        0.0067       11.0004       11.0071       3.065943       0.01682
  20     136.5        7.9520        0.0080       10.9676       10.9755       3.023531       0.01631
  19     162.9        7.9651        0.0095       10.9290       10.9385       2.973394       0.01603
  18     196.4        7.9824        0.0114       10.8799       10.8914       2.908927       0.01623
  17     218.7        7.9940        0.0127       10.8482       10.8609       2.866871       0.01597
  16     243.0        8.0068        0.0141       10.8140       10.8281       2.821343       0.01579
  15     269.0        8.0209        0.0156       10.7774       10.7930       2.772131       0.01596
  14     297.5        8.0365        0.0172       10.7382       10.7554       2.718950       0.01577
  13     328.5        8.0537        0.0190       10.6962       10.7152       2.661419       0.01564
  12     361.9        8.0729        0.0209       10.6512       10.6721       2.599237       0.01573
  11     398.1        8.0942        0.0229       10.6031       10.6260       2.531797       0.01571
  10     437.6        8.1181        0.0251       10.5513       10.5764       2.458343       0.01570
   9     480.5        8.1449        0.0275       10.4956       10.5231       2.378161       0.01575
   8     533.0        8.1799        0.0303       10.4264       10.4568       2.276837       0.01630
   7     589.8        8.2207        0.0334       10.3500       10.3834       2.162684       0.01694
   6     651.6        8.2697        0.0367       10.2633       10.3001       2.030425       0.01809
   5     718.7        8.3297        0.0403       10.1637       10.2039       1.874288       0.01962
   4     792.3        8.4059        0.0440       10.0457       10.0897       1.683804       0.02185
   3     825.4        5.3401        6.3481        0.4519        6.8000       1.459889       0.05715
   2     858.4        3.9909        5.2740        0.0253        5.2993       1.308416       0.03867
   1     891.5        2.8152        4.0118        0.0014        4.0132       1.197982       0.02820
   0    1013.0        2.8711        3.9317        0.0014        3.9330       1.061920       0.00945



 Wavenumbers:  8050. - 12850. cm-1, ATM      1
 LEVEL PRESSURE   UPWARD FLUX   DIFDOWN FLUX  DIRDOWN FLUX  DOWNWARD FLUX   NET FLUX    HEATING RATE
          mb          W/m2          W/m2          W/m2        W/m2          W/m2       degree/day
  51    .06700      101.3589        0.0000      156.5418      156.5418      55.182808       0.00000
  50    .07753      101.3589        0.0000      156.5417      156.5417      55.182808      -0.00000
  49    .09103      101.3589        0.0001      156.5417      156.5417      55.182808       0.00000
  48    0.1069      101.3589        0.0001      156.5416      156.5417      55.182808       0.00000
  47    0.1255      101.3589        0.0002      156.5415      156.5417      55.182808      -0.00000
  46    0.1487      101.3589        0.0002      156.5414      156.5417      55.182808       0.00000
  45    0.1794      101.3588        0.0003      156.5413      156.5416      55.182808       0.00000
  44    0.2165      101.3588        0.0004      156.5412      156.5416      55.182808      -0.00000
  43    0.2613      101.3587        0.0006      156.5410      156.5415      55.182808       0.00000
  42    0.3336      101.3587        0.0008      156.5407      156.5415      55.182808       0.00000
  41    0.4307      101.3586        0.0011      156.5403      156.5414      55.182808      -0.00000
  40    0.5894      101.3584        0.0015      156.5397      156.5412      55.182808       0.00000
  39     1.339      101.3576        0.0037      156.5367      156.5404      55.182808      -0.00000
  38     1.782      101.3571        0.0050      156.5350      156.5400      55.182808       0.00000
  37     2.292      101.3566        0.0064      156.5330      156.5394      55.182808       0.00000
  36     5.035      101.3557        0.0090      156.5295      156.5385      55.182808      -0.00000
  35     6.613      101.3540        0.0136      156.5233      156.5368      55.182808       0.00000
  34     8.786      101.3518        0.0197      156.5149      156.5346      55.182808      -0.00000
  33     11.80      101.3486        0.0285      156.5029      156.5314      55.182808      -0.00000
  32     15.07      101.3452        0.0380      156.4901      156.5280      55.182808       0.00000
  31     18.79      101.3414        0.0487      156.4755      156.5242      55.182808      -0.00000
  30     23.16      101.3368        0.0612      156.4585      156.5196      55.182808       0.00000
  29     28.12      101.3317        0.0755      156.4390      156.5145      55.182808       0.00000
  28     33.73      101.3259        0.0915      156.4171      156.5087      55.182808      -0.00000
  27     40.54      101.3188        0.1109      156.3907      156.5017      55.182808       0.00000
  26     48.69      101.3104        0.1344      156.3588      156.4932      55.182808      -0.00000
  25     57.69      101.3010        0.1602      156.3237      156.4839      55.182808       0.00000
  24     68.43      101.2899        0.1909      156.2818      156.4727      55.182808      -0.00000
  23     81.20      101.2767        0.2276      156.2319      156.4595      55.182808       0.00000
  22     96.49      101.2608        0.2714      156.1722      156.4436      55.182808       0.00000
  21     114.6      101.2422        0.3235      156.0952      156.4187      55.176554       0.00292
  20     136.5      101.2200        0.3854      156.0034      156.3888      55.168799       0.00298
  19     162.9      101.1936        0.4593      155.8903      156.3496      55.155937       0.00411
  18     196.4      101.1595        0.5553      155.7272      156.2825      55.123009       0.00829
  17     218.7      101.1374        0.6185      155.5805      156.1990      55.061625       0.02331
  16     243.0      101.1144        0.6872      155.3439      156.0311      54.916700       0.05026
  15     269.0      101.0917        0.7614      154.9586      155.7201      54.628352       0.09354
  14     297.5      101.0718        0.8414      154.3968      155.2382      54.166456       0.13699
  13     328.5      101.0560        0.9276      153.7223      154.6499      53.593936       0.15567
  12     361.9      101.0475        1.0202      152.9159      153.9361      52.888594       0.17846
  11     398.1      101.0515        1.1192      151.9057      153.0249      51.973424       0.21321
  10     437.6      101.0770        1.2246      150.6102      151.8348      50.757759       0.25992
   9     480.5      101.1349        1.3360      149.0084      150.3444      49.209492       0.30407
   8     533.0      101.2640        1.4707      146.7445      148.2152      46.951212       0.36329
   7     589.8      101.5109        1.6120      143.8798      145.4918      43.980864       0.44090
   6     651.6      102.0074        1.7568      140.1022      141.8590      39.851664       0.56468
   5     718.7      102.9462        1.9039      135.5343      137.4381      34.491906       0.67357
   4     792.3      104.8078        2.0494      130.0753      132.1247      27.316911       0.82289
   3     825.4       64.0472       78.0245        5.6011       83.6255      19.578311       1.97523
   2     858.4       47.0554       63.0474        0.3050       63.3525      16.297091       0.83759
   1     891.5       32.6653       47.1998        0.0168       47.2166      14.551335       0.44577
   0    1013.0       33.4672       45.8297        0.0159       45.8455      12.378294       0.15089



 Wavenumbers: 12850. - 16000. cm-1, ATM      1
 LEVEL PRESSURE   UPWARD FLUX   DIFDOWN FLUX  DIRDOWN FLUX  DOWNWARD FLUX   NET FLUX    HEATING RATE
          mb          W/m2          W/m2          W/m2        W/m2          W/m2       degree/day
  51    .06700       76.8312        0.0000       98.0872       98.0872      21.255992       0.00000
  50    .07753       76.8312        0.0001       98.0864       98.0864      21.255201       0.63443
  49    .09103       76.8312        0.0002       98.0853       98.0854      21.254207       0.62134
  48    0.1069       76.8312        0.0003       98.0841       98.0843      21.253065       0.60801
  47    0.1255       76.8313        0.0004       98.0826       98.0830      21.251752       0.59496
  46    0.1487       76.8313        0.0005       98.0809       98.0814      21.250096       0.60374
  45    0.1794       76.8313        0.0007       98.0784       98.0792      21.247843       0.61855
  44    0.2165       76.8314        0.0010       98.0756       98.0766      21.245192       0.60294
  43    0.2613       76.8315        0.0012       98.0723       98.0736      21.242075       0.58755
  42    0.3336       76.8317        0.0017       98.0670       98.0687      21.236988       0.59316
  41    0.4307       76.8321        0.0023       98.0602       98.0625      21.230408       0.57205
  40    0.5894       76.8329        0.0033       98.0496       98.0529      21.220041       0.55133
  39     1.339       76.8394        0.0081       98.0043       98.0124      21.173065       0.52886
  38     1.782       76.8453        0.0109       97.9793       97.9902      21.144865       0.53688
  37     2.292       76.8542        0.0141       97.9498       97.9639      21.109744       0.58170
  36     5.035       76.8778        0.0197       97.8891       97.9089      21.031083       0.24202
  35     6.613       76.9274        0.0297       97.7746       97.8043      20.876894       0.82429
  34     8.786       76.9920        0.0431       97.6278       97.6709      20.678876       0.76903
  33     11.80       77.0761        0.0623       97.4339       97.4961      20.419991       0.72480
  32     15.07       77.1567        0.0828       97.2433       97.3261      20.169336       0.64714
  31     18.79       77.2391        0.1060       97.0439       97.1499      19.910746       0.58630
  30     23.16       77.3253        0.1331       96.8292       96.9622      19.636989       0.52936
  29     28.12       77.4120        0.1640       96.6048       96.7688      19.356762       0.47637
  28     33.73       77.4924        0.1986       96.3831       96.5817      19.089332       0.40209
  27     40.54       77.5700        0.2404       96.1494       96.3898      18.819803       0.33438
  26     48.69       77.6446        0.2908       95.9016       96.1925      18.547834       0.28144
  25     57.69       77.7084        0.3462       95.6629       96.0091      18.300766       0.23159
  24     68.43       77.7645        0.4122       95.4149       95.8271      18.062574       0.18725
  23     81.20       77.8043        0.4909       95.1674       95.6582      17.853974       0.13784
  22     96.49       77.8266        0.5848       94.9172       95.5020      17.675346       0.09859
  21     114.6       77.8527        0.6973       94.6421       95.3394      17.486728       0.08807
  20     136.5       77.8727        0.8307       94.3324       95.1631      17.290416       0.07549
  19     162.9       77.8865        0.9895       93.9750       94.9645      17.078070       0.06787
  18     196.4       77.8831        1.1955       93.5336       94.7292      16.846026       0.05841
  17     218.7       77.8735        1.3308       93.2498       94.5806      16.707166       0.05272
  16     243.0       77.8599        1.4778       92.9420       94.4198      16.559949       0.05106
  15     269.0       77.8425        1.6371       92.6087       94.2458      16.403349       0.05080
  14     297.5       77.8219        1.8093       92.2464       94.0557      16.233870       0.05027
  13     328.5       77.8002        1.9953       91.8517       93.8470      16.046832       0.05085
  12     361.9       77.7785        2.1955       91.4219       93.6174      15.838880       0.05261
  11     398.1       77.7585        2.4109       90.9524       93.3634      15.604917       0.05451
  10     437.6       77.7434        2.6422       90.4358       93.0780      15.334626       0.05779
   9     480.5       77.7366        2.8898       89.8659       92.7557      15.019124       0.06196
   8     533.0       77.7462        3.1942       89.1347       92.3289      14.582729       0.07020
   7     589.8       77.7898        3.5213       88.2943       91.8156      14.025755       0.08267
   6     651.6       77.9043        3.8707       87.2867       91.1574      13.253076       0.10567
   5     718.7       78.1177        4.2408       86.1028       90.3436      12.225888       0.12909
   4     792.3       78.5148        4.6279       84.6812       89.3090      10.794235       0.16419
   3     825.4       56.0542       61.2983        3.7786       65.0769       9.022689       0.45218
   2     858.4       47.6509       55.4048        0.2107       55.6155       7.964639       0.27009
   1     891.5       40.5325       47.7387        0.0118       47.7505       7.217952       0.19066
   0    1013.0       40.9778       47.1274        0.0114       47.1388       6.161044       0.07339



 Wavenumbers: 16000. - 22650. cm-1, ATM      1
 LEVEL PRESSURE   UPWARD FLUX   DIFDOWN FLUX  DIRDOWN FLUX  DOWNWARD FLUX   NET FLUX    HEATING RATE
          mb          W/m2          W/m2          W/m2        W/m2          W/m2       degree/day
  51    .06700      139.7771        0.0000      156.3892      156.3892      16.612146       0.00000
  50    .07753      139.7771        0.0004      156.3887      156.3891      16.611999       0.11780
  49    .09103      139.7771        0.0009      156.3879      156.3888      16.611785       0.13361
  48    0.1069      139.7770        0.0015      156.3871      156.3885      16.611499       0.15236
  47    0.1255      139.7771        0.0021      156.3861      156.3882      16.611116       0.17367
  46    0.1487      139.7771        0.0029      156.3847      156.3877      16.610551       0.20579
  45    0.1794      139.7772        0.0041      156.3828      156.3869      16.609668       0.24230
  44    0.2165      139.7774        0.0054      156.3805      156.3859      16.608471       0.27232
  43    0.2613      139.7778        0.0070      156.3776      156.3846      16.606847       0.30616
  42    0.3336      139.7785        0.0096      156.3726      156.3823      16.603759       0.36003
  41    0.4307      139.7797        0.0131      156.3657      156.3788      16.599104       0.40472
  40    0.5894      139.7822        0.0188      156.3537      156.3725      16.590227       0.47208
  39     1.339      139.8045        0.0457      156.2834      156.3291      16.524640       0.73839
  38     1.782      139.8251        0.0615      156.2324      156.2938      16.468768       1.06371
  37     2.292      139.8560        0.0798      156.1641      156.2439      16.387894       1.33950
  36     5.035      139.9391        0.1115      156.0076      156.1190      16.179967       0.63974
  35     6.613      140.1140        0.1677      155.6950      155.8627      15.748716       2.30547
  34     8.786      140.3417        0.2433      155.2860      155.5293      15.187574       2.17927
  33     11.80      140.6381        0.3514      154.7422      155.0936      14.455452       2.04971
  32     15.07      140.9220        0.4672      154.2059      154.6732      13.751199       1.81824
  31     18.79      141.2116        0.5979      153.6432      154.2411      13.029431       1.63647
  30     23.16      141.5143        0.7502      153.0352      153.7854      12.271067       1.46643
  29     28.12      141.8186        0.9241      152.3965      153.3206      11.501990       1.30738
  28     33.73      142.0993        1.1185      151.7604      152.8789      10.779626       1.08609
  27     40.54      142.3691        1.3532      151.0815      152.4347      10.065699       0.88571
  26     48.69      142.6268        1.6358      150.3500      151.9858       9.358929       0.73140
  25     57.69      142.8448        1.9458      149.6296      151.5754       8.730567       0.58900
  24     68.43      143.0342        2.3145      148.8604      151.1749       8.140724       0.46370
  23     81.20      143.1635        2.7535      148.0628      150.8163       7.652806       0.32241
  22     96.49      143.2282        3.2761      147.2220      150.4981       7.269928       0.21132
  21     114.6      143.2592        3.8947      146.2838      150.1785       6.919327       0.16371
  20     136.5      143.2649        4.6252      145.2142      149.8394       6.574440       0.13262
  19     162.9      143.2435        5.4909      143.9816      149.4725       6.228978       0.11042
  18     196.4      143.1547        6.6078      142.4652      149.0730       5.918285       0.07821
  17     218.7      143.0741        7.3377      141.5017      148.8393       5.765228       0.05811
  16     243.0      142.9763        8.1276      140.4717      148.5993       5.623072       0.04930
  15     269.0      142.8596        8.9798      139.3740      148.3538       5.494217       0.04180
  14     297.5      142.7234        9.8962      138.2062      148.1024       5.379033       0.03416
  13     328.5      142.5716       10.8812      136.9574      147.8386       5.266922       0.03048
  12     361.9      142.4041       11.9356      135.6265      147.5621       5.158015       0.02755
  11     398.1      142.2202       13.0635      134.2081      147.2716       5.051414       0.02484
  10     437.6      142.0210       14.2668      132.6981      146.9649       4.943969       0.02297
   9     480.5      141.8059       15.5478      131.0935      146.6413       4.835370       0.02133
   8     533.0      141.5415       17.1122      129.1351      146.2473       4.705823       0.02084
   7     589.8      141.2605       18.7836      127.0392      145.8228       4.562245       0.02131
   6     651.6      140.9695       20.5635      124.7944      145.3579       4.388414       0.02377
   5     718.7      140.6748       22.4537      122.3908      144.8445       4.169738       0.02748
   4     792.3      140.3934       24.4520      119.8121      144.2641       3.870730       0.03429
   3     825.4      118.4936      116.5978        5.3247      121.9225       3.428868       0.11278
   2     858.4      114.6648      117.4430        0.2951      117.7380       3.073257       0.09078
   1     891.5      111.9073      114.6462        0.0164      114.6626       2.755287       0.08119
   0    1013.0      112.1115      114.3720        0.0158      114.3878       2.276317       0.03326



 Wavenumbers: 22650. - 29000. cm-1, ATM      1
 LEVEL PRESSURE   UPWARD FLUX   DIFDOWN FLUX  DIRDOWN FLUX  DOWNWARD FLUX   NET FLUX    HEATING RATE
          mb          W/m2          W/m2          W/m2        W/m2          W/m2       degree/day
  51    .06700       58.0894        0.0000       59.0156       59.0156       0.926211       0.00000
  50    .07753       58.0893        0.0005       59.0151       59.0155       0.926211       0.00000
  49    .09103       58.0892        0.0010       59.0144       59.0154       0.926211      -0.00000
  48    0.1069       58.0891        0.0017       59.0136       59.0153       0.926211      -0.00000
  47    0.1255       58.0889        0.0025       59.0127       59.0151       0.926211       0.00000
  46    0.1487       58.0887        0.0034       59.0115       59.0149       0.926211      -0.00000
  45    0.1794       58.0885        0.0048       59.0099       59.0147       0.926211      -0.00000
  44    0.2165       58.0882        0.0063       59.0080       59.0144       0.926211       0.00000
  43    0.2613       58.0878        0.0082       59.0058       59.0140       0.926211      -0.00000
  42    0.3336       58.0872        0.0112       59.0022       59.0134       0.926211       0.00000
  41    0.4307       58.0864        0.0153       58.9973       59.0126       0.926211       0.00000
  40    0.5894       58.0851        0.0219       58.9894       59.0113       0.926211       0.00000
  39     1.339       58.0789        0.0533       58.9518       59.0051       0.926211      -0.00000
  38     1.782       58.0752        0.0717       58.9297       59.0014       0.926211       0.00000
  37     2.292       58.0710        0.0931       58.9042       58.9972       0.926211       0.00000
  36     5.035       58.0637        0.1301       58.8599       58.9899       0.926211      -0.00000
  35     6.613       58.0508        0.1957       58.7812       58.9770       0.926211      -0.00000
  34     8.786       58.0333        0.2841       58.6754       58.9595       0.926211       0.00000
  33     11.80       58.0084        0.4104       58.5242       58.9346       0.926211      -0.00000
  32     15.07       57.9816        0.5458       58.3621       58.9079       0.926211       0.00000
  31     18.79       57.9515        0.6984       58.1794       58.8777       0.926211       0.00000
  30     23.16       57.9164        0.8761       57.9665       58.8426       0.926211      -0.00000
  29     28.12       57.8763        1.0789       57.7237       58.8026       0.926211      -0.00000
  28     33.73       57.8317        1.3049       57.4530       58.7579       0.926211       0.00000
  27     40.54       57.7779        1.5769       57.1272       58.7041       0.926211       0.00000
  26     48.69       57.7134        1.9031       56.7366       58.6396       0.926211       0.00000
  25     57.69       57.6430        2.2592       56.3100       58.5692       0.926211      -0.00000
  24     68.43       57.5597        2.6803       55.8057       58.4859       0.926211      -0.00000
  23     81.20       57.4613        3.1775       55.2100       58.3875       0.926211       0.00000
  22     96.49       57.3452        3.7637       54.5077       58.2714       0.926211       0.00000
  21     114.6       57.2091        4.4508       53.6845       58.1353       0.926211       0.00000
  20     136.5       57.0501        5.2526       52.7236       57.9763       0.926211      -0.00000
  19     162.9       56.8640        6.1899       51.6003       57.7902       0.926211       0.00000
  18     196.4       56.6281        7.3773       50.1770       57.5543       0.926211       0.00000
  17     218.7       56.4763        8.1402       49.2623       57.4025       0.926211      -0.00000
  16     243.0       56.3141        8.9546       48.2857       57.2403       0.926211       0.00000
  15     269.0       56.1415        9.8201       47.2476       57.0677       0.926211       0.00000
  14     297.5       55.9587       10.7359       46.1491       56.8850       0.926211      -0.00000
  13     328.5       55.7654       11.7032       44.9884       56.6916       0.926211       0.00000
  12     361.9       55.5620       12.7194       43.7687       56.4882       0.926211       0.00000
  11     398.1       55.3484       13.7848       42.4898       56.2746       0.926211       0.00000
  10     437.6       55.1249       14.8970       41.1542       56.0511       0.926211      -0.00000
   9     480.5       54.8921       16.0536       39.7647       55.8183       0.926211       0.00000
   8     533.0       54.6146       17.4290       38.1118       55.5408       0.926211      -0.00000
   7     589.8       54.3261       18.8545       36.3978       55.2523       0.926211       0.00000
   6     651.6       54.0280       20.3228       34.6314       54.9542       0.926211       0.00000
   5     718.7       53.7211       21.8282       32.8192       54.6473       0.926211       0.00000
   4     792.3       53.4071       23.3618       30.9715       54.3334       0.926211       0.00000
   3     825.4       47.6774       47.2928        1.3106       48.6033       0.925929       0.00007
   2     858.4       46.5505       47.4070        0.0691       47.4762       0.925682       0.00006
   1     891.5       45.6114       46.5332        0.0037       46.5368       0.925440       0.00006
   0    1013.0       45.5791       46.5012        0.0033       46.5045       0.925440      -0.00000



 Wavenumbers: 29000. - 38000. cm-1, ATM      1
 LEVEL PRESSURE   UPWARD FLUX   DIFDOWN FLUX  DIRDOWN FLUX  DOWNWARD FLUX   NET FLUX    HEATING RATE
          mb          W/m2          W/m2          W/m2        W/m2          W/m2       degree/day
  51    .06700        8.7562        0.0000       20.8114       20.8114      12.055144       0.00000
  50    .07753        8.7560        0.0003       20.8070       20.8074      12.051337       3.05172
  49    .09103        8.7558        0.0007       20.8009       20.8016      12.045800       3.46104
  48    0.1069        8.7555        0.0012       20.7928       20.7939      12.038389       3.94451
  47    0.1255        8.7553        0.0017       20.7820       20.7837      12.028484       4.49059
  46    0.1487        8.7549        0.0024       20.7665       20.7688      12.013920       5.30874
  45    0.1794        8.7545        0.0033       20.7424       20.7457      11.991254       6.22239
  44    0.2165        8.7539        0.0044       20.7103       20.7147      11.960729       6.94380
  43    0.2613        8.7534        0.0056       20.6675       20.6731      11.919732       7.72778
  42    0.3336        8.7525        0.0077       20.5880       20.5957      11.843167       8.92680
  41    0.4307        8.7514        0.0104       20.4722       20.4826      11.731207       9.73464
  40    0.5894        8.7499        0.0147       20.2637       20.2784      11.528509      10.77920
  39     1.339        8.7466        0.0331       19.0984       19.1315      10.384931      12.87462
  38     1.782        8.7471        0.0427       18.4394       18.4821       9.734923      12.37509
  37     2.292        8.7499        0.0530       17.7714       17.8244       9.074467      10.93887
  36     5.035        8.7627        0.0692       16.7265       16.7956       8.032961       3.20444
  35     6.613        8.7926        0.0963       15.5186       15.6149       6.822334       6.47201
  34     8.786        8.8325        0.1316       14.5590       14.6906       5.858047       3.74494
  33     11.80        8.8850        0.1803       13.7000       13.8804       4.995359       2.41526
  32     15.07        8.9357        0.2305       13.0749       13.3054       4.369653       1.61545
  31     18.79        8.9883        0.2858       12.5486       12.8343       3.846058       1.18715
  30     23.16        9.0441        0.3484       12.0732       12.4216       3.377476       0.90609
  29     28.12        9.1015        0.4185       11.6423       12.0608       2.959337       0.71081
  28     33.73        9.1543        0.4955       11.2628       11.7583       2.603955       0.53433
  27     40.54        9.2044        0.5874       10.8969       11.4842       2.279804       0.40215
  26     48.69        9.2516        0.6962       10.5353       11.2315       1.979902       0.31035
  25     57.69        9.2902        0.8140       10.2040       11.0180       1.727808       0.23630
  24     68.43        9.3211        0.9519        9.8713       10.8232       1.502124       0.17742
  23     81.20        9.3353        1.1147        9.5431       10.6578       1.322550       0.11866
  22     96.49        9.3307        1.3060        9.2107       10.5167       1.186083       0.07532
  21     114.6        9.3154        1.5269        8.8533       10.3802       1.064784       0.05664
  20     136.5        9.2925        1.7793        8.4618       10.2411       0.948564       0.04469
  19     162.9        9.2621        2.0669        8.0302       10.0971       0.834930       0.03632
  18     196.4        9.2118        2.4228        7.5240        9.9468       0.735059       0.02514
  17     218.7        9.1757        2.6466        7.2154        9.8621       0.686414       0.01847
  16     243.0        9.1361        2.8805        6.8972        9.7777       0.641540       0.01556
  15     269.0        9.0929        3.1235        6.5707        9.6942       0.601286       0.01306
  14     297.5        9.0462        3.3746        6.2374        9.6120       0.565837       0.01051
  13     328.5        8.9973        3.6328        5.8964        9.5292       0.531933       0.00922
  12     361.9        8.9467        3.8956        5.5509        9.4464       0.499724       0.00815
  11     398.1        8.8946        4.1622        5.2016        9.3638       0.469235       0.00710
  10     437.6        8.8414        4.4313        4.8500        9.2813       0.439879       0.00628
   9     480.5        8.7875        4.7006        4.4990        9.1996       0.412048       0.00547
   8     533.0        8.7254        5.0073        4.0999        9.1072       0.381751       0.00487
   7     589.8        8.6638        5.3093        3.7070        9.0163       0.352463       0.00435
   6     651.6        8.6037        5.6028        3.3248        8.9275       0.323856       0.00391
   5     718.7        8.5454        5.8861        2.9551        8.8413       0.295885       0.00352
   4     792.3        8.4898        6.1560        2.6023        8.7583       0.268556       0.00313
   3     825.4        7.8250        7.9619        0.1002        8.0621       0.237046       0.00804
   2     858.4        7.5933        7.7965        0.0048        7.8013       0.208038       0.00740
   1     891.5        7.4049        7.5851        0.0002        7.5854       0.180478       0.00704
   0    1013.0        7.4076        7.5578        0.0002        7.5580       0.150405       0.00209



 Wavenumbers: 38000. - 50000. cm-1, ATM      1
 LEVEL PRESSURE   UPWARD FLUX   DIFDOWN FLUX  DIRDOWN FLUX  DOWNWARD FLUX   NET FLUX    HEATING RATE
          mb          W/m2          W/m2          W/m2        W/m2          W/m2       degree/day
  51    .06700        0.0061        0.0000        1.2836        1.2836       1.277566       0.00000
  50    .07753        0.0060        0.0001        1.2812        1.2812       1.275231       1.87147
  49    .09103        0.0059        0.0002        1.2777        1.2778       1.271899       2.08243
  48    0.1069        0.0058        0.0002        1.2731        1.2734       1.267521       2.33056
  47    0.1255        0.0058        0.0004        1.2672        1.2675       1.261766       2.60905
  46    0.1487        0.0056        0.0005        1.2586        1.2591       1.253440       3.03495
  45    0.1794        0.0055        0.0007        1.2455        1.2462       1.240672       3.50516
  44    0.2165        0.0053        0.0009        1.2282        1.2291       1.223746       3.85033
  43    0.2613        0.0051        0.0011        1.2054        1.2065       1.201398       4.21256
  42    0.3336        0.0048        0.0015        1.1639        1.1654       1.160574       4.75965
  41    0.4307        0.0044        0.0020        1.1051        1.1070       1.102615       5.03937
  40    0.5894        0.0039        0.0026        1.0039        1.0064       1.002575       5.32000
  39     1.339        0.0022        0.0035        0.5438        0.5473       0.545166       5.14960
  38     1.782        0.0016        0.0032        0.3635        0.3666       0.365077       3.42860
  37     2.292        0.0011        0.0027        0.2356        0.2383       0.237147       2.11885
  36     5.035        0.0007        0.0019        0.1180        0.1199       0.119172       0.36298
  35     6.613        0.0004        0.0013        0.0504        0.0516       0.051220       0.36327
  34     8.786        0.0002        0.0009        0.0239        0.0248       0.024556       0.10355
  33     11.80        0.0001        0.0006        0.0105        0.0110       0.010913       0.03820
  32     15.07        0.0001        0.0004        0.0048        0.0052       0.005151       0.01488
  31     18.79        0.0000        0.0002        0.0022        0.0024       0.002406       0.00622
  30     23.16        0.0000        0.0001        0.0010        0.0011       0.001079       0.00257
  29     28.12        0.0000        0.0001        0.0004        0.0005       0.000469       0.00104
  28     33.73        0.0000        0.0000        0.0002        0.0002       0.000205       0.00040
  27     40.54        0.0000        0.0000        0.0001        0.0001       0.000083       0.00015
  26     48.69        0.0000        0.0000        0.0000        0.0000       0.000031       0.00005
  25     57.69        0.0000        0.0000        0.0000        0.0000       0.000011       0.00002
  24     68.43        0.0000        0.0000        0.0000        0.0000       0.000004       0.00001
  23     81.20        0.0000        0.0000        0.0000        0.0000       0.000001       0.00000
  22     96.49        0.0000        0.0000        0.0000        0.0000       0.000000       0.00000
  21     114.6        0.0000        0.0000        0.0000        0.0000       0.000000       0.00000
  20     136.5        0.0000        0.0000        0.0000        0.0000       0.000000       0.00000
  19     162.9        0.0000        0.0000        0.0000        0.0000       0.000000       0.00000
  18     196.4        0.0000        0.0000        0.0000        0.0000       0.000000       0.00000
  17     218.7        0.0000        0.0000        0.0000        0.0000       0.000000       0.00000
  16     243.0        0.0000        0.0000        0.0000        0.0000       0.000000       0.00000
  15     269.0        0.0000        0.0000        0.0000        0.0000       0.000000       0.00000
  14     297.5        0.0000        0.0000        0.0000        0.0000       0.000000       0.00000
  13     328.5        0.0000        0.0000        0.0000        0.0000       0.000000       0.00000
  12     361.9        0.0000        0.0000        0.0000        0.0000       0.000000       0.00000
  11     398.1        0.0000        0.0000        0.0000        0.0000       0.000000       0.00000
  10     437.6        0.0000        0.0000        0.0000        0.0000       0.000000       0.00000
   9     480.5        0.0000        0.0000        0.0000        0.0000       0.000000       0.00000
   8     533.0        0.0000        0.0000        0.0000        0.0000       0.000000       0.00000
   7     589.8        0.0000        0.0000        0.0000        0.0000       0.000000       0.00000
   6     651.6        0.0000        0.0000        0.0000        0.0000       0.000000       0.00000
   5     718.7        0.0000        0.0000        0.0000        0.0000       0.000000       0.00000
   4     792.3        0.0000        0.0000        0.0000        0.0000       0.000000       0.00000
   3     825.4        0.0000        0.0000        0.0000        0.0000       0.000000       0.00000
   2     858.4        0.0000        0.0000        0.0000        0.0000       0.000000       0.00000
   1     891.5        0.0000        0.0000        0.0000        0.0000       0.000000       0.00000
   0    1013.0        0.0000        0.0000        0.0000        0.0000       0.000000       0.00000



 Wavenumbers:   820. -  2600. cm-1, ATM      1
 LEVEL PRESSURE   UPWARD FLUX   DIFDOWN FLUX  DIRDOWN FLUX  DOWNWARD FLUX   NET FLUX    HEATING RATE
          mb          W/m2          W/m2          W/m2        W/m2          W/m2       degree/day
  51    .06700        1.3361        0.0000        6.0047        6.0047       4.668558       0.00000
  50    .07753        1.3361        0.0000        6.0008        6.0008       4.664705       3.08824
  49    .09103        1.3361        0.0000        5.9999        5.9999       4.663819       0.55360
  48    0.1069        1.3361        0.0000        5.9989        5.9989       4.662830       0.52655
  47    0.1255        1.3361        0.0000        5.9978        5.9978       4.661712       0.50652
  46    0.1487        1.3361        0.0000        5.9964        5.9964       4.660355       0.49460
  45    0.1794        1.3361        0.0000        5.9947        5.9947       4.658636       0.47203
  44    0.2165        1.3361        0.0000        5.9929        5.9929       4.656794       0.41913
  43    0.2613        1.3361        0.0000        5.9909        5.9909       4.654834       0.36936
  42    0.3336        1.3361        0.0000        5.9880        5.9880       4.651956       0.33559
  41    0.4307        1.3361        0.0000        5.9846        5.9846       4.648486       0.30168
  40    0.5894        1.3361        0.0000        5.9791        5.9791       4.642980       0.29280
  39     1.339        1.3361        0.0000        5.9536        5.9536       4.617490       0.28698
  38     1.782        1.3361        0.0000        5.9395        5.9395       4.603349       0.26921
  37     2.292        1.3361        0.0000        5.9237        5.9237       4.587596       0.26092
  36     5.035        1.3361        0.0000        5.8954        5.8954       4.559324       0.08699
  35     6.613        1.3361        0.0000        5.8469        5.8469       4.510818       0.25931
  34     8.786        1.3361        0.0000        5.7915        5.7915       4.455375       0.21532
  33     11.80        1.3362        0.0000        5.7245        5.7245       4.388305       0.18778
  32     15.07        1.3362        0.0000        5.6684        5.6684       4.332258       0.14470
  31     18.79        1.3362        0.0000        5.6231        5.6231       4.286842       0.10297
  30     23.16        1.3362        0.0000        5.5871        5.5871       4.250850       0.06960
  29     28.12        1.3363        0.0000        5.5583        5.5583       4.222013       0.04902
  28     33.73        1.3363        0.0000        5.5327        5.5328       4.196426       0.03847
  27     40.54        1.3364        0.0000        5.5051        5.5051       4.168697       0.03440
  26     48.69        1.3364        0.0000        5.4733        5.4733       4.136907       0.03290
  25     57.69        1.3365        0.0000        5.4393        5.4394       4.102859       0.03191
  24     68.43        1.3366        0.0000        5.3998        5.3999       4.063281       0.03111
  23     81.20        1.3367        0.0000        5.3545        5.3546       4.017894       0.02999
  22     96.49        1.3368        0.0000        5.3027        5.3028       3.965970       0.02866
  21     114.6        1.3369        0.0000        5.2431        5.2431       3.906170       0.02792
  20     136.5        1.3371        0.0000        5.1754        5.1755       3.838362       0.02607
  19     162.9        1.3374        0.0000        5.0924        5.0924       3.755032       0.02664
  18     196.4        1.3378        0.0000        4.9695        4.9695       3.631730       0.03104
  17     218.7        1.3382        0.0000        4.8606        4.8606       3.522405       0.04151
  16     243.0        1.3389        0.0000        4.7093        4.7093       3.370435       0.05271
  15     269.0        1.3399        0.0000        4.5352        4.5352       3.195261       0.05683
  14     297.5        1.3416        0.0000        4.3425        4.3426       3.001010       0.05761
  13     328.5        1.3438        0.0000        4.1286        4.1286       2.784871       0.05877
  12     361.9        1.3467        0.0000        3.8790        3.8791       2.532375       0.06388
  11     398.1        1.3505        0.0000        3.6162        3.6163       2.265748       0.06212
  10     437.6        1.3554        0.0000        3.3761        3.3761       2.020670       0.05240
   9     480.5        1.3615        0.0000        3.1959        3.1959       1.834460       0.03657
   8     533.0        1.3707        0.0000        3.0468        3.0468       1.676144       0.02547
   7     589.8        1.3843        0.0000        2.9024        2.9024       1.518140       0.02345
   6     651.6        1.4080        0.0001        2.7184        2.7185       1.310451       0.02840
   5     718.7        1.4490        0.0001        2.5059        2.5059       1.056971       0.03186
   4     792.3        1.5270        0.0001        2.2757        2.2757       0.748735       0.03535
   3     825.4        0.7207        1.0547        0.0901        1.1448       0.424059       0.08287
   2     858.4        0.4236        0.6991        0.0046        0.7036       0.279993       0.03678
   1     891.5        0.2203        0.4206        0.0002        0.4209       0.200588       0.02028
   0    1013.0        0.2589        0.3544        0.0002        0.3546       0.095746       0.00728

  Modules and versions used in this calculation:

       rrtmg_sw.1col.f90:  $Revision$                    rrtmg_sw_init.f90:  $Revision$        
     rrtmgsw_cldprop.f90:  $Revision$                  rrtmgsw_cldprmc.f90:  NOT USED          
     rrtmg_sw_reftra.f90:  $Revision$                  rrtmg_sw_spcvrt.f90:  NOT USED          
     rrtmg_sw_spcvmc.f90:  NOT USED                    rrtmgsw_setcoef.f90:  NOT USED          
     rrtmg_sw_taumol.f90:  $Revision$                  rrtmg_sw_vrtqdr.f90:  NOT USED          
                rrtatm.f:  NOT USED                             util_xxx.f:  NOT USED          
                 extra.f:  NOT USED                       rrtmg_sw_k_g.f90:  $Revision$        

