

 Wavenumbers:   820. - 50000. cm-1, ATM      1
 LEVEL PRESSURE   UPWARD FLUX   DIFDOWN FLUX  DIRDOWN FLUX  DOWNWARD FLUX   NET FLUX    HEATING RATE
          mb          W/m2          W/m2          W/m2        W/m2          W/m2       degree/day
  51    .06700      367.5879        0.0000      617.8126      617.8126     250.224689       0.00000
  50    .07753      367.5875        0.0013      617.7947      617.7961     250.208554      12.93277
  49    .09103      367.5870        0.0030      617.7778      617.7808     250.193751       9.25245
  48    0.1069      367.5866        0.0050      617.7581      617.7630     250.176497       9.18400
  47    0.1255      367.5860        0.0072      617.7340      617.7412     250.155163       9.67195
  46    0.1487      367.5854        0.0100      617.7009      617.7109     250.125492      10.81542
  45    0.1794      367.5847        0.0138      617.6521      617.6659     250.081283      12.13642
  44    0.2165      367.5839        0.0184      617.5895      617.6079     250.023990      13.03306
  43    0.2613      367.5831        0.0237      617.5089      617.5326     249.949515      14.03823
  42    0.3336      367.5821        0.0325      617.3641      617.3966     249.814500      15.74148
  41    0.4307      367.5813        0.0441      617.1591      617.2032     249.621979      16.73928
  40    0.5894      367.5808        0.0628      616.8005      616.8633     249.282477      18.05427
  39     1.339      367.5964        0.1474      614.9443      615.0916     247.495188      20.12163
  38     1.782      367.6179        0.1949      613.9670      614.1620     246.544027      18.10858
  37     2.292      367.6539        0.2491      613.0059      613.2549     245.600996      15.61905
  36     5.035      367.7614        0.3413      611.5124      611.8538     244.092328       4.64177
  35     6.613      367.9941        0.5042      609.6144      610.1186     242.124548      10.51976
  34     8.786      368.2976        0.7227      607.8253      608.5480     240.250437       7.27837
  33     11.80      368.6904        1.0334      605.8783      606.9117     238.221231       5.68114
  32     15.07      369.0639        1.3644      604.1777      605.5422     236.478264       4.50000
  31     18.79      369.4425        1.7366      602.5196      604.2562     234.813711       3.77405
  30     23.16      369.8348        2.1689      600.8127      602.9815     233.146734       3.22339
  29     28.12      370.2249        2.6607      599.0712      601.7318     231.506898       2.78761
  28     33.73      370.5758        3.2087      597.3500      600.5588     229.982979       2.29125
  27     40.54      370.8997        3.8683      595.5035      599.3718     228.472113       1.87440
  26     48.69      371.1934        4.6596      593.4958      598.1554     226.961999       1.56273
  25     57.69      371.4220        5.5244      591.4872      597.0117     225.589684       1.28634
  24     68.43      371.5921        6.5488      589.2939      595.8427     224.250545       1.05274
  23     81.20      371.6529        7.7630      586.9289      594.6919     223.039023       0.80055
  22     96.49      371.5936        9.2004      584.3423      593.5427     221.949099       0.60156
  21     114.6      371.4745       10.8915      581.4033      592.2947     220.820229       0.52710
  20     136.5      371.2890       12.8712      578.0541      590.9253     219.636371       0.45522
  19     162.9      371.0299       15.1941      574.1654      589.3596     218.329650       0.41768
  18     196.4      370.6064       18.1559      569.1760      587.3319     216.725544       0.40377
  17     218.7      370.2986       20.0706      565.6314      585.7020     215.403379       0.50198
  16     243.0      369.9533       22.1239      561.3129      583.4368     213.483535       0.66587
  15     269.0      369.5689       24.3172      555.9478      580.2651     210.696196       0.90420
  14     297.5      369.1460       26.6512      549.5394      576.1906     207.044648       1.08301
  13     328.5      368.6917       29.1322      542.6225      571.7547     203.063026       1.08259
  12     361.9      368.2082       31.7564      535.1469      566.9033     198.695157       1.10511
  11     398.1      367.6973       34.5283      526.9326      561.4609     193.763545       1.14896
  10     437.6      367.1658       37.4464      517.8921      555.3385     188.172665       1.19536
   9     480.5      366.6190       40.5088      508.2121      548.7209     182.101938       1.19227
   8     533.0      365.9874       44.1901      496.3783      540.5684     174.580994       1.20988
   7     589.8      365.3788       48.0525      483.5433      531.5957     166.216914       1.24150
   6     651.6      364.8616       52.0837      469.1414      521.2252     156.363594       1.34747
   5     718.7      364.5034       56.2756      453.6623      509.9379     145.434417       1.37349
   4     792.3      364.4699       60.6065      436.9145      497.5211     133.051159       1.42022
   3     825.4      365.2028       66.2071      414.6773      480.8844     115.681599       4.43348
   2     858.4      366.2113       71.5030      397.4377      468.9407     102.729385       3.30628
   1     891.5      367.5244       76.5183      382.9167      459.4349      91.910564       2.76253
   0    1013.0      371.1811       82.2371      364.4894      446.7266      75.545470       1.13631



 Wavenumbers:  2600. -  3250. cm-1, ATM      1
 LEVEL PRESSURE   UPWARD FLUX   DIFDOWN FLUX  DIRDOWN FLUX  DOWNWARD FLUX   NET FLUX    HEATING RATE
          mb          W/m2          W/m2          W/m2        W/m2          W/m2       degree/day
  51    .06700        0.0104        0.0000        5.4450        5.4450       5.434670       0.00000
  50    .07753        0.0104        0.0000        5.4450        5.4450       5.434662       0.00640
  49    .09103        0.0104        0.0000        5.4450        5.4450       5.434652       0.00627
  48    0.1069        0.0104        0.0000        5.4450        5.4450       5.434641       0.00613
  47    0.1255        0.0104        0.0000        5.4450        5.4450       5.434627       0.00599
  46    0.1487        0.0104        0.0000        5.4450        5.4450       5.434611       0.00608
  45    0.1794        0.0104        0.0000        5.4450        5.4450       5.434588       0.00625
  44    0.2165        0.0104        0.0000        5.4449        5.4449       5.434561       0.00612
  43    0.2613        0.0104        0.0000        5.4449        5.4449       5.434529       0.00600
  42    0.3336        0.0104        0.0000        5.4448        5.4448       5.434476       0.00617
  41    0.4307        0.0104        0.0000        5.4448        5.4448       5.434405       0.00620
  40    0.5894        0.0104        0.0000        5.4446        5.4446       5.434285       0.00637
  39     1.339        0.0104        0.0000        5.4439        5.4439       5.433578       0.00797
  38     1.782        0.0104        0.0000        5.4434        5.4434       5.433035       0.01034
  37     2.292        0.0104        0.0000        5.4427        5.4427       5.432319       0.01186
  36     5.035        0.0104        0.0000        5.4412        5.4412       5.430792       0.00470
  35     6.613        0.0104        0.0000        5.4381        5.4381       5.427715       0.01645
  34     8.786        0.0104        0.0000        5.4341        5.4341       5.423709       0.01556
  33     11.80        0.0104        0.0000        5.4288        5.4288       5.418464       0.01468
  32     15.07        0.0104        0.0000        5.4239        5.4239       5.413540       0.01271
  31     18.79        0.0104        0.0000        5.4191        5.4192       5.408798       0.01075
  30     23.16        0.0104        0.0000        5.4144        5.4144       5.404054       0.00917
  29     28.12        0.0104        0.0000        5.4096        5.4096       5.399226       0.00821
  28     33.73        0.0104        0.0000        5.4042        5.4042       5.393871       0.00805
  27     40.54        0.0103        0.0000        5.3972        5.3972       5.386860       0.00870
  26     48.69        0.0103        0.0000        5.3877        5.3877       5.377346       0.00985
  25     57.69        0.0103        0.0000        5.3759        5.3759       5.365542       0.01106
  24     68.43        0.0103        0.0000        5.3604        5.3604       5.350036       0.01219
  23     81.20        0.0103        0.0000        5.3405        5.3405       5.330184       0.01312
  22     96.49        0.0103        0.0000        5.3159        5.3159       5.305595       0.01357
  21     114.6        0.0103        0.0000        5.2857        5.2857       5.275374       0.01411
  20     136.5        0.0103        0.0000        5.2507        5.2508       5.240444       0.01343
  19     162.9        0.0103        0.0001        5.2113        5.2114       5.201084       0.01258
  18     196.4        0.0103        0.0001        5.1642        5.1643       5.153995       0.01185
  17     218.7        0.0103        0.0001        5.1333        5.1333       5.123046       0.01175
  16     243.0        0.0103        0.0001        5.0963        5.0964       5.086135       0.01280
  15     269.0        0.0103        0.0001        5.0512        5.0513       5.040991       0.01464
  14     297.5        0.0103        0.0001        4.9957        4.9958       4.985489       0.01646
  13     328.5        0.0103        0.0001        4.9304        4.9305       4.920247       0.01774
  12     361.9        0.0103        0.0001        4.8511        4.8513       4.840972       0.02006
  11     398.1        0.0103        0.0001        4.7507        4.7508       4.740554       0.02340
  10     437.6        0.0103        0.0001        4.6221        4.6222       4.611900       0.02751
   9     480.5        0.0103        0.0001        4.4625        4.4626       4.452326       0.03134
   8     533.0        0.0104        0.0002        4.2461        4.2462       4.235855       0.03482
   7     589.8        0.0104        0.0002        3.9954        3.9956       3.985165       0.03721
   6     651.6        0.0105        0.0002        3.7089        3.7090       3.698519       0.03920
   5     718.7        0.0107        0.0002        3.4018        3.4020       3.391328       0.03861
   4     792.3        0.0109        0.0002        3.0564        3.0566       3.045684       0.03964
   3     825.4        0.0115        0.0002        2.5932        2.5933       2.581890       0.11838
   2     858.4        0.0121        0.0002        2.2823        2.2824       2.270324       0.07953
   1     891.5        0.0128        0.0002        2.0526        2.0527       2.039904       0.05884
   0    1013.0        0.0144        0.0002        1.7584        1.7585       1.744082       0.02054



 Wavenumbers:  3250. -  4000. cm-1, ATM      1
 LEVEL PRESSURE   UPWARD FLUX   DIFDOWN FLUX  DIRDOWN FLUX  DOWNWARD FLUX   NET FLUX    HEATING RATE
          mb          W/m2          W/m2          W/m2        W/m2          W/m2       degree/day
  51    .06700        0.0005        0.0000        9.1795        9.1795       9.179069       0.00000
  50    .07753        0.0005        0.0000        9.1747        9.1747       9.174226       3.88162
  49    .09103        0.0005        0.0000        9.1713        9.1713       9.170838       2.11758
  48    0.1069        0.0005        0.0000        9.1688        9.1688       9.168313       1.34411
  47    0.1255        0.0005        0.0000        9.1665        9.1665       9.166054       1.02430
  46    0.1487        0.0005        0.0000        9.1641        9.1641       9.163612       0.88998
  45    0.1794        0.0005        0.0000        9.1612        9.1612       9.160734       0.79014
  44    0.2165        0.0005        0.0000        9.1583        9.1583       9.157814       0.66436
  43    0.2613        0.0005        0.0000        9.1553        9.1553       9.154840       0.56046
  42    0.3336        0.0005        0.0000        9.1511        9.1511       9.150661       0.48727
  41    0.4307        0.0005        0.0000        9.1464        9.1464       9.145892       0.41463
  40    0.5894        0.0005        0.0000        9.1393        9.1393       9.138886       0.37258
  39     1.339        0.0005        0.0000        9.1127        9.1127       9.112270       0.29965
  38     1.782        0.0005        0.0000        9.1011        9.1011       9.100681       0.22064
  37     2.292        0.0005        0.0000        9.0901        9.0901       9.089614       0.18331
  36     5.035        0.0005        0.0000        9.0731        9.0731       9.072681       0.05210
  35     6.613        0.0005        0.0000        9.0438        9.0439       9.043401       0.15653
  34     8.786        0.0005        0.0000        9.0058        9.0058       9.005315       0.14791
  33     11.80        0.0004        0.0000        8.9509        8.9509       8.950444       0.15362
  32     15.07        0.0004        0.0000        8.8914        8.8914       8.890965       0.15356
  31     18.79        0.0004        0.0000        8.8241        8.8242       8.823731       0.15244
  30     23.16        0.0004        0.0000        8.7473        8.7474       8.746919       0.14853
  29     28.12        0.0004        0.0000        8.6639        8.6640       8.663536       0.14174
  28     33.73        0.0004        0.0000        8.5784        8.5784       8.578026       0.12857
  27     40.54        0.0004        0.0001        8.4859        8.4860       8.485553       0.11472
  26     48.69        0.0004        0.0001        8.3873        8.3873       8.386929       0.10206
  25     57.69        0.0004        0.0001        8.2887        8.2888       8.288379       0.09238
  24     68.43        0.0004        0.0001        8.1771        8.1772       8.176862       0.08767
  23     81.20        0.0004        0.0001        8.0474        8.0475       8.047142       0.08572
  22     96.49        0.0003        0.0001        7.8963        7.8965       7.896130       0.08335
  21     114.6        0.0003        0.0001        7.7173        7.7174       7.717120       0.08358
  20     136.5        0.0003        0.0002        7.5201        7.5203       7.520005       0.07580
  19     162.9        0.0003        0.0002        7.2919        7.2921       7.291875       0.07292
  18     196.4        0.0002        0.0002        6.9664        6.9666       6.966367       0.08193
  17     218.7        0.0002        0.0002        6.6650        6.6652       6.665020       0.11441
  16     243.0        0.0002        0.0002        6.2620        6.2622       6.262060       0.13976
  15     269.0        0.0002        0.0003        5.7575        5.7578       5.757613       0.16364
  14     297.5        0.0001        0.0002        5.1717        5.1720       5.171816       0.17374
  13     328.5        0.0001        0.0002        4.5755        4.5757       4.575584       0.16211
  12     361.9        0.0001        0.0002        3.9992        3.9995       3.999352       0.14579
  11     398.1        0.0001        0.0002        3.4651        3.4653       3.465253       0.12443
  10     437.6        0.0001        0.0002        2.9736        2.9738       2.973782       0.10508
   9     480.5        0.0001        0.0002        2.5303        2.5305       2.530407       0.08708
   8     533.0        0.0000        0.0002        2.0610        2.0612       2.061133       0.07549
   7     589.8        0.0000        0.0002        1.6146        1.6148       1.614753       0.06626
   6     651.6        0.0000        0.0001        1.1562        1.1563       1.156289       0.06270
   5     718.7        0.0000        0.0001        0.7388        0.7389       0.738898       0.05245
   4     792.3        0.0000        0.0001        0.3984        0.3984       0.398404       0.03905
   3     825.4        0.0000        0.0000        0.1191        0.1192       0.119168       0.07127
   2     858.4        0.0000        0.0000        0.0346        0.0346       0.034620       0.02158
   1     891.5        0.0000        0.0000        0.0096        0.0096       0.009602       0.00639
   0    1013.0        0.0000        0.0000        0.0008        0.0008       0.000771       0.00061



 Wavenumbers:  4000. -  4650. cm-1, ATM      1
 LEVEL PRESSURE   UPWARD FLUX   DIFDOWN FLUX  DIRDOWN FLUX  DOWNWARD FLUX   NET FLUX    HEATING RATE
          mb          W/m2          W/m2          W/m2        W/m2          W/m2       degree/day
  51    .06700        0.3766        0.0000       10.7795       10.7795      10.402940       0.00000
  50    .07753        0.3766        0.0000       10.7795       10.7795      10.402939       0.00080
  49    .09103        0.3766        0.0000       10.7795       10.7795      10.402938       0.00078
  48    0.1069        0.3766        0.0000       10.7795       10.7795      10.402936       0.00076
  47    0.1255        0.3766        0.0000       10.7795       10.7795      10.402935       0.00075
  46    0.1487        0.3766        0.0000       10.7795       10.7795      10.402932       0.00076
  45    0.1794        0.3766        0.0000       10.7795       10.7795      10.402930       0.00078
  44    0.2165        0.3766        0.0000       10.7795       10.7795      10.402926       0.00076
  43    0.2613        0.3766        0.0000       10.7795       10.7795      10.402922       0.00075
  42    0.3336        0.3766        0.0000       10.7795       10.7795      10.402916       0.00077
  41    0.4307        0.3766        0.0000       10.7795       10.7795      10.402907       0.00077
  40    0.5894        0.3766        0.0000       10.7795       10.7795      10.402892       0.00080
  39     1.339        0.3766        0.0000       10.7794       10.7794      10.402803       0.00101
  38     1.782        0.3766        0.0000       10.7793       10.7793      10.402733       0.00133
  37     2.292        0.3766        0.0000       10.7792       10.7792      10.402639       0.00156
  36     5.035        0.3766        0.0000       10.7790       10.7790      10.402431       0.00064
  35     6.613        0.3766        0.0000       10.7785       10.7786      10.401979       0.00242
  34     8.786        0.3766        0.0000       10.7779       10.7779      10.401312       0.00259
  33     11.80        0.3766        0.0000       10.7768       10.7768      10.400264       0.00293
  32     15.07        0.3766        0.0000       10.7755       10.7756      10.399035       0.00317
  31     18.79        0.3765        0.0001       10.7740       10.7741      10.397550       0.00337
  30     23.16        0.3765        0.0001       10.7722       10.7722      10.395708       0.00356
  29     28.12        0.3765        0.0001       10.7699       10.7700      10.393479       0.00379
  28     33.73        0.3765        0.0001       10.7671       10.7672      10.390733       0.00413
  27     40.54        0.3765        0.0001       10.7633       10.7635      10.387012       0.00462
  26     48.69        0.3764        0.0002       10.7583       10.7585      10.382059       0.00513
  25     57.69        0.3764        0.0002       10.7524       10.7526      10.376196       0.00550
  24     68.43        0.3764        0.0002       10.7450       10.7452      10.368858       0.00577
  23     81.20        0.3764        0.0003       10.7359       10.7362      10.359840       0.00596
  22     96.49        0.3763        0.0003       10.7249       10.7252      10.348889       0.00604
  21     114.6        0.3763        0.0004       10.7111       10.7115      10.335232       0.00638
  20     136.5        0.3762        0.0005       10.6945       10.6950      10.318826       0.00631
  19     162.9        0.3761        0.0006       10.6744       10.6749      10.298787       0.00641
  18     196.4        0.3761        0.0007       10.6467       10.6474      10.271293       0.00692
  17     218.7        0.3760        0.0008       10.6258       10.6265      10.250483       0.00790
  16     243.0        0.3760        0.0009       10.5983       10.5992      10.223154       0.00948
  15     269.0        0.3760        0.0009       10.5613       10.5623      10.186240       0.01197
  14     297.5        0.3761        0.0010       10.5122       10.5132      10.137103       0.01457
  13     328.5        0.3762        0.0011       10.4501       10.4512      10.075008       0.01688
  12     361.9        0.3764        0.0013       10.3704       10.3716       9.995232       0.02018
  11     398.1        0.3766        0.0014       10.2679       10.2693       9.892695       0.02389
  10     437.6        0.3769        0.0015       10.1391       10.1406       9.763698       0.02758
   9     480.5        0.3773        0.0016        9.9878        9.9894       9.612112       0.02977
   8     533.0        0.3779        0.0017        9.7937        9.7955       9.417615       0.03129
   7     589.8        0.3787        0.0019        9.5752        9.5771       9.198374       0.03254
   6     651.6        0.3800        0.0020        9.2958        9.2979       8.917818       0.03837
   5     718.7        0.3821        0.0022        8.9267        8.9289       8.546788       0.04663
   4     792.3        0.3856        0.0023        8.4542        8.4565       8.070942       0.05457
   3     825.4        0.3931        0.0024        7.8102        7.8125       7.419419       0.16630
   2     858.4        0.4017        0.0025        7.3845        7.3870       6.985316       0.11081
   1     891.5        0.4116        0.0026        7.0535        7.0561       6.644512       0.08702
   0    1013.0        0.4332        0.0027        6.5805        6.5832       6.150017       0.03434



 Wavenumbers:  4650. -  5150. cm-1, ATM      1
 LEVEL PRESSURE   UPWARD FLUX   DIFDOWN FLUX  DIRDOWN FLUX  DOWNWARD FLUX   NET FLUX    HEATING RATE
          mb          W/m2          W/m2          W/m2        W/m2          W/m2       degree/day
  51    .06700        0.0737        0.0000       10.2033       10.2033      10.129651       0.00000
  50    .07753        0.0737        0.0000       10.2031       10.2031      10.129415       0.18901
  49    .09103        0.0737        0.0000       10.2028       10.2028      10.129120       0.18428
  48    0.1069        0.0737        0.0000       10.2025       10.2025      10.128784       0.17931
  47    0.1255        0.0737        0.0000       10.2021       10.2021      10.128399       0.17426
  46    0.1487        0.0737        0.0000       10.2016       10.2016      10.127918       0.17536
  45    0.1794        0.0737        0.0000       10.2010       10.2010      10.127268       0.17850
  44    0.2165        0.0737        0.0000       10.2002       10.2002      10.126508       0.17277
  43    0.2613        0.0737        0.0000       10.1993       10.1993      10.125623       0.16690
  42    0.3336        0.0737        0.0000       10.1979       10.1979      10.124191       0.16702
  41    0.4307        0.0737        0.0000       10.1960       10.1960      10.122350       0.16002
  40    0.5894        0.0737        0.0000       10.1932       10.1932      10.119476       0.15283
  39     1.339        0.0737        0.0000       10.1816       10.1816      10.107885       0.13050
  38     1.782        0.0737        0.0000       10.1760       10.1760      10.102357       0.10525
  37     2.292        0.0737        0.0000       10.1706       10.1706      10.096901       0.09036
  36     5.035        0.0737        0.0000       10.1630       10.1630      10.089317       0.02333
  35     6.613        0.0737        0.0000       10.1533       10.1533      10.079617       0.05186
  34     8.786        0.0737        0.0000       10.1442       10.1442      10.070538       0.03526
  33     11.80        0.0736        0.0001       10.1340       10.1341      10.060418       0.02833
  32     15.07        0.0736        0.0001       10.1237       10.1238      10.050183       0.02643
  31     18.79        0.0736        0.0001       10.1115       10.1116      10.038032       0.02755
  30     23.16        0.0736        0.0001       10.0961       10.0962      10.022639       0.02977
  29     28.12        0.0736        0.0001       10.0769       10.0770      10.003461       0.03260
  28     33.73        0.0735        0.0002       10.0536       10.0538       9.980274       0.03486
  27     40.54        0.0735        0.0002       10.0235       10.0238       9.950258       0.03724
  26     48.69        0.0735        0.0003        9.9852        9.9854       9.911954       0.03964
  25     57.69        0.0734        0.0003        9.9414        9.9417       9.868279       0.04094
  24     68.43        0.0734        0.0004        9.8884        9.8888       9.815407       0.04156
  23     81.20        0.0733        0.0004        9.8258        9.8262       9.752889       0.04131
  22     96.49        0.0732        0.0005        9.7537        9.7542       9.680989       0.03968
  21     114.6        0.0731        0.0006        9.6735        9.6741       9.600943       0.03738
  20     136.5        0.0730        0.0007        9.5870        9.5877       9.514661       0.03318
  19     162.9        0.0729        0.0008        9.4949        9.4958       9.422818       0.02936
  18     196.4        0.0728        0.0010        9.3889        9.3899       9.317070       0.02662
  17     218.7        0.0727        0.0011        9.3234        9.3245       9.251781       0.02479
  16     243.0        0.0726        0.0012        9.2524        9.2536       9.180948       0.02457
  15     269.0        0.0725        0.0013        9.1720        9.1733       9.100771       0.02601
  14     297.5        0.0725        0.0015        9.0765        9.0780       9.005548       0.02824
  13     328.5        0.0724        0.0016        8.9652        8.9668       8.894410       0.03022
  12     361.9        0.0723        0.0017        8.8351        8.8368       8.764535       0.03286
  11     398.1        0.0723        0.0019        8.6822        8.6841       8.611808       0.03558
  10     437.6        0.0722        0.0020        8.5030        8.5050       8.432748       0.03828
   9     480.5        0.0722        0.0022        8.2950        8.2971       8.224887       0.04082
   8     533.0        0.0723        0.0023        8.0210        8.0233       7.951051       0.04405
   7     589.8        0.0724        0.0025        7.7064        7.7089       7.636486       0.04669
   6     651.6        0.0727        0.0026        7.3413        7.3439       7.271214       0.04995
   5     718.7        0.0732        0.0027        6.9387        6.9414       6.868236       0.05064
   4     792.3        0.0741        0.0028        6.5066        6.5095       6.435388       0.04964
   3     825.4        0.0759        0.0029        5.9472        5.9501       5.874182       0.14324
   2     858.4        0.0780        0.0030        5.5253        5.5284       5.450342       0.10819
   1     891.5        0.0805        0.0031        5.1855        5.1886       5.108101       0.08739
   0    1013.0        0.0854        0.0032        4.7692        4.7723       4.686925       0.02924



 Wavenumbers:  5150. -  6150. cm-1, ATM      1
 LEVEL PRESSURE   UPWARD FLUX   DIFDOWN FLUX  DIRDOWN FLUX  DOWNWARD FLUX   NET FLUX    HEATING RATE
          mb          W/m2          W/m2          W/m2        W/m2          W/m2       degree/day
  51    .06700        0.8812        0.0000       25.5798       25.5798      24.698603       0.00000
  50    .07753        0.8812        0.0000       25.5798       25.5798      24.698563       0.03156
  49    .09103        0.8812        0.0000       25.5797       25.5797      24.698512       0.03204
  48    0.1069        0.8812        0.0000       25.5797       25.5797      24.698451       0.03255
  47    0.1255        0.8812        0.0000       25.5796       25.5796      24.698378       0.03305
  46    0.1487        0.8812        0.0000       25.5795       25.5795      24.698282       0.03482
  45    0.1794        0.8812        0.0000       25.5794       25.5794      24.698147       0.03707
  44    0.2165        0.8812        0.0000       25.5792       25.5792      24.697982       0.03763
  43    0.2613        0.8812        0.0000       25.5790       25.5790      24.697779       0.03821
  42    0.3336        0.8812        0.0000       25.5786       25.5786      24.697433       0.04037
  41    0.4307        0.8812        0.0000       25.5782       25.5782      24.696962       0.04091
  40    0.5894        0.8812        0.0000       25.5774       25.5774      24.696174       0.04192
  39     1.339        0.8812        0.0000       25.5735       25.5736      24.692377       0.04275
  38     1.782        0.8812        0.0000       25.5713       25.5713      24.690168       0.04207
  37     2.292        0.8812        0.0001       25.5688       25.5688      24.687667       0.04141
  36     5.035        0.8811        0.0001       25.5647       25.5647      24.683584       0.01256
  35     6.613        0.8811        0.0001       25.5576       25.5577      24.676632       0.03717
  34     8.786        0.8811        0.0002       25.5485       25.5487      24.667628       0.03497
  33     11.80        0.8810        0.0003       25.5362       25.5365      24.655461       0.03406
  32     15.07        0.8809        0.0003       25.5239       25.5242      24.643274       0.03147
  31     18.79        0.8808        0.0004       25.5110       25.5114      24.630547       0.02885
  30     23.16        0.8807        0.0005       25.4971       25.4976      24.616857       0.02647
  29     28.12        0.8806        0.0007       25.4824       25.4831      24.602444       0.02450
  28     33.73        0.8805        0.0008       25.4676       25.4684      24.587872       0.02191
  27     40.54        0.8804        0.0010       25.4514       25.4524      24.571988       0.01971
  26     48.69        0.8802        0.0012       25.4341       25.4352      24.555046       0.01753
  25     57.69        0.8800        0.0014       25.4169       25.4183      24.538294       0.01570
  24     68.43        0.8798        0.0017       25.3983       25.4000      24.520181       0.01424
  23     81.20        0.8795        0.0020       25.3779       25.3799      24.500333       0.01312
  22     96.49        0.8792        0.0024       25.3550       25.3573      24.478114       0.01226
  21     114.6        0.8789        0.0028       25.3288       25.3316      24.452726       0.01185
  20     136.5        0.8784        0.0034       25.2983       25.3017      24.423280       0.01132
  19     162.9        0.8779        0.0040       25.2537       25.2577      24.379794       0.01390
  18     196.4        0.8773        0.0048       25.1601       25.1650      24.287712       0.02318
  17     218.7        0.8769        0.0054       25.0164       25.0217      24.144870       0.05423
  16     243.0        0.8764        0.0059       24.7092       24.7151      23.838712       0.10619
  15     269.0        0.8760        0.0064       24.1621       24.1685      23.292560       0.17717
  14     297.5        0.8755        0.0069       23.4546       23.4615      22.585979       0.20956
  13     328.5        0.8751        0.0074       22.7357       22.7431      21.867977       0.19522
  12     361.9        0.8747        0.0079       21.9226       21.9305      21.055836       0.20548
  11     398.1        0.8743        0.0083       20.9941       21.0024      20.128158       0.21613
  10     437.6        0.8739        0.0087       19.9835       19.9922      19.118314       0.21591
   9     480.5        0.8737        0.0091       18.9485       18.9576      18.083921       0.20315
   8     533.0        0.8735        0.0095       17.7798       17.7893      16.915791       0.18792
   7     589.8        0.8736        0.0099       16.6727       16.6826      15.809073       0.16427
   6     651.6        0.8742        0.0103       15.6344       15.6447      14.770556       0.14202
   5     718.7        0.8757        0.0107       14.7739       14.7846      13.908986       0.10828
   4     792.3        0.8788        0.0112       14.0292       14.0405      13.161699       0.08571
   3     825.4        0.8865        0.0119       13.1061       13.1180      12.231480       0.23743
   2     858.4        0.8953        0.0126       12.4796       12.4922      11.596980       0.16197
   1     891.5        0.9054        0.0134       12.0292       12.0426      11.137248       0.11739
   0    1013.0        0.9306        0.0142       11.4744       11.4886      10.558026       0.04022



 Wavenumbers:  6150. -  7700. cm-1, ATM      1
 LEVEL PRESSURE   UPWARD FLUX   DIFDOWN FLUX  DIRDOWN FLUX  DOWNWARD FLUX   NET FLUX    HEATING RATE
          mb          W/m2          W/m2          W/m2        W/m2          W/m2       degree/day
  51    .06700        2.3172        0.0000       47.3109       47.3109      44.993681       0.00000
  50    .07753        2.3172        0.0000       47.3108       47.3108      44.993624       0.04553
  49    .09103        2.3172        0.0000       47.3107       47.3107      44.993550       0.04583
  48    0.1069        2.3172        0.0000       47.3106       47.3106      44.993464       0.04614
  47    0.1255        2.3172        0.0000       47.3105       47.3105      44.993361       0.04645
  46    0.1487        2.3172        0.0000       47.3104       47.3104      44.993228       0.04852
  45    0.1794        2.3172        0.0000       47.3102       47.3102      44.993041       0.05127
  44    0.2165        2.3172        0.0000       47.3100       47.3100      44.992814       0.05167
  43    0.2613        2.3172        0.0000       47.3097       47.3097      44.992538       0.05210
  42    0.3336        2.3172        0.0000       47.3092       47.3092      44.992069       0.05471
  41    0.4307        2.3171        0.0000       47.3085       47.3086      44.991434       0.05521
  40    0.5894        2.3171        0.0001       47.3074       47.3075      44.990374       0.05633
  39     1.339        2.3171        0.0001       47.3022       47.3023      44.985282       0.05733
  38     1.782        2.3170        0.0002       47.2991       47.2993      44.982312       0.05655
  37     2.292        2.3170        0.0002       47.2956       47.2959      44.978936       0.05591
  36     5.035        2.3169        0.0003       47.2899       47.2902      44.973361       0.01715
  35     6.613        2.3167        0.0005       47.2800       47.2805      44.963786       0.05119
  34     8.786        2.3165        0.0007       47.2670       47.2677      44.951242       0.04871
  33     11.80        2.3162        0.0011       47.2491       47.2502      44.934007       0.04825
  32     15.07        2.3159        0.0014       47.2308       47.2322      44.916383       0.04550
  31     18.79        2.3155        0.0018       47.2112       47.2130      44.897550       0.04270
  30     23.16        2.3150        0.0023       47.1895       47.1918      44.876775       0.04017
  29     28.12        2.3145        0.0028       47.1661       47.1689      44.854376       0.03808
  28     33.73        2.3140        0.0034       47.1416       47.1450      44.831041       0.03508
  27     40.54        2.3133        0.0042       47.1141       47.1183      44.804955       0.03236
  26     48.69        2.3125        0.0050       47.0837       47.0887      44.776224       0.02973
  25     57.69        2.3116        0.0060       47.0527       47.0587      44.747138       0.02726
  24     68.43        2.3105        0.0072       47.0183       47.0254      44.714911       0.02533
  23     81.20        2.3092        0.0085       46.9796       46.9881      44.678903       0.02379
  22     96.49        2.3077        0.0102       46.9356       46.9457      44.638023       0.02256
  21     114.6        2.3059        0.0121       46.8846       46.8967      44.590830       0.02204
  20     136.5        2.3037        0.0144       46.8250       46.8394      44.535631       0.02123
  19     162.9        2.3012        0.0172       46.7403       46.7575      44.456316       0.02535
  18     196.4        2.2979        0.0207       46.5732       46.5939      44.296060       0.04034
  17     218.7        2.2957        0.0229       46.3491       46.3721      44.076357       0.08341
  16     243.0        2.2934        0.0253       45.9309       45.9562      43.662783       0.14344
  15     269.0        2.2910        0.0277       45.1716       45.1992      42.908192       0.24479
  14     297.5        2.2886        0.0299       44.0121       44.0419      41.753373       0.34251
  13     328.5        2.2861        0.0321       42.7247       42.7568      40.470709       0.34875
  12     361.9        2.2836        0.0343       41.3543       41.3887      39.105063       0.34552
  11     398.1        2.2812        0.0365       39.7956       39.8321      37.550888       0.36209
  10     437.6        2.2790        0.0384       37.9951       38.0335      35.754492       0.38408
   9     480.5        2.2771        0.0401       36.0650       36.1051      33.828063       0.37834
   8     533.0        2.2755        0.0418       33.7776       33.8194      31.543910       0.36745
   7     589.8        2.2752        0.0433       31.4085       31.4517      29.176510       0.35140
   6     651.6        2.2776        0.0442       28.8836       28.9278      26.650206       0.34548
   5     718.7        2.2845        0.0448       26.4106       26.4554      24.170927       0.31158
   4     792.3        2.2996        0.0451       24.0058       24.0509      21.751296       0.27750
   3     825.4        2.3383        0.0455       21.2997       21.3452      19.006852       0.70050
   2     858.4        2.3835        0.0470       19.7002       19.7472      17.363733       0.41943
   1     891.5        2.4369        0.0490       18.5706       18.6195      16.182649       0.30158
   0    1013.0        2.5659        0.0505       17.1355       17.1860      14.620120       0.10849



 Wavenumbers:  7700. -  8050. cm-1, ATM      1
 LEVEL PRESSURE   UPWARD FLUX   DIFDOWN FLUX  DIRDOWN FLUX  DOWNWARD FLUX   NET FLUX    HEATING RATE
          mb          W/m2          W/m2          W/m2        W/m2          W/m2       degree/day
  51    .06700        3.6099        0.0000       11.1810       11.1810       7.571072       0.00000
  50    .07753        3.6099        0.0000       11.1809       11.1809       7.571052       0.01605
  49    .09103        3.6099        0.0000       11.1809       11.1809       7.571026       0.01573
  48    0.1069        3.6099        0.0000       11.1809       11.1809       7.570997       0.01540
  47    0.1255        3.6099        0.0000       11.1809       11.1809       7.570964       0.01507
  46    0.1487        3.6099        0.0000       11.1808       11.1808       7.570922       0.01529
  45    0.1794        3.6099        0.0000       11.1808       11.1808       7.570865       0.01574
  44    0.2165        3.6099        0.0000       11.1807       11.1807       7.570797       0.01544
  43    0.2613        3.6099        0.0000       11.1806       11.1806       7.570717       0.01515
  42    0.3336        3.6099        0.0000       11.1805       11.1805       7.570584       0.01550
  41    0.4307        3.6100        0.0000       11.1803       11.1804       7.570407       0.01533
  40    0.5894        3.6100        0.0000       11.1801       11.1801       7.570119       0.01531
  39     1.339        3.6101        0.0001       11.1788       11.1789       7.568757       0.01534
  38     1.782        3.6102        0.0001       11.1781       11.1782       7.567957       0.01523
  37     2.292        3.6103        0.0001       11.1772       11.1773       7.567031       0.01534
  36     5.035        3.6104        0.0002       11.1757       11.1759       7.565424       0.00494
  35     6.613        3.6107        0.0002       11.1731       11.1733       7.562571       0.01525
  34     8.786        3.6111        0.0003       11.1695       11.1698       7.558728       0.01492
  33     11.80        3.6116        0.0005       11.1644       11.1649       7.553236       0.01538
  32     15.07        3.6122        0.0007       11.1589       11.1596       7.547346       0.01521
  31     18.79        3.6129        0.0008       11.1528       11.1536       7.540701       0.01507
  30     23.16        3.6137        0.0011       11.1456       11.1466       7.532953       0.01498
  29     28.12        3.6146        0.0013       11.1374       11.1387       7.524111       0.01503
  28     33.73        3.6156        0.0016       11.1282       11.1298       7.514241       0.01484
  27     40.54        3.6168        0.0019       11.1172       11.1191       7.502351       0.01475
  26     48.69        3.6182        0.0023       11.1040       11.1063       7.488069       0.01478
  25     57.69        3.6199        0.0027       11.0896       11.0923       7.472449       0.01464
  24     68.43        3.6218        0.0033       11.0725       11.0757       7.453938       0.01455
  23     81.20        3.6241        0.0039       11.0523       11.0562       7.432019       0.01448
  22     96.49        3.6270        0.0046       11.0284       11.0330       7.406088       0.01431
  21     114.6        3.6303        0.0055       11.0004       11.0059       7.375561       0.01425
  20     136.5        3.6344        0.0065       10.9676       10.9741       7.339737       0.01377
  19     162.9        3.6393        0.0078       10.9290       10.9368       7.297565       0.01348
  18     196.4        3.6457        0.0094       10.8799       10.8893       7.243621       0.01358
  17     218.7        3.6500        0.0104       10.8482       10.8586       7.208602       0.01330
  16     243.0        3.6547        0.0116       10.8140       10.8256       7.170846       0.01309
  15     269.0        3.6600        0.0128       10.7774       10.7902       7.130217       0.01318
  14     297.5        3.6658        0.0141       10.7382       10.7523       7.086527       0.01296
  13     328.5        3.6722        0.0156       10.6962       10.7117       7.039513       0.01278
  12     361.9        3.6793        0.0171       10.6512       10.6683       6.988991       0.01278
  11     398.1        3.6873        0.0188       10.6031       10.6218       6.934539       0.01269
  10     437.6        3.6962        0.0205       10.5513       10.5719       6.875632       0.01259
   9     480.5        3.7063        0.0224       10.4956       10.5181       6.811785       0.01254
   8     533.0        3.7194        0.0248       10.4264       10.4512       6.731764       0.01287
   7     589.8        3.7348        0.0273       10.3500       10.3772       6.642447       0.01326
   6     651.6        3.7532        0.0299       10.2633       10.2933       6.540014       0.01401
   5     718.7        3.7759        0.0328       10.1637       10.1964       6.420493       0.01502
   4     792.3        3.8047        0.0358       10.0457       10.0815       6.276759       0.01648
   3     825.4        3.8524        0.0397        9.8656        9.9053       6.052914       0.05714
   2     858.4        3.9019        0.0435        9.6939        9.7374       5.835499       0.05550
   1     891.5        3.9534        0.0473        9.5289        9.5762       5.622819       0.05431
   0    1013.0        4.0335        0.0516        9.2982        9.3497       5.316262       0.02129



 Wavenumbers:  8050. - 12850. cm-1, ATM      1
 LEVEL PRESSURE   UPWARD FLUX   DIFDOWN FLUX  DIRDOWN FLUX  DOWNWARD FLUX   NET FLUX    HEATING RATE
          mb          W/m2          W/m2          W/m2        W/m2          W/m2       degree/day
  51    .06700       78.9602        0.0000      156.5418      156.5418      77.581549       0.00000
  50    .07753       78.9602        0.0000      156.5417      156.5417      77.581549      -0.00000
  49    .09103       78.9602        0.0001      156.5417      156.5417      77.581549      -0.00000
  48    0.1069       78.9602        0.0001      156.5416      156.5417      77.581549       0.00000
  47    0.1255       78.9601        0.0002      156.5415      156.5417      77.581549       0.00000
  46    0.1487       78.9601        0.0002      156.5414      156.5416      77.581549      -0.00000
  45    0.1794       78.9601        0.0003      156.5413      156.5416      77.581549       0.00000
  44    0.2165       78.9600        0.0004      156.5412      156.5416      77.581549       0.00000
  43    0.2613       78.9600        0.0005      156.5410      156.5415      77.581549       0.00000
  42    0.3336       78.9599        0.0007      156.5407      156.5414      77.581549      -0.00000
  41    0.4307       78.9597        0.0010      156.5403      156.5413      77.581549       0.00000
  40    0.5894       78.9596        0.0014      156.5397      156.5411      77.581549       0.00000
  39     1.339       78.9586        0.0034      156.5367      156.5402      77.581549      -0.00000
  38     1.782       78.9581        0.0046      156.5350      156.5396      77.581549       0.00000
  37     2.292       78.9575        0.0060      156.5330      156.5390      77.581549       0.00000
  36     5.035       78.9564        0.0084      156.5295      156.5379      77.581549      -0.00000
  35     6.613       78.9544        0.0127      156.5233      156.5360      77.581549       0.00000
  34     8.786       78.9518        0.0184      156.5149      156.5333      77.581549       0.00000
  33     11.80       78.9480        0.0266      156.5029      156.5296      77.581549      -0.00000
  32     15.07       78.9440        0.0355      156.4901      156.5255      77.581549       0.00000
  31     18.79       78.9394        0.0455      156.4755      156.5210      77.581549      -0.00000
  30     23.16       78.9341        0.0572      156.4585      156.5156      77.581549      -0.00000
  29     28.12       78.9280        0.0705      156.4390      156.5095      77.581549       0.00000
  28     33.73       78.9211        0.0855      156.4171      156.5027      77.581549      -0.00000
  27     40.54       78.9128        0.1037      156.3907      156.4944      77.581549       0.00000
  26     48.69       78.9028        0.1256      156.3588      156.4844      77.581549      -0.00000
  25     57.69       78.8918        0.1497      156.3237      156.4734      77.581549       0.00000
  24     68.43       78.8787        0.1784      156.2818      156.4602      77.581549       0.00000
  23     81.20       78.8630        0.2127      156.2319      156.4445      77.581549      -0.00000
  22     96.49       78.8443        0.2536      156.1722      156.4258      77.581549       0.00000
  21     114.6       78.8221        0.3023      156.0952      156.3975      77.575380       0.00288
  20     136.5       78.7958        0.3601      156.0034      156.3635      77.567724       0.00294
  19     162.9       78.7644        0.4291      155.8903      156.3194      77.555003       0.00407
  18     196.4       78.7237        0.5188      155.7272      156.2460      77.522339       0.00822
  17     218.7       78.6970        0.5778      155.5805      156.1584      77.461390       0.02314
  16     243.0       78.6682        0.6419      155.3439      155.9859      77.317619       0.04986
  15     269.0       78.6378        0.7113      154.9586      155.6699      77.032159       0.09260
  14     297.5       78.6062        0.7859      154.3968      155.1827      76.576503       0.13514
  13     328.5       78.5739        0.8663      153.7223      154.5886      76.014704       0.15275
  12     361.9       78.5417        0.9526      152.9159      153.8685      75.326788       0.17405
  11     398.1       78.5111        1.0449      151.9057      152.9506      74.439489       0.20672
  10     437.6       78.4847        1.1430      150.6102      151.7532      73.268542       0.25036
   9     480.5       78.4653        1.2466      149.0084      150.2550      71.789686       0.29044
   8     533.0       78.4586        1.3719      146.7445      148.1164      69.657758       0.34296
   7     589.8       78.4824        1.5030      143.8798      145.3828      66.900412       0.40928
   6     651.6       78.5723        1.6374      140.1022      141.7396      63.167298       0.51051
   5     718.7       78.7729        1.7738      135.5343      137.3081      58.535256       0.58212
   4     792.3       79.1798        1.9091      130.0753      131.9844      52.804598       0.65724
   3     825.4       80.1746        2.0749      122.3099      124.3848      44.210227       2.19367
   2     858.4       81.3127        2.2449      116.7472      118.9920      37.679334       1.66713
   1     891.5       82.6226        2.4156      112.3887      114.8043      32.181659       1.40380
   0    1013.0       85.5738        2.5982      106.4686      109.0668      23.492988       0.60330



 Wavenumbers: 12850. - 16000. cm-1, ATM      1
 LEVEL PRESSURE   UPWARD FLUX   DIFDOWN FLUX  DIRDOWN FLUX  DOWNWARD FLUX   NET FLUX    HEATING RATE
          mb          W/m2          W/m2          W/m2        W/m2          W/m2       degree/day
  51    .06700       75.1737        0.0000       98.0872       98.0872      22.913584       0.00000
  50    .07753       75.1737        0.0001       98.0864       98.0864      22.912794       0.63322
  49    .09103       75.1736        0.0002       98.0853       98.0854      22.911802       0.61997
  48    0.1069       75.1736        0.0003       98.0841       98.0843      22.910663       0.60644
  47    0.1255       75.1736        0.0004       98.0826       98.0830      22.909354       0.59318
  46    0.1487       75.1737        0.0005       98.0809       98.0814      22.907704       0.60162
  45    0.1794       75.1737        0.0007       98.0784       98.0792      22.905459       0.61606
  44    0.2165       75.1738        0.0009       98.0756       98.0766      22.902821       0.60015
  43    0.2613       75.1738        0.0012       98.0723       98.0736      22.899721       0.58441
  42    0.3336       75.1740        0.0017       98.0670       98.0687      22.894665       0.58946
  41    0.4307       75.1744        0.0023       98.0602       98.0625      22.888134       0.56789
  40    0.5894       75.1750        0.0033       98.0496       98.0529      22.877858       0.54647
  39     1.339       75.1808        0.0080       98.0043       98.0123      22.831556       0.52127
  38     1.782       75.1861        0.0107       97.9793       97.9900      22.803931       0.52594
  37     2.292       75.1941        0.0139       97.9498       97.9637      22.769641       0.56793
  36     5.035       75.2155        0.0195       97.8891       97.9086      22.693119       0.23544
  35     6.613       75.2605        0.0293       97.7746       97.8039      22.543378       0.80052
  34     8.786       75.3192        0.0426       97.6278       97.6703      22.351165       0.74649
  33     11.80       75.3954        0.0615       97.4339       97.4953      22.099887       0.70350
  32     15.07       75.4685        0.0818       97.2433       97.3250      21.856585       0.62816
  31     18.79       75.5429        0.1047       97.0439       97.1485      21.605567       0.56913
  30     23.16       75.6208        0.1314       96.8292       96.9606      21.339812       0.51388
  29     28.12       75.6990        0.1619       96.6048       96.7667      21.067748       0.46249
  28     33.73       75.7711        0.1961       96.3831       96.5792      20.808035       0.39049
  27     40.54       75.8405        0.2373       96.1494       96.3867      20.546197       0.32484
  26     48.69       75.9068        0.2871       95.9016       96.1887      20.281936       0.27347
  25     57.69       75.9628        0.3417       95.6629       96.0047      20.041864       0.22503
  24     68.43       76.0113        0.4068       95.4149       95.8217      19.810442       0.18193
  23     81.20       76.0441        0.4845       95.1674       95.6519      19.607739       0.13394
  22     96.49       76.0602        0.5771       94.9172       95.4943      19.434178       0.09579
  21     114.6       76.0833        0.6884       94.6421       95.3305      19.247265       0.08728
  20     136.5       76.0995        0.8203       94.3324       95.1527      19.053194       0.07462
  19     162.9       76.1085        0.9774       93.9750       94.9524      18.843867       0.06691
  18     196.4       76.0984        1.1810       93.5336       94.7147      18.616274       0.05729
  17     218.7       76.0838        1.3148       93.2498       94.5646      18.480764       0.05145
  16     243.0       76.0645        1.4601       92.9420       94.4021      18.337687       0.04962
  15     269.0       76.0400        1.6177       92.6087       94.2263      18.186285       0.04911
  14     297.5       76.0109        1.7879       92.2464       94.0344      18.023502       0.04828
  13     328.5       75.9786        1.9719       91.8517       93.8236      17.845009       0.04853
  12     361.9       75.9438        2.1700       91.4219       93.5918      17.648029       0.04984
  11     398.1       75.9073        2.3832       90.9524       93.3356      17.428294       0.05119
  10     437.6       75.8711        2.6121       90.4358       93.0479      17.176835       0.05376
   9     480.5       75.8370        2.8574       89.8659       92.7233      16.886317       0.05706
   8     533.0       75.8047        3.1591       89.1347       92.2939      16.489150       0.06389
   7     589.8       75.7890        3.4837       88.2943       91.7781      15.989052       0.07423
   6     651.6       75.8122        3.8312       87.2867       91.1179      15.305734       0.09345
   5     718.7       75.8875        4.1996       86.1028       90.3024      14.414918       0.11195
   4     792.3       76.0606        4.5852       84.6812       89.2664      13.205753       0.13868
   3     825.4       76.4936        5.0894       82.5439       87.6332      11.139649       0.52736
   2     858.4       76.9778        5.5847       80.6265       86.2112       9.233364       0.48661
   1     891.5       77.5172        6.0724       78.8732       84.9456       7.428410       0.46089
   0    1013.0       78.6047        6.6325       76.5207       83.1532       4.548480       0.19997



 Wavenumbers: 16000. - 22650. cm-1, ATM      1
 LEVEL PRESSURE   UPWARD FLUX   DIFDOWN FLUX  DIRDOWN FLUX  DOWNWARD FLUX   NET FLUX    HEATING RATE
          mb          W/m2          W/m2          W/m2        W/m2          W/m2       degree/day
  51    .06700      138.9352        0.0000      156.3892      156.3892      17.454012       0.00000
  50    .07753      138.9352        0.0004      156.3887      156.3891      17.453866       0.11721
  49    .09103      138.9352        0.0009      156.3879      156.3888      17.453653       0.13294
  48    0.1069      138.9352        0.0015      156.3871      156.3885      17.453369       0.15159
  47    0.1255      138.9352        0.0021      156.3861      156.3882      17.452987       0.17280
  46    0.1487      138.9352        0.0029      156.3847      156.3877      17.452426       0.20476
  45    0.1794      138.9353        0.0041      156.3828      156.3869      17.451547       0.24109
  44    0.2165      138.9355        0.0054      156.3805      156.3859      17.450356       0.27096
  43    0.2613      138.9359        0.0070      156.3776      156.3846      17.448740       0.30462
  42    0.3336      138.9366        0.0096      156.3726      156.3822      17.445668       0.35823
  41    0.4307      138.9378        0.0131      156.3657      156.3788      17.441036       0.40269
  40    0.5894      138.9402        0.0188      156.3537      156.3724      17.432203       0.46972
  39     1.339      138.9621        0.0456      156.2834      156.3290      17.366946       0.73468
  38     1.782      138.9824        0.0614      156.2324      156.2937      17.311354       1.05837
  37     2.292      139.0128        0.0796      156.1641      156.2437      17.230885       1.33277
  36     5.035      139.0948        0.1113      156.0076      156.1188      17.024003       0.63652
  35     6.613      139.2675        0.1674      155.6950      155.8624      16.594925       2.29385
  34     8.786      139.4923        0.2429      155.2860      155.5289      16.036621       2.16825
  33     11.80      139.7848        0.3508      154.7422      155.0930      15.308223       2.03929
  32     15.07      140.0648        0.4664      154.2059      154.6724      14.607573       1.80894
  31     18.79      140.3506        0.5969      153.6432      154.2401      13.889519       1.62805
  30     23.16      140.6490        0.7489      153.0352      153.7841      13.135084       1.45884
  29     28.12      140.9491        0.9226      152.3965      153.3191      12.370016       1.30056
  28     33.73      141.2256        1.1166      151.7604      152.8771      11.651442       1.08040
  27     40.54      141.4912        1.3509      151.0815      152.4324      10.941285       0.88103
  26     48.69      141.7447        1.6330      150.3500      151.9830      10.238273       0.72751
  25     57.69      141.9588        1.9424      149.6296      151.5721       9.613272       0.58584
  24     68.43      142.1443        2.3105      148.8604      151.1709       9.026604       0.46120
  23     81.20      142.2702        2.7488      148.0628      150.8115       8.541329       0.32066
  22     96.49      142.3319        3.2704      147.2220      150.4924       8.160537       0.21017
  21     114.6      142.3601        3.8879      146.2838      150.1717       7.811560       0.16295
  20     136.5      142.3629        4.6170      145.2142      149.8312       7.468280       0.13200
  19     162.9      142.3382        5.4811      143.9816      149.4627       7.124437       0.10991
  18     196.4      142.2459        6.5959      142.4652      149.0611       6.815214       0.07784
  17     218.7      142.1632        7.3244      141.5017      148.8261       6.662895       0.05783
  16     243.0      142.0631        8.1128      140.4717      148.5845       6.521456       0.04906
  15     269.0      141.9440        8.9633      139.3740      148.3373       6.393326       0.04156
  14     297.5      141.8053        9.8780      138.2062      148.0842       6.278921       0.03393
  13     328.5      141.6507       10.8610      136.9574      147.8184       6.167714       0.03024
  12     361.9      141.4800       11.9133      135.6265      147.5399       6.059879       0.02728
  11     398.1      141.2925       13.0390      134.2081      147.2471       5.954596       0.02453
  10     437.6      141.0891       14.2399      132.6981      146.9380       5.848849       0.02261
   9     480.5      140.8693       15.5182      131.0935      146.6118       5.742446       0.02090
   8     533.0      140.5982       17.0794      129.1351      146.2145       5.616273       0.02030
   7     589.8      140.3089       18.7473      127.0392      145.7865       5.477532       0.02059
   6     651.6      140.0066       20.5235      124.7944      145.3179       5.311329       0.02273
   5     718.7      139.6962       22.4098      122.3908      144.8006       5.104412       0.02600
   4     792.3      139.3920       24.4039      119.8121      144.2161       4.824023       0.03216
   3     825.4      139.0478       27.0513      116.3088      143.3601       4.312307       0.13061
   2     858.4      138.7304       29.6128      112.9219      142.5347       3.804274       0.12968
   1     891.5      138.4382       32.0919      109.6474      141.7393       3.301092       0.12848
   0    1013.0      138.2026       35.0033      105.7039      140.7072       2.504588       0.05531



 Wavenumbers: 22650. - 29000. cm-1, ATM      1
 LEVEL PRESSURE   UPWARD FLUX   DIFDOWN FLUX  DIRDOWN FLUX  DOWNWARD FLUX   NET FLUX    HEATING RATE
          mb          W/m2          W/m2          W/m2        W/m2          W/m2       degree/day
  51    .06700       58.4542        0.0000       59.0156       59.0156       0.561382       0.00000
  50    .07753       58.4541        0.0005       59.0151       59.0155       0.561382       0.00000
  49    .09103       58.4540        0.0010       59.0144       59.0154       0.561382       0.00000
  48    0.1069       58.4539        0.0017       59.0136       59.0153       0.561382       0.00000
  47    0.1255       58.4537        0.0025       59.0127       59.0151       0.561382      -0.00000
  46    0.1487       58.4536        0.0034       59.0115       59.0149       0.561382       0.00000
  45    0.1794       58.4533        0.0048       59.0099       59.0147       0.561382       0.00000
  44    0.2165       58.4530        0.0063       59.0080       59.0144       0.561382      -0.00000
  43    0.2613       58.4526        0.0082       59.0058       59.0140       0.561382       0.00000
  42    0.3336       58.4520        0.0113       59.0022       59.0134       0.561382      -0.00000
  41    0.4307       58.4512        0.0153       58.9973       59.0126       0.561382       0.00000
  40    0.5894       58.4500        0.0220       58.9894       59.0113       0.561382      -0.00000
  39     1.339       58.4438        0.0534       58.9518       59.0052       0.561382      -0.00000
  38     1.782       58.4402        0.0719       58.9297       59.0016       0.561382       0.00000
  37     2.292       58.4361        0.0933       58.9042       58.9975       0.561382       0.00000
  36     5.035       58.4289        0.1304       58.8599       58.9903       0.561382      -0.00000
  35     6.613       58.4161        0.1962       58.7812       58.9775       0.561382      -0.00000
  34     8.786       58.3989        0.2849       58.6754       58.9602       0.561382      -0.00000
  33     11.80       58.3742        0.4115       58.5242       58.9356       0.561382       0.00000
  32     15.07       58.3479        0.5472       58.3621       58.9092       0.561382      -0.00000
  31     18.79       58.3181        0.7001       58.1794       58.8795       0.561382       0.00000
  30     23.16       58.2835        0.8784       57.9665       58.8448       0.561382       0.00000
  29     28.12       58.2439        1.0816       57.7237       58.8053       0.561382      -0.00000
  28     33.73       58.1999        1.3083       57.4530       58.7612       0.561382       0.00000
  27     40.54       58.1468        1.5810       57.1272       58.7082       0.561382       0.00000
  26     48.69       58.0832        1.9080       56.7366       58.6446       0.561382       0.00000
  25     57.69       58.0137        2.2651       56.3100       58.5751       0.561382      -0.00000
  24     68.43       57.9316        2.6873       55.8057       58.4929       0.561382       0.00000
  23     81.20       57.8345        3.1859       55.2100       58.3959       0.561382       0.00000
  22     96.49       57.7200        3.7737       54.5077       58.2814       0.561382       0.00000
  21     114.6       57.5858        4.4627       53.6845       58.1472       0.561382      -0.00000
  20     136.5       57.4291        5.2668       52.7236       57.9905       0.561382       0.00000
  19     162.9       57.2458        6.2068       51.6003       57.8071       0.561382       0.00000
  18     196.4       57.0133        7.3977       50.1770       57.5747       0.561382      -0.00000
  17     218.7       56.8639        8.1630       49.2623       57.4253       0.561382       0.00000
  16     243.0       56.7042        8.9800       48.2857       57.2656       0.561382      -0.00000
  15     269.0       56.5345        9.8482       47.2476       57.0958       0.561382       0.00000
  14     297.5       56.3547       10.7670       46.1491       56.9161       0.561382      -0.00000
  13     328.5       56.1646       11.7375       44.9884       56.7260       0.561382       0.00000
  12     361.9       55.9647       12.7573       43.7687       56.5261       0.561382       0.00000
  11     398.1       55.7549       13.8265       42.4898       56.3163       0.561382      -0.00000
  10     437.6       55.5356       14.9428       41.1542       56.0970       0.561382      -0.00000
   9     480.5       55.3072       16.1039       39.7647       55.8686       0.561382       0.00000
   8     533.0       55.0352       17.4848       38.1118       55.5966       0.561382       0.00000
   7     589.8       54.7527       18.9163       36.3978       55.3141       0.561382       0.00000
   6     651.6       54.4611       20.3910       34.6314       55.0224       0.561382       0.00000
   5     718.7       54.1613       21.9035       32.8192       54.7227       0.561382      -0.00000
   4     792.3       53.8549       23.4448       30.9715       54.4163       0.561382       0.00000
   3     825.4       53.4639       25.4054       28.6200       54.0253       0.561382       0.00000
   2     858.4       53.1036       27.2044       26.4605       53.6650       0.561382       0.00000
   1     891.5       52.7712       28.8562       24.4763       53.3326       0.561382      -0.00000
   0    1013.0       52.3992       30.6941       22.2665       52.9606       0.561382       0.00000



 Wavenumbers: 29000. - 38000. cm-1, ATM      1
 LEVEL PRESSURE   UPWARD FLUX   DIFDOWN FLUX  DIRDOWN FLUX  DOWNWARD FLUX   NET FLUX    HEATING RATE
          mb          W/m2          W/m2          W/m2        W/m2          W/m2       degree/day
  51    .06700        8.7833        0.0000       20.8114       20.8114      12.028040       0.00000
  50    .07753        8.7831        0.0003       20.8070       20.8074      12.024233       3.05171
  49    .09103        8.7829        0.0007       20.8009       20.8016      12.018695       3.46104
  48    0.1069        8.7827        0.0012       20.7928       20.7939      12.011285       3.94451
  47    0.1255        8.7824        0.0017       20.7820       20.7837      12.001380       4.49059
  46    0.1487        8.7820        0.0024       20.7665       20.7688      11.986816       5.30874
  45    0.1794        8.7816        0.0033       20.7424       20.7457      11.964149       6.22240
  44    0.2165        8.7811        0.0044       20.7103       20.7147      11.933625       6.94381
  43    0.2613        8.7805        0.0056       20.6675       20.6731      11.892628       7.72779
  42    0.3336        8.7796        0.0077       20.5880       20.5957      11.816062       8.92680
  41    0.4307        8.7785        0.0104       20.4722       20.4826      11.704102       9.73465
  40    0.5894        8.7770        0.0147       20.2637       20.2784      11.501405      10.77920
  39     1.339        8.7737        0.0332       19.0984       19.1315      10.357824      12.87464
  38     1.782        8.7743        0.0427       18.4394       18.4821       9.707816      12.37511
  37     2.292        8.7771        0.0530       17.7714       17.8244       9.047359      10.93889
  36     5.035        8.7898        0.0692       16.7265       16.7957       8.005851       3.20444
  35     6.613        8.8197        0.0964       15.5186       15.6150       6.795227       6.47200
  34     8.786        8.8597        0.1317       14.5590       14.6907       5.830952       3.74490
  33     11.80        8.9122        0.1805       13.7000       13.8805       4.968291       2.41518
  32     15.07        8.9630        0.2307       13.0749       13.3056       4.342629       1.61534
  31     18.79        9.0155        0.2860       12.5486       12.8346       3.819097       1.18701
  30     23.16        9.0713        0.3488       12.0732       12.4219       3.350604       0.90591
  29     28.12        9.1286        0.4189       11.6423       12.0612       2.932580       0.71061
  28     33.73        9.1814        0.4960       11.2628       11.7588       2.577334       0.53412
  27     40.54        9.2315        0.5880       10.8969       11.4848       2.253346       0.40194
  26     48.69        9.2786        0.6969       10.5353       11.2322       1.953639       0.31015
  25     57.69        9.3170        0.8148       10.2040       11.0188       1.701751       0.23611
  24     68.43        9.3479        0.9529        9.8713       10.8242       1.476290       0.17724
  23     81.20        9.3621        1.1159        9.5431       10.6590       1.296927       0.11852
  22     96.49        9.3575        1.3074        9.2107       10.5181       1.160645       0.07522
  21     114.6        9.3423        1.5285        8.8533       10.3818       1.039532       0.05655
  20     136.5        9.3195        1.7812        8.4618       10.2430       0.923513       0.04461
  19     162.9        9.2892        2.0691        8.0302       10.0993       0.810102       0.03625
  18     196.4        9.2391        2.4255        7.5240        9.9495       0.710455       0.02508
  17     218.7        9.2032        2.6496        7.2154        9.8651       0.661928       0.01842
  16     243.0        9.1638        2.8838        6.8972        9.7810       0.617171       0.01552
  15     269.0        9.1208        3.1272        6.5707        9.6979       0.577030       0.01302
  14     297.5        9.0744        3.3787        6.2374        9.6160       0.541686       0.01048
  13     328.5        9.0257        3.6373        5.8964        9.5336       0.507890       0.00919
  12     361.9        8.9755        3.9004        5.5509        9.4513       0.475790       0.00812
  11     398.1        8.9237        4.1675        5.2016        9.3691       0.445411       0.00708
  10     437.6        8.8709        4.4371        4.8500        9.2871       0.416168       0.00625
   9     480.5        8.8174        4.7069        4.4990        9.2059       0.388451       0.00544
   8     533.0        8.7558        5.0143        4.0999        9.1141       0.358288       0.00485
   7     589.8        8.6948        5.3169        3.7070        9.0240       0.329139       0.00433
   6     651.6        8.6353        5.6112        3.3248        8.9359       0.300679       0.00389
   5     718.7        8.5776        5.8954        2.9551        8.8505       0.272864       0.00350
   4     792.3        8.5227        6.1661        2.6023        8.7684       0.245700       0.00312
   3     825.4        8.4585        6.4836        2.1872        8.6708       0.212248       0.00854
   2     858.4        8.4071        6.7474        1.8390        8.5864       0.179268       0.00842
   1     891.5        8.3667        6.9666        1.5468        8.5134       0.146658       0.00833
   0    1013.0        8.3285        7.1865        1.2525        8.4390       0.110551       0.00251



 Wavenumbers: 38000. - 50000. cm-1, ATM      1
 LEVEL PRESSURE   UPWARD FLUX   DIFDOWN FLUX  DIRDOWN FLUX  DOWNWARD FLUX   NET FLUX    HEATING RATE
          mb          W/m2          W/m2          W/m2        W/m2          W/m2       degree/day
  51    .06700        0.0061        0.0000        1.2836        1.2836       1.277566       0.00000
  50    .07753        0.0060        0.0001        1.2812        1.2812       1.275231       1.87147
  49    .09103        0.0059        0.0002        1.2777        1.2778       1.271899       2.08243
  48    0.1069        0.0058        0.0002        1.2731        1.2734       1.267521       2.33056
  47    0.1255        0.0058        0.0004        1.2672        1.2675       1.261766       2.60905
  46    0.1487        0.0056        0.0005        1.2586        1.2591       1.253440       3.03495
  45    0.1794        0.0055        0.0007        1.2455        1.2462       1.240672       3.50516
  44    0.2165        0.0053        0.0009        1.2282        1.2291       1.223746       3.85033
  43    0.2613        0.0051        0.0011        1.2054        1.2065       1.201398       4.21256
  42    0.3336        0.0048        0.0015        1.1639        1.1654       1.160574       4.75965
  41    0.4307        0.0044        0.0020        1.1051        1.1070       1.102615       5.03937
  40    0.5894        0.0039        0.0026        1.0039        1.0064       1.002575       5.32000
  39     1.339        0.0022        0.0035        0.5438        0.5473       0.545166       5.14960
  38     1.782        0.0016        0.0032        0.3635        0.3666       0.365077       3.42860
  37     2.292        0.0011        0.0027        0.2356        0.2383       0.237147       2.11885
  36     5.035        0.0007        0.0019        0.1180        0.1199       0.119172       0.36298
  35     6.613        0.0004        0.0013        0.0504        0.0516       0.051220       0.36327
  34     8.786        0.0002        0.0009        0.0239        0.0248       0.024556       0.10355
  33     11.80        0.0001        0.0006        0.0105        0.0110       0.010913       0.03820
  32     15.07        0.0001        0.0004        0.0048        0.0052       0.005151       0.01488
  31     18.79        0.0000        0.0002        0.0022        0.0024       0.002406       0.00622
  30     23.16        0.0000        0.0001        0.0010        0.0011       0.001079       0.00257
  29     28.12        0.0000        0.0001        0.0004        0.0005       0.000469       0.00104
  28     33.73        0.0000        0.0000        0.0002        0.0002       0.000205       0.00040
  27     40.54        0.0000        0.0000        0.0001        0.0001       0.000083       0.00015
  26     48.69        0.0000        0.0000        0.0000        0.0000       0.000031       0.00005
  25     57.69        0.0000        0.0000        0.0000        0.0000       0.000011       0.00002
  24     68.43        0.0000        0.0000        0.0000        0.0000       0.000004       0.00001
  23     81.20        0.0000        0.0000        0.0000        0.0000       0.000001       0.00000
  22     96.49        0.0000        0.0000        0.0000        0.0000       0.000000       0.00000
  21     114.6        0.0000        0.0000        0.0000        0.0000       0.000000       0.00000
  20     136.5        0.0000        0.0000        0.0000        0.0000       0.000000       0.00000
  19     162.9        0.0000        0.0000        0.0000        0.0000       0.000000       0.00000
  18     196.4        0.0000        0.0000        0.0000        0.0000       0.000000       0.00000
  17     218.7        0.0000        0.0000        0.0000        0.0000       0.000000       0.00000
  16     243.0        0.0000        0.0000        0.0000        0.0000       0.000000       0.00000
  15     269.0        0.0000        0.0000        0.0000        0.0000       0.000000       0.00000
  14     297.5        0.0000        0.0000        0.0000        0.0000       0.000000       0.00000
  13     328.5        0.0000        0.0000        0.0000        0.0000       0.000000       0.00000
  12     361.9        0.0000        0.0000        0.0000        0.0000       0.000000       0.00000
  11     398.1        0.0000        0.0000        0.0000        0.0000       0.000000       0.00000
  10     437.6        0.0000        0.0000        0.0000        0.0000       0.000000       0.00000
   9     480.5        0.0000        0.0000        0.0000        0.0000       0.000000       0.00000
   8     533.0        0.0000        0.0000        0.0000        0.0000       0.000000       0.00000
   7     589.8        0.0000        0.0000        0.0000        0.0000       0.000000       0.00000
   6     651.6        0.0000        0.0000        0.0000        0.0000       0.000000       0.00000
   5     718.7        0.0000        0.0000        0.0000        0.0000       0.000000       0.00000
   4     792.3        0.0000        0.0000        0.0000        0.0000       0.000000       0.00000
   3     825.4        0.0000        0.0000        0.0000        0.0000       0.000000       0.00000
   2     858.4        0.0000        0.0000        0.0000        0.0000       0.000000       0.00000
   1     891.5        0.0000        0.0000        0.0000        0.0000       0.000000       0.00000
   0    1013.0        0.0000        0.0000        0.0000        0.0000       0.000000       0.00000



 Wavenumbers:   820. -  2600. cm-1, ATM      1
 LEVEL PRESSURE   UPWARD FLUX   DIFDOWN FLUX  DIRDOWN FLUX  DOWNWARD FLUX   NET FLUX    HEATING RATE
          mb          W/m2          W/m2          W/m2        W/m2          W/m2       degree/day
  51    .06700        0.0058        0.0000        6.0047        6.0047       5.998870       0.00000
  50    .07753        0.0058        0.0000        6.0008        6.0008       5.995017       3.08819
  49    .09103        0.0058        0.0000        5.9999        5.9999       5.994132       0.55356
  48    0.1069        0.0058        0.0000        5.9989        5.9989       5.993143       0.52650
  47    0.1255        0.0058        0.0000        5.9978        5.9978       5.992026       0.50647
  46    0.1487        0.0058        0.0000        5.9964        5.9964       5.990669       0.49454
  45    0.1794        0.0058        0.0000        5.9947        5.9947       5.988950       0.47197
  44    0.2165        0.0058        0.0000        5.9929        5.9929       5.987107       0.41907
  43    0.2613        0.0058        0.0000        5.9909        5.9909       5.985148       0.36930
  42    0.3336        0.0058        0.0000        5.9880        5.9880       5.982270       0.33553
  41    0.4307        0.0058        0.0000        5.9846        5.9846       5.978801       0.30162
  40    0.5894        0.0058        0.0000        5.9791        5.9791       5.973297       0.29273
  39     1.339        0.0058        0.0000        5.9536        5.9536       5.947812       0.28691
  38     1.782        0.0058        0.0000        5.9395        5.9395       5.933675       0.26914
  37     2.292        0.0058        0.0000        5.9237        5.9237       5.917926       0.26085
  36     5.035        0.0058        0.0000        5.8954        5.8954       5.889660       0.08697
  35     6.613        0.0058        0.0000        5.8469        5.8469       5.841167       0.25925
  34     8.786        0.0058        0.0000        5.7915        5.7915       5.785739       0.21526
  33     11.80        0.0058        0.0000        5.7245        5.7245       5.718691       0.18771
  32     15.07        0.0058        0.0000        5.6684        5.6684       5.662669       0.14464
  31     18.79        0.0058        0.0000        5.6231        5.6231       5.617280       0.10291
  30     23.16        0.0058        0.0000        5.5871        5.5871       5.581320       0.06953
  29     28.12        0.0058        0.0000        5.5583        5.5583       5.552519       0.04896
  28     33.73        0.0058        0.0000        5.5327        5.5328       5.526974       0.03841
  27     40.54        0.0058        0.0000        5.5051        5.5051       5.499293       0.03434
  26     48.69        0.0058        0.0000        5.4733        5.4733       5.467561       0.03284
  25     57.69        0.0058        0.0000        5.4393        5.4394       5.433578       0.03185
  24     68.43        0.0058        0.0000        5.3998        5.3999       5.394078       0.03105
  23     81.20        0.0058        0.0000        5.3545        5.3546       5.348785       0.02993
  22     96.49        0.0058        0.0000        5.3027        5.3027       5.296979       0.02859
  21     114.6        0.0058        0.0000        5.2431        5.2431       5.237323       0.02786
  20     136.5        0.0058        0.0000        5.1754        5.1755       5.169695       0.02600
  19     162.9        0.0058        0.0000        5.0924        5.0924       5.086620       0.02655
  18     196.4        0.0058        0.0000        4.9695        4.9695       4.963762       0.03092
  17     218.7        0.0058        0.0000        4.8606        4.8606       4.854863       0.04135
  16     243.0        0.0058        0.0000        4.7093        4.7093       4.703582       0.05247
  15     269.0        0.0058        0.0000        4.5352        4.5352       4.529429       0.05649
  14     297.5        0.0058        0.0000        4.3425        4.3426       4.336818       0.05713
  13     328.5        0.0058        0.0000        4.1286        4.1286       4.122877       0.05817
  12     361.9        0.0058        0.0000        3.8790        3.8791       3.873309       0.06314
  11     398.1        0.0058        0.0000        3.6162        3.6162       3.610477       0.06123
  10     437.6        0.0058        0.0000        3.3761        3.3761       3.370323       0.05135
   9     480.5        0.0058        0.0000        3.1959        3.1959       3.190153       0.03538
   8     533.0        0.0058        0.0000        3.0468        3.0468       3.041024       0.02399
   7     589.8        0.0058        0.0000        2.9024        2.9024       2.896590       0.02144
   6     651.6        0.0059        0.0000        2.7184        2.7184       2.712555       0.02517
   5     718.7        0.0060        0.0000        2.5059        2.5059       2.499928       0.02672
   4     792.3        0.0062        0.0000        2.2757        2.2757       2.269529       0.02642
   3     825.4        0.0067        0.0000        1.9665        1.9665       1.959881       0.07904
   2     858.4        0.0072        0.0000        1.7421        1.7422       1.734947       0.05742
   1     891.5        0.0078        0.0000        1.5543        1.5544       1.546528       0.04811
   0    1013.0        0.0093        0.0000        1.2606        1.2606       1.251278       0.02050

  Modules and versions used in this calculation:

       rrtmg_sw.1col.f90:  $Revision$                    rrtmg_sw_init.f90:  $Revision$        
     rrtmgsw_cldprop.f90:  $Revision$                  rrtmgsw_cldprmc.f90:  NOT USED          
     rrtmg_sw_reftra.f90:  $Revision$                  rrtmg_sw_spcvrt.f90:  NOT USED          
     rrtmg_sw_spcvmc.f90:  NOT USED                    rrtmgsw_setcoef.f90:  NOT USED          
     rrtmg_sw_taumol.f90:  $Revision$                  rrtmg_sw_vrtqdr.f90:  NOT USED          
                rrtatm.f:  NOT USED                             util_xxx.f:  NOT USED          
                 extra.f:  NOT USED                       rrtmg_sw_k_g.f90:  $Revision$        

