

 Wavenumbers:   820. - 50000. cm-1, ATM      1
 LEVEL PRESSURE   UPWARD FLUX   DIFDOWN FLUX  DIRDOWN FLUX  DOWNWARD FLUX   NET FLUX    HEATING RATE
          mb          W/m2          W/m2          W/m2        W/m2          W/m2       degree/day
  51    .06700      445.8589        0.0000      617.8126      617.8126     171.953706       0.00000
  50    .07753      445.8585        0.0013      617.7947      617.7961     171.937564      12.93833
  49    .09103      445.8581        0.0030      617.7778      617.7808     171.922751       9.25831
  48    0.1069      445.8576        0.0050      617.7581      617.7631     171.905486       9.19022
  47    0.1255      445.8571        0.0072      617.7340      617.7412     171.884137       9.67858
  46    0.1487      445.8565        0.0100      617.7009      617.7109     171.854446      10.82281
  45    0.1794      445.8558        0.0139      617.6521      617.6660     171.810207      12.14470
  44    0.2165      445.8551        0.0184      617.5895      617.6079     171.752875      13.04195
  43    0.2613      445.8544        0.0238      617.5089      617.5327     171.678349      14.04782
  42    0.3336      445.8535        0.0326      617.3641      617.3967     171.543241      15.75234
  41    0.4307      445.8528        0.0443      617.1591      617.2034     171.350584      16.75111
  40    0.5894      445.8527        0.0630      616.8005      616.8635     171.010831      18.06759
  39     1.339      445.8703        0.1479      614.9443      615.0922     169.221831      20.14089
  38     1.782      445.8934        0.1957      613.9670      614.1627     168.269278      18.13508
  37     2.292      445.9316        0.2500      613.0059      613.2559     167.324275      15.65172
  36     5.035      446.0444        0.3426      611.5124      611.8551     165.810675       4.65695
  35     6.613      446.2879        0.5061      609.6144      610.1206     163.832719      10.57415
  34     8.786      446.6056        0.7256      607.8253      608.5509     161.945278       7.33014
  33     11.80      447.0174        1.0375      605.8783      606.9158     159.898466       5.73043
  32     15.07      447.4094        1.3700      604.1777      605.5477     158.138304       4.54440
  31     18.79      447.8075        1.7438      602.5196      604.2633     156.455858       3.81462
  30     23.16      448.2207        2.1778      600.8127      602.9905     154.769743       3.26040
  29     28.12      448.6328        2.6717      599.0712      601.7429     153.110083       2.82131
  28     33.73      449.0052        3.2221      597.3500      600.5722     151.566970       2.32011
  27     40.54      449.3517        3.8846      595.5035      599.3881     150.036363       1.89889
  26     48.69      449.6694        4.6794      593.4958      598.1751     148.505743       1.58395
  25     57.69      449.9212        5.5480      591.4872      597.0352     147.114034       1.30452
  24     68.43      450.1157        6.5769      589.2939      595.8708     145.755148       1.06827
  23     81.20      450.2007        7.7966      586.9289      594.7255     144.524803       0.81299
  22     96.49      450.1662        9.2406      584.3423      593.5829     143.416696       0.61160
  21     114.6      450.0704       10.9393      581.4033      592.3425     142.272135       0.53443
  20     136.5      449.9125       12.9280      578.0541      590.9821     141.069612       0.46240
  19     162.9      449.6871       15.2618      574.1654      589.4272     139.740037       0.42499
  18     196.4      449.3082       18.2376      569.1760      587.4136     138.105393       0.41146
  17     218.7      449.0317       20.1615      565.6314      585.7930     136.761257       0.51032
  16     243.0      448.7240       22.2250      561.3129      583.5379     134.813916       0.67540
  15     269.0      448.3868       24.4293      555.9478      580.3772     131.990309       0.91597
  14     297.5      448.0263       26.7752      549.5394      576.3146     128.288280       1.09798
  13     328.5      447.6528       29.2690      542.6225      571.8915     124.238754       1.10105
  12     361.9      447.2746       31.9070      535.1469      567.0539     119.779306       1.12828
  11     398.1      446.9037       34.6937      526.9326      561.6263     114.722591       1.17810
  10     437.6      446.5633       37.6276      517.8921      555.5197     108.956388       1.23285
   9     480.5      446.2786       40.7068      508.2121      548.9189     102.640356       1.24045
   8     533.0      446.0778       44.4085      496.3783      540.7868      94.708926       1.27591
   7     589.8      446.1350       48.2922      483.5433      531.8355      85.700492       1.33715
   6     651.6      446.7646       52.3449      469.1414      521.4864      74.721819       1.50136
   5     718.7      448.4096       56.5586      453.6623      510.2209      61.811233       1.62250
   4     792.3      452.2406       60.9107      436.9145      497.8253      45.584694       1.86100
   3     825.4      314.4863      344.2754        1.0836      345.3590      30.872696       3.75516
   2     858.4      262.3233      287.6917        0.0034      287.6951      25.371783       1.40420
   1     891.5      216.7615      239.4732        0.0000      239.4732      22.711725       0.67923
   0    1013.0      217.8982      237.6271        0.0000      237.6271      19.728853       0.20712



 Wavenumbers:  2600. -  3250. cm-1, ATM      1
 LEVEL PRESSURE   UPWARD FLUX   DIFDOWN FLUX  DIRDOWN FLUX  DOWNWARD FLUX   NET FLUX    HEATING RATE
          mb          W/m2          W/m2          W/m2        W/m2          W/m2       degree/day
  51    .06700        1.9396        0.0000        5.4450        5.4450       3.505472       0.00000
  50    .07753        1.9396        0.0000        5.4450        5.4450       3.505464       0.00640
  49    .09103        1.9396        0.0000        5.4450        5.4450       3.505454       0.00627
  48    0.1069        1.9396        0.0000        5.4450        5.4450       3.505443       0.00613
  47    0.1255        1.9396        0.0000        5.4450        5.4450       3.505429       0.00599
  46    0.1487        1.9396        0.0000        5.4450        5.4450       3.505413       0.00608
  45    0.1794        1.9396        0.0000        5.4450        5.4450       3.505390       0.00625
  44    0.2165        1.9396        0.0000        5.4449        5.4449       3.505363       0.00612
  43    0.2613        1.9396        0.0000        5.4449        5.4449       3.505331       0.00600
  42    0.3336        1.9396        0.0000        5.4448        5.4448       3.505278       0.00617
  41    0.4307        1.9396        0.0000        5.4448        5.4448       3.505207       0.00620
  40    0.5894        1.9396        0.0000        5.4446        5.4446       3.505087       0.00637
  39     1.339        1.9396        0.0000        5.4439        5.4439       3.504380       0.00797
  38     1.782        1.9396        0.0000        5.4434        5.4434       3.503837       0.01034
  37     2.292        1.9396        0.0000        5.4427        5.4427       3.503121       0.01186
  36     5.035        1.9396        0.0000        5.4412        5.4412       3.501594       0.00470
  35     6.613        1.9396        0.0000        5.4381        5.4381       3.498517       0.01645
  34     8.786        1.9396        0.0000        5.4341        5.4341       3.494509       0.01556
  33     11.80        1.9396        0.0000        5.4288        5.4288       3.489263       0.01469
  32     15.07        1.9396        0.0000        5.4239        5.4239       3.484335       0.01272
  31     18.79        1.9396        0.0000        5.4191        5.4192       3.479589       0.01076
  30     23.16        1.9396        0.0000        5.4144        5.4144       3.474838       0.00919
  29     28.12        1.9396        0.0000        5.4096        5.4096       3.470001       0.00822
  28     33.73        1.9396        0.0000        5.4042        5.4042       3.464633       0.00807
  27     40.54        1.9396        0.0000        5.3972        5.3972       3.457601       0.00872
  26     48.69        1.9396        0.0000        5.3877        5.3877       3.448056       0.00988
  25     57.69        1.9397        0.0000        5.3759        5.3759       3.436209       0.01110
  24     68.43        1.9397        0.0000        5.3604        5.3604       3.420642       0.01224
  23     81.20        1.9398        0.0000        5.3405        5.3405       3.400700       0.01318
  22     96.49        1.9399        0.0000        5.3159        5.3159       3.375987       0.01364
  21     114.6        1.9401        0.0001        5.2857        5.2857       3.345594       0.01419
  20     136.5        1.9404        0.0001        5.2507        5.2508       3.310422       0.01352
  19     162.9        1.9407        0.0001        5.2113        5.2114       3.270715       0.01269
  18     196.4        1.9413        0.0001        5.1642        5.1643       3.223045       0.01200
  17     218.7        1.9418        0.0001        5.1333        5.1334       3.191524       0.01197
  16     243.0        1.9428        0.0001        5.0963        5.0964       3.153656       0.01313
  15     269.0        1.9443        0.0001        5.0512        5.0513       3.107041       0.01512
  14     297.5        1.9465        0.0001        4.9957        4.9958       3.049310       0.01712
  13     328.5        1.9496        0.0001        4.9304        4.9306       2.980955       0.01859
  12     361.9        1.9539        0.0002        4.8511        4.8513       2.897395       0.02114
  11     398.1        1.9598        0.0002        4.7507        4.7509       2.791058       0.02477
  10     437.6        1.9681        0.0002        4.6221        4.6222       2.654176       0.02927
   9     480.5        1.9795        0.0002        4.4625        4.4627       2.483179       0.03358
   8     533.0        1.9982        0.0002        4.2461        4.2463       2.248057       0.03782
   7     589.8        2.0268        0.0002        3.9954        3.9956       1.968820       0.04145
   6     651.6        2.0742        0.0002        3.7089        3.7091       1.634850       0.04567
   5     718.7        2.1531        0.0002        3.4018        3.4020       1.248953       0.04850
   4     792.3        2.2977        0.0002        3.0564        3.0567       0.758976       0.05619
   3     825.4        0.9744        1.3023        0.0068        1.3091       0.334707       0.10829
   2     858.4        0.5282        0.7259        0.0000        0.7259       0.197678       0.03498
   1     891.5        0.2259        0.3686        0.0000        0.3686       0.142659       0.01405
   0    1013.0        0.2455        0.3362        0.0000        0.3362       0.090787       0.00360



 Wavenumbers:  3250. -  4000. cm-1, ATM      1
 LEVEL PRESSURE   UPWARD FLUX   DIFDOWN FLUX  DIRDOWN FLUX  DOWNWARD FLUX   NET FLUX    HEATING RATE
          mb          W/m2          W/m2          W/m2        W/m2          W/m2       degree/day
  51    .06700        0.0553        0.0000        9.1795        9.1795       9.124236       0.00000
  50    .07753        0.0553        0.0000        9.1747        9.1747       9.119393       3.88162
  49    .09103        0.0553        0.0000        9.1713        9.1713       9.116005       2.11758
  48    0.1069        0.0553        0.0000        9.1688        9.1688       9.113480       1.34411
  47    0.1255        0.0553        0.0000        9.1665        9.1665       9.111221       1.02430
  46    0.1487        0.0553        0.0000        9.1641        9.1641       9.108779       0.88998
  45    0.1794        0.0553        0.0000        9.1612        9.1612       9.105901       0.79014
  44    0.2165        0.0553        0.0000        9.1583        9.1583       9.102981       0.66436
  43    0.2613        0.0553        0.0000        9.1553        9.1553       9.100007       0.56046
  42    0.3336        0.0553        0.0000        9.1511        9.1511       9.095828       0.48727
  41    0.4307        0.0553        0.0000        9.1464        9.1464       9.091059       0.41463
  40    0.5894        0.0553        0.0000        9.1393        9.1393       9.084053       0.37258
  39     1.339        0.0553        0.0000        9.1127        9.1127       9.057437       0.29965
  38     1.782        0.0553        0.0000        9.1011        9.1011       9.045848       0.22064
  37     2.292        0.0553        0.0000        9.0901        9.0901       9.034781       0.18331
  36     5.035        0.0553        0.0000        9.0731        9.0731       9.017848       0.05210
  35     6.613        0.0553        0.0000        9.0438        9.0439       8.988568       0.15653
  34     8.786        0.0553        0.0000        9.0058        9.0058       8.950482       0.14791
  33     11.80        0.0553        0.0000        8.9509        8.9509       8.895611       0.15362
  32     15.07        0.0553        0.0000        8.8914        8.8914       8.836132       0.15356
  31     18.79        0.0553        0.0000        8.8241        8.8242       8.768898       0.15244
  30     23.16        0.0553        0.0000        8.7473        8.7474       8.692086       0.14853
  29     28.12        0.0553        0.0000        8.6639        8.6640       8.608703       0.14174
  28     33.73        0.0553        0.0000        8.5784        8.5784       8.523193       0.12857
  27     40.54        0.0552        0.0001        8.4859        8.4860       8.430720       0.11472
  26     48.69        0.0552        0.0001        8.3873        8.3873       8.332096       0.10206
  25     57.69        0.0552        0.0001        8.2887        8.2888       8.233546       0.09238
  24     68.43        0.0552        0.0001        8.1771        8.1772       8.122029       0.08767
  23     81.20        0.0552        0.0001        8.0474        8.0475       7.992308       0.08572
  22     96.49        0.0552        0.0001        7.8963        7.8965       7.841296       0.08335
  21     114.6        0.0552        0.0001        7.7173        7.7174       7.662285       0.08359
  20     136.5        0.0551        0.0002        7.5201        7.5203       7.465170       0.07580
  19     162.9        0.0551        0.0002        7.2919        7.2921       7.237039       0.07292
  18     196.4        0.0551        0.0002        6.9664        6.9666       6.911526       0.08194
  17     218.7        0.0551        0.0002        6.6650        6.6652       6.610169       0.11441
  16     243.0        0.0551        0.0002        6.2620        6.2622       6.207186       0.13977
  15     269.0        0.0551        0.0003        5.7575        5.7578       5.702683       0.16366
  14     297.5        0.0552        0.0003        5.1717        5.1720       5.116766       0.17378
  13     328.5        0.0554        0.0002        4.5755        4.5757       4.520324       0.16217
  12     361.9        0.0557        0.0002        3.9992        3.9995       3.943745       0.14588
  11     398.1        0.0563        0.0002        3.4651        3.4653       3.409077       0.12457
  10     437.6        0.0572        0.0002        2.9736        2.9739       2.916659       0.10528
   9     480.5        0.0587        0.0002        2.5303        2.5305       2.471752       0.08738
   8     533.0        0.0617        0.0002        2.0610        2.0612       1.999521       0.07597
   7     589.8        0.0670        0.0002        1.6146        1.6148       1.547741       0.06706
   6     651.6        0.0783        0.0001        1.1562        1.1563       1.077994       0.06424
   5     718.7        0.1032        0.0001        0.7388        0.7389       0.635733       0.05558
   4     792.3        0.1695        0.0001        0.3984        0.3984       0.228878       0.04666
   3     825.4        0.0107        0.0295        0.0003        0.0298       0.019100       0.05354
   2     858.4        0.0010        0.0028        0.0000        0.0028       0.001793       0.00442
   1     891.5        0.0000        0.0002        0.0000        0.0002       0.000212       0.00040
   0    1013.0        0.0000        0.0000        0.0000        0.0000       0.000006       0.00001



 Wavenumbers:  4000. -  4650. cm-1, ATM      1
 LEVEL PRESSURE   UPWARD FLUX   DIFDOWN FLUX  DIRDOWN FLUX  DOWNWARD FLUX   NET FLUX    HEATING RATE
          mb          W/m2          W/m2          W/m2        W/m2          W/m2       degree/day
  51    .06700        6.5106        0.0000       10.7795       10.7795       4.268910       0.00000
  50    .07753        6.5106        0.0000       10.7795       10.7795       4.268909       0.00080
  49    .09103        6.5106        0.0000       10.7795       10.7795       4.268908       0.00078
  48    0.1069        6.5106        0.0000       10.7795       10.7795       4.268906       0.00077
  47    0.1255        6.5106        0.0000       10.7795       10.7795       4.268905       0.00075
  46    0.1487        6.5106        0.0000       10.7795       10.7795       4.268903       0.00076
  45    0.1794        6.5106        0.0000       10.7795       10.7795       4.268900       0.00078
  44    0.2165        6.5106        0.0000       10.7795       10.7795       4.268896       0.00076
  43    0.2613        6.5106        0.0000       10.7795       10.7795       4.268893       0.00075
  42    0.3336        6.5106        0.0000       10.7795       10.7795       4.268886       0.00077
  41    0.4307        6.5106        0.0000       10.7795       10.7795       4.268877       0.00077
  40    0.5894        6.5106        0.0000       10.7795       10.7795       4.268862       0.00080
  39     1.339        6.5106        0.0000       10.7794       10.7794       4.268773       0.00101
  38     1.782        6.5106        0.0000       10.7793       10.7793       4.268703       0.00133
  37     2.292        6.5106        0.0000       10.7792       10.7792       4.268608       0.00156
  36     5.035        6.5106        0.0000       10.7790       10.7790       4.268400       0.00064
  35     6.613        6.5106        0.0000       10.7785       10.7786       4.267946       0.00243
  34     8.786        6.5106        0.0000       10.7779       10.7779       4.267276       0.00260
  33     11.80        6.5106        0.0000       10.7768       10.7768       4.266223       0.00295
  32     15.07        6.5106        0.0001       10.7755       10.7756       4.264987       0.00319
  31     18.79        6.5106        0.0001       10.7740       10.7741       4.263491       0.00339
  30     23.16        6.5106        0.0001       10.7722       10.7723       4.261632       0.00359
  29     28.12        6.5106        0.0001       10.7699       10.7700       4.259380       0.00383
  28     33.73        6.5107        0.0002       10.7671       10.7673       4.256602       0.00418
  27     40.54        6.5107        0.0002       10.7633       10.7635       4.252829       0.00468
  26     48.69        6.5108        0.0002       10.7583       10.7586       4.247796       0.00521
  25     57.69        6.5109        0.0003       10.7524       10.7527       4.241823       0.00560
  24     68.43        6.5110        0.0003       10.7450       10.7453       4.234325       0.00589
  23     81.20        6.5112        0.0004       10.7359       10.7363       4.225076       0.00611
  22     96.49        6.5115        0.0005       10.7249       10.7253       4.213799       0.00622
  21     114.6        6.5120        0.0006       10.7111       10.7116       4.199664       0.00660
  20     136.5        6.5126        0.0007       10.6945       10.6952       4.182590       0.00657
  19     162.9        6.5136        0.0008       10.6744       10.6751       4.161586       0.00671
  18     196.4        6.5152        0.0010       10.6467       10.6476       4.132481       0.00733
  17     218.7        6.5166        0.0011       10.6258       10.6268       4.110248       0.00844
  16     243.0        6.5187        0.0012       10.5983       10.5995       4.080860       0.01019
  15     269.0        6.5217        0.0013       10.5613       10.5627       4.040919       0.01296
  14     297.5        6.5262        0.0014       10.5122       10.5136       3.987372       0.01588
  13     328.5        6.5324        0.0016       10.4501       10.4517       3.919238       0.01853
  12     361.9        6.5406        0.0017       10.3704       10.3721       3.831554       0.02219
  11     398.1        6.5508        0.0019       10.2679       10.2698       3.719080       0.02620
  10     437.6        6.5638        0.0021       10.1391       10.1412       3.577380       0.03030
   9     480.5        6.5805        0.0023        9.9878        9.9900       3.409500       0.03297
   8     533.0        6.6063        0.0025        9.7937        9.7962       3.189860       0.03533
   7     589.8        6.6438        0.0027        9.5752        9.5779       2.934123       0.03796
   6     651.6        6.7043        0.0029        9.2958        9.2987       2.594439       0.04645
   5     718.7        6.8066        0.0031        8.9267        8.9299       2.123278       0.05921
   4     792.3        7.0004        0.0033        8.4542        8.4575       1.457134       0.07640
   3     825.4        3.6957        4.5322        0.0204        4.5526       0.856848       0.15322
   2     858.4        2.3353        2.9842        0.0001        2.9843       0.649005       0.05306
   1     891.5        1.2092        1.7659        0.0000        1.7659       0.556754       0.02356
   0    1013.0        1.2459        1.7068        0.0000        1.7068       0.460823       0.00666



 Wavenumbers:  4650. -  5150. cm-1, ATM      1
 LEVEL PRESSURE   UPWARD FLUX   DIFDOWN FLUX  DIRDOWN FLUX  DOWNWARD FLUX   NET FLUX    HEATING RATE
          mb          W/m2          W/m2          W/m2        W/m2          W/m2       degree/day
  51    .06700        4.6632        0.0000       10.2033       10.2033       5.540159       0.00000
  50    .07753        4.6632        0.0000       10.2031       10.2031       5.539923       0.18901
  49    .09103        4.6632        0.0000       10.2028       10.2028       5.539629       0.18428
  48    0.1069        4.6632        0.0000       10.2025       10.2025       5.539292       0.17931
  47    0.1255        4.6632        0.0000       10.2021       10.2021       5.538907       0.17426
  46    0.1487        4.6632        0.0000       10.2016       10.2016       5.538426       0.17536
  45    0.1794        4.6632        0.0000       10.2010       10.2010       5.537776       0.17850
  44    0.2165        4.6632        0.0000       10.2002       10.2002       5.537017       0.17277
  43    0.2613        4.6632        0.0000       10.1993       10.1993       5.536131       0.16690
  42    0.3336        4.6632        0.0000       10.1979       10.1979       5.534699       0.16702
  41    0.4307        4.6632        0.0000       10.1960       10.1960       5.532858       0.16002
  40    0.5894        4.6632        0.0000       10.1932       10.1932       5.529984       0.15283
  39     1.339        4.6632        0.0000       10.1816       10.1816       5.518392       0.13051
  38     1.782        4.6632        0.0000       10.1760       10.1760       5.512863       0.10527
  37     2.292        4.6632        0.0000       10.1706       10.1706       5.507406       0.09038
  36     5.035        4.6632        0.0000       10.1630       10.1630       5.499819       0.02334
  35     6.613        4.6632        0.0000       10.1533       10.1533       5.490109       0.05191
  34     8.786        4.6632        0.0000       10.1442       10.1442       5.481015       0.03532
  33     11.80        4.6632        0.0001       10.1340       10.1341       5.470865       0.02841
  32     15.07        4.6632        0.0001       10.1237       10.1238       5.460590       0.02653
  31     18.79        4.6633        0.0001       10.1115       10.1117       5.448384       0.02767
  30     23.16        4.6633        0.0002       10.0961       10.0963       5.432913       0.02992
  29     28.12        4.6634        0.0002       10.0769       10.0771       5.413627       0.03278
  28     33.73        4.6636        0.0002       10.0536       10.0539       5.390299       0.03507
  27     40.54        4.6637        0.0003       10.0235       10.0238       5.360083       0.03749
  26     48.69        4.6640        0.0003        9.9852        9.9855       5.321495       0.03993
  25     57.69        4.6643        0.0004        9.9414        9.9418       5.277459       0.04128
  24     68.43        4.6648        0.0005        9.8884        9.8889       5.224087       0.04196
  23     81.20        4.6654        0.0006        9.8258        9.8263       5.160882       0.04177
  22     96.49        4.6663        0.0007        9.7537        9.7544       5.088034       0.04021
  21     114.6        4.6676        0.0008        9.6735        9.6743       5.006688       0.03798
  20     136.5        4.6693        0.0009        9.5870        9.5879       4.918623       0.03386
  19     162.9        4.6717        0.0011        9.4949        9.4960       4.824312       0.03015
  18     196.4        4.6754        0.0013        9.3889        9.3902       4.714793       0.02757
  17     218.7        4.6783        0.0015        9.3234        9.3249       4.646549       0.02591
  16     243.0        4.6821        0.0016        9.2524        9.2540       4.571904       0.02589
  15     269.0        4.6871        0.0018        9.1720        9.1738       4.486630       0.02766
  14     297.5        4.6942        0.0020        9.0765        9.0785       4.384318       0.03034
  13     328.5        4.7034        0.0021        8.9652        8.9673       4.263962       0.03272
  12     361.9        4.7152        0.0023        8.8351        8.8375       4.122214       0.03586
  11     398.1        4.7307        0.0025        8.6822        8.6847       3.954077       0.03917
  10     437.6        4.7507        0.0027        8.5030        8.5057       3.754989       0.04257
   9     480.5        4.7768        0.0030        8.2950        8.2979       3.521077       0.04594
   8     533.0        4.8167        0.0032        8.0210        8.0242       3.207475       0.05045
   7     589.8        4.8723        0.0034        7.7064        7.7099       2.837561       0.05491
   6     651.6        4.9548        0.0037        7.3413        7.3450       2.390211       0.06118
   5     718.7        5.0800        0.0039        6.9387        6.9426       1.862649       0.06630
   4     792.3        5.2811        0.0041        6.5066        6.5107       1.229597       0.07260
   3     825.4        2.6405        3.3132        0.0155        3.3287       0.688162       0.13820
   2     858.4        1.6074        2.0893        0.0000        2.0894       0.481926       0.05265
   1     891.5        0.8040        1.1956        0.0000        1.1956       0.391518       0.02309
   0    1013.0        0.8359        1.1450        0.0000        1.1450       0.309152       0.00572



 Wavenumbers:  5150. -  6150. cm-1, ATM      1
 LEVEL PRESSURE   UPWARD FLUX   DIFDOWN FLUX  DIRDOWN FLUX  DOWNWARD FLUX   NET FLUX    HEATING RATE
          mb          W/m2          W/m2          W/m2        W/m2          W/m2       degree/day
  51    .06700       11.2598        0.0000       25.5798       25.5798      14.319983       0.00000
  50    .07753       11.2598        0.0000       25.5798       25.5798      14.319943       0.03162
  49    .09103       11.2598        0.0000       25.5797       25.5797      14.319892       0.03211
  48    0.1069       11.2598        0.0000       25.5797       25.5797      14.319831       0.03261
  47    0.1255       11.2598        0.0000       25.5796       25.5796      14.319757       0.03311
  46    0.1487       11.2598        0.0000       25.5795       25.5795      14.319662       0.03489
  45    0.1794       11.2598        0.0000       25.5794       25.5794      14.319527       0.03713
  44    0.2165       11.2598        0.0000       25.5792       25.5792      14.319361       0.03769
  43    0.2613       11.2598        0.0000       25.5790       25.5790      14.319158       0.03827
  42    0.3336       11.2598        0.0000       25.5786       25.5786      14.318811       0.04043
  41    0.4307       11.2598        0.0000       25.5782       25.5782      14.318340       0.04098
  40    0.5894       11.2598        0.0000       25.5774       25.5774      14.317550       0.04199
  39     1.339       11.2598        0.0000       25.5735       25.5736      14.313746       0.04283
  38     1.782       11.2598        0.0001       25.5713       25.5714      14.311530       0.04218
  37     2.292       11.2598        0.0001       25.5688       25.5688      14.309022       0.04154
  36     5.035       11.2598        0.0001       25.5647       25.5648      14.304922       0.01262
  35     6.613       11.2598        0.0002       25.5576       25.5578      14.297932       0.03737
  34     8.786       11.2599        0.0002       25.5485       25.5487      14.288872       0.03518
  33     11.80       11.2599        0.0003       25.5362       25.5365      14.276618       0.03431
  32     15.07       11.2600        0.0004       25.5239       25.5243      14.264327       0.03173
  31     18.79       11.2600        0.0005       25.5110       25.5115      14.251475       0.02914
  30     23.16       11.2601        0.0007       25.4971       25.4977      14.237629       0.02677
  29     28.12       11.2602        0.0008       25.4824       25.4833      14.223025       0.02483
  28     33.73       11.2604        0.0010       25.4676       25.4686      14.208217       0.02226
  27     40.54       11.2606        0.0012       25.4514       25.4526      14.192010       0.02011
  26     48.69       11.2609        0.0015       25.4341       25.4356      14.174632       0.01798
  25     57.69       11.2613        0.0018       25.4169       25.4187      14.157357       0.01619
  24     68.43       11.2619        0.0021       25.3983       25.4004      14.138581       0.01476
  23     81.20       11.2625        0.0025       25.3779       25.3804      14.117903       0.01366
  22     96.49       11.2633        0.0030       25.3550       25.3580      14.094661       0.01283
  21     114.6       11.2643        0.0036       25.3288       25.3324      14.068017       0.01244
  20     136.5       11.2656        0.0043       25.2983       25.3026      14.037036       0.01191
  19     162.9       11.2672        0.0051       25.2537       25.2588      13.991658       0.01450
  18     196.4       11.2693        0.0062       25.1601       25.1663      13.897008       0.02382
  17     218.7       11.2709        0.0069       25.0164       25.0232      13.752354       0.05492
  16     243.0       11.2728        0.0075       24.7092       24.7168      13.444021       0.10694
  15     269.0       11.2752        0.0082       24.1621       24.1704      12.895172       0.17804
  14     297.5       11.2785        0.0089       23.4546       23.4635      12.185062       0.21061
  13     328.5       11.2827        0.0096       22.7357       22.7453      11.462554       0.19645
  12     361.9       11.2884        0.0104       21.9226       21.9330      10.644587       0.20695
  11     398.1       11.2959        0.0110       20.9941       21.0051       9.709222       0.21792
  10     437.6       11.3063        0.0117       19.9835       19.9952       8.688872       0.21816
   9     480.5       11.3207        0.0124       18.9485       18.9608       7.640095       0.20598
   8     533.0       11.3451        0.0131       17.7798       17.7929       6.447786       0.19180
   7     589.8       11.3845        0.0139       16.6727       16.6866       5.302166       0.17005
   6     651.6       11.4563        0.0147       15.6344       15.6491       4.192779       0.15171
   5     718.7       11.5881        0.0155       14.7739       14.7895       3.201337       0.12460
   4     792.3       11.8520        0.0165       14.0292       14.0457       2.193721       0.11556
   3     825.4        6.5630        7.8842        0.0343        7.9185       1.355485       0.21395
   2     858.4        4.3116        5.4044        0.0001        5.4045       1.092874       0.06704
   1     891.5        2.3383        3.3269        0.0000        3.3269       0.988629       0.02662
   0    1013.0        2.3799        3.2601        0.0000        3.2601       0.880233       0.00753



 Wavenumbers:  6150. -  7700. cm-1, ATM      1
 LEVEL PRESSURE   UPWARD FLUX   DIFDOWN FLUX  DIRDOWN FLUX  DOWNWARD FLUX   NET FLUX    HEATING RATE
          mb          W/m2          W/m2          W/m2        W/m2          W/m2       degree/day
  51    .06700       17.8119        0.0000       47.3109       47.3109      29.498913       0.00000
  50    .07753       17.8119        0.0000       47.3108       47.3108      29.498856       0.04553
  49    .09103       17.8119        0.0000       47.3107       47.3107      29.498783       0.04583
  48    0.1069       17.8119        0.0000       47.3106       47.3106      29.498696       0.04614
  47    0.1255       17.8119        0.0000       47.3105       47.3105      29.498594       0.04645
  46    0.1487       17.8119        0.0000       47.3104       47.3104      29.498460       0.04852
  45    0.1794       17.8119        0.0000       47.3102       47.3102      29.498274       0.05127
  44    0.2165       17.8119        0.0000       47.3100       47.3100      29.498047       0.05167
  43    0.2613       17.8119        0.0000       47.3097       47.3097      29.497770       0.05210
  42    0.3336       17.8119        0.0000       47.3092       47.3092      29.497301       0.05471
  41    0.4307       17.8119        0.0000       47.3085       47.3086      29.496666       0.05521
  40    0.5894       17.8119        0.0001       47.3074       47.3075      29.495607       0.05633
  39     1.339       17.8118        0.0002       47.3022       47.3024      29.490514       0.05733
  38     1.782       17.8118        0.0002       47.2991       47.2994      29.487544       0.05655
  37     2.292       17.8118        0.0003       47.2956       47.2959      29.484168       0.05591
  36     5.035       17.8117        0.0004       47.2899       47.2903      29.478593       0.01715
  35     6.613       17.8116        0.0006       47.2800       47.2806      29.469017       0.05119
  34     8.786       17.8114        0.0009       47.2670       47.2679      29.456473       0.04872
  33     11.80       17.8112        0.0013       47.2491       47.2504      29.439237       0.04826
  32     15.07       17.8109        0.0017       47.2308       47.2325      29.421612       0.04550
  31     18.79       17.8106        0.0022       47.2112       47.2134      29.402776       0.04271
  30     23.16       17.8103        0.0028       47.1895       47.1923      29.381999       0.04018
  29     28.12       17.8099        0.0035       47.1661       47.1695      29.359595       0.03808
  28     33.73       17.8095        0.0042       47.1416       47.1458      29.336256       0.03509
  27     40.54       17.8090        0.0051       47.1141       47.1192      29.310164       0.03237
  26     48.69       17.8084        0.0061       47.0837       47.0898      29.281424       0.02974
  25     57.69       17.8077        0.0073       47.0527       47.0600      29.252327       0.02727
  24     68.43       17.8069        0.0087       47.0183       47.0270      29.220086       0.02535
  23     81.20       17.8059        0.0104       46.9796       46.9900      29.184058       0.02381
  22     96.49       17.8048        0.0124       46.9356       46.9479      29.143149       0.02258
  21     114.6       17.8034        0.0147       46.8846       46.8994      29.095914       0.02206
  20     136.5       17.8019        0.0176       46.8250       46.8425      29.040654       0.02125
  19     162.9       17.8000        0.0209       46.7403       46.7612      28.961229       0.02539
  18     196.4       17.7978        0.0252       46.5732       46.5984      28.800692       0.04041
  17     218.7       17.7965        0.0280       46.3491       46.3771      28.580637       0.08355
  16     243.0       17.7954        0.0309       45.9309       45.9618      28.166359       0.14369
  15     269.0       17.7951        0.0339       45.1716       45.2054      27.410296       0.24526
  14     297.5       17.7963        0.0368       44.0121       44.0488      26.252537       0.34338
  13     328.5       17.7994        0.0397       42.7247       42.7644      24.964976       0.35008
  12     361.9       17.8056        0.0427       41.3543       41.3971      23.591511       0.34750
  11     398.1       17.8163        0.0457       39.7956       39.8413      22.024994       0.36496
  10     437.6       17.8347        0.0485       37.9951       38.0436      20.208962       0.38828
   9     480.5       17.8640        0.0512       36.0650       36.1162      18.252220       0.38430
   8     533.0       17.9193        0.0541       33.7776       33.8317      15.912373       0.37641
   7     589.8       18.0159        0.0568       31.4085       31.4653      13.449383       0.36559
   6     651.6       18.2023        0.0591       28.8836       28.9427      10.740385       0.37046
   5     718.7       18.5587        0.0611       26.4106       26.4717       7.912994       0.35532
   4     792.3       19.3149        0.0628       24.0058       24.0686       4.753636       0.36234
   3     825.4        9.8515       12.1702        0.0557       12.2258       2.374326       0.60731
   2     858.4        6.2102        7.9279        0.0002        7.9281       1.717873       0.16757
   1     891.5        3.2382        4.7076        0.0000        4.7076       1.469402       0.06345
   0    1013.0        3.3268        4.5573        0.0000        4.5573       1.230459       0.01659



 Wavenumbers:  7700. -  8050. cm-1, ATM      1
 LEVEL PRESSURE   UPWARD FLUX   DIFDOWN FLUX  DIRDOWN FLUX  DOWNWARD FLUX   NET FLUX    HEATING RATE
          mb          W/m2          W/m2          W/m2        W/m2          W/m2       degree/day
  51    .06700        8.3226        0.0000       11.1810       11.1810       2.858342       0.00000
  50    .07753        8.3226        0.0000       11.1809       11.1809       2.858318       0.01889
  49    .09103        8.3226        0.0000       11.1809       11.1809       2.858289       0.01851
  48    0.1069        8.3226        0.0000       11.1809       11.1809       2.858255       0.01813
  47    0.1255        8.3227        0.0000       11.1809       11.1809       2.858216       0.01774
  46    0.1487        8.3227        0.0000       11.1808       11.1808       2.858166       0.01800
  45    0.1794        8.3227        0.0000       11.1808       11.1808       2.858099       0.01852
  44    0.2165        8.3227        0.0000       11.1807       11.1807       2.858019       0.01817
  43    0.2613        8.3227        0.0000       11.1806       11.1806       2.857924       0.01783
  42    0.3336        8.3228        0.0000       11.1805       11.1805       2.857768       0.01824
  41    0.4307        8.3228        0.0000       11.1803       11.1804       2.857560       0.01804
  40    0.5894        8.3229        0.0000       11.1801       11.1801       2.857221       0.01802
  39     1.339        8.3233        0.0001       11.1788       11.1789       2.855618       0.01805
  38     1.782        8.3235        0.0001       11.1781       11.1782       2.854676       0.01793
  37     2.292        8.3238        0.0001       11.1772       11.1773       2.853586       0.01806
  36     5.035        8.3242        0.0002       11.1757       11.1759       2.851693       0.00582
  35     6.613        8.3250        0.0003       11.1731       11.1734       2.848333       0.01796
  34     8.786        8.3261        0.0004       11.1695       11.1699       2.843806       0.01758
  33     11.80        8.3277        0.0006       11.1644       11.1650       2.837331       0.01813
  32     15.07        8.3293        0.0008       11.1589       11.1597       2.830384       0.01794
  31     18.79        8.3312        0.0010       11.1528       11.1538       2.822542       0.01778
  30     23.16        8.3335        0.0013       11.1456       11.1469       2.813390       0.01770
  29     28.12        8.3360        0.0016       11.1374       11.1390       2.802937       0.01777
  28     33.73        8.3389        0.0019       11.1282       11.1302       2.791256       0.01756
  27     40.54        8.3424        0.0024       11.1172       11.1196       2.777168       0.01748
  26     48.69        8.3466        0.0028       11.1040       11.1069       2.760222       0.01754
  25     57.69        8.3513        0.0034       11.0896       11.0930       2.741658       0.01740
  24     68.43        8.3569        0.0040       11.0725       11.0765       2.719616       0.01733
  23     81.20        8.3636        0.0048       11.0523       11.0571       2.693456       0.01729
  22     96.49        8.3717        0.0057       11.0284       11.0341       2.662424       0.01713
  21     114.6        8.3814        0.0068       11.0004       11.0072       2.625773       0.01711
  20     136.5        8.3931        0.0081       10.9676       10.9757       2.582598       0.01660
  19     162.9        8.4071        0.0096       10.9290       10.9387       2.531536       0.01632
  18     196.4        8.4257        0.0116       10.8799       10.8916       2.465844       0.01654
  17     218.7        8.4381        0.0129       10.8482       10.8611       2.422969       0.01628
  16     243.0        8.4519        0.0144       10.8140       10.8284       2.376532       0.01611
  15     269.0        8.4670        0.0159       10.7774       10.7933       2.326316       0.01629
  14     297.5        8.4837        0.0176       10.7382       10.7557       2.272024       0.01610
  13     328.5        8.5023        0.0194       10.6962       10.7155       2.213259       0.01598
  12     361.9        8.5228        0.0213       10.6512       10.6725       2.149706       0.01608
  11     398.1        8.5457        0.0234       10.6031       10.6264       2.080738       0.01607
  10     437.6        8.5713        0.0256       10.5513       10.5769       2.005570       0.01607
   9     480.5        8.6001        0.0280       10.4956       10.5236       1.923460       0.01613
   8     533.0        8.6377        0.0309       10.4264       10.4573       1.819615       0.01671
   7     589.8        8.6815        0.0341       10.3500       10.3840       1.702515       0.01738
   6     651.6        8.7341        0.0374       10.2633       10.3008       1.566701       0.01857
   5     718.7        8.7985        0.0411       10.1637       10.2047       1.406174       0.02017
   4     792.3        8.8805        0.0449       10.0457       10.0906       1.210025       0.02250
   3     825.4        5.1680        6.1403        0.0258        6.1660       0.998009       0.05412
   2     858.4        3.4154        4.2813        0.0001        4.2813       0.865977       0.03370
   1     891.5        1.8477        2.6318        0.0000        2.6318       0.784142       0.02090
   0    1013.0        1.8837        2.5805        0.0000        2.5805       0.696725       0.00607



 Wavenumbers:  8050. - 12850. cm-1, ATM      1
 LEVEL PRESSURE   UPWARD FLUX   DIFDOWN FLUX  DIRDOWN FLUX  DOWNWARD FLUX   NET FLUX    HEATING RATE
          mb          W/m2          W/m2          W/m2        W/m2          W/m2       degree/day
  51    .06700      107.7933        0.0000      156.5418      156.5418      48.748467       0.00000
  50    .07753      107.7933        0.0000      156.5417      156.5417      48.748467       0.00000
  49    .09103      107.7933        0.0001      156.5417      156.5417      48.748467       0.00000
  48    0.1069      107.7932        0.0001      156.5416      156.5417      48.748467       0.00000
  47    0.1255      107.7932        0.0002      156.5415      156.5417      48.748467      -0.00000
  46    0.1487      107.7932        0.0002      156.5414      156.5417      48.748467       0.00000
  45    0.1794      107.7932        0.0003      156.5413      156.5416      48.748467       0.00000
  44    0.2165      107.7931        0.0004      156.5412      156.5416      48.748467      -0.00000
  43    0.2613      107.7931        0.0006      156.5410      156.5416      48.748467       0.00000
  42    0.3336      107.7930        0.0008      156.5407      156.5415      48.748467       0.00000
  41    0.4307      107.7929        0.0011      156.5403      156.5414      48.748467       0.00000
  40    0.5894      107.7928        0.0015      156.5397      156.5412      48.748467      -0.00000
  39     1.339      107.7920        0.0038      156.5367      156.5405      48.748467      -0.00000
  38     1.782      107.7916        0.0051      156.5350      156.5401      48.748467       0.00000
  37     2.292      107.7911        0.0066      156.5330      156.5395      48.748467      -0.00000
  36     5.035      107.7902        0.0092      156.5295      156.5387      48.748467       0.00000
  35     6.613      107.7886        0.0138      156.5233      156.5371      48.748467      -0.00000
  34     8.786      107.7865        0.0201      156.5149      156.5350      48.748467       0.00000
  33     11.80      107.7835        0.0291      156.5029      156.5320      48.748467       0.00000
  32     15.07      107.7803        0.0387      156.4901      156.5288      48.748467       0.00000
  31     18.79      107.7766        0.0496      156.4755      156.5251      48.748467      -0.00000
  30     23.16      107.7724        0.0624      156.4585      156.5208      48.748467      -0.00000
  29     28.12      107.7675        0.0770      156.4390      156.5159      48.748467      -0.00000
  28     33.73      107.7620        0.0933      156.4171      156.5104      48.748467       0.00000
  27     40.54      107.7553        0.1131      156.3907      156.5038      48.748467       0.00000
  26     48.69      107.7473        0.1370      156.3588      156.4958      48.748467      -0.00000
  25     57.69      107.7385        0.1633      156.3237      156.4870      48.748467       0.00000
  24     68.43      107.7280        0.1946      156.2818      156.4764      48.748467      -0.00000
  23     81.20      107.7154        0.2320      156.2319      156.4639      48.748467      -0.00000
  22     96.49      107.7004        0.2767      156.1722      156.4489      48.748467      -0.00000
  21     114.6      107.6828        0.3298      156.0952      156.4250      48.742193       0.00293
  20     136.5      107.6619        0.3929      156.0034      156.3963      48.734414       0.00299
  19     162.9      107.6370        0.4682      155.8903      156.3585      48.721519       0.00412
  18     196.4      107.6048        0.5661      155.7272      156.2933      48.688527       0.00830
  17     218.7      107.5840        0.6305      155.5805      156.2111      48.627037       0.02335
  16     243.0      107.5626        0.7005      155.3439      156.0444      48.481838       0.05036
  15     269.0      107.5421        0.7763      154.9586      155.7349      48.192815       0.09376
  14     297.5      107.5252        0.8578      154.3968      155.2546      47.729464       0.13742
  13     328.5      107.5136        0.9458      153.7223      154.6681      47.154453       0.15634
  12     361.9      107.5110        1.0402      152.9159      153.9561      46.445067       0.17948
  11     398.1      107.5235        1.1412      151.9057      153.0469      45.523430       0.21472
  10     437.6      107.5615        1.2487      150.6102      151.8589      44.297394       0.26213
   9     480.5      107.6378        1.3624      149.0084      150.3708      42.733028       0.30724
   8     533.0      107.7991        1.5000      146.7445      148.2445      40.445408       0.36801
   7     589.8      108.0986        1.6443      143.8798      145.5241      37.425454       0.44826
   6     651.6      108.6910        1.7923      140.1022      141.8945      33.203505       0.57736
   5     718.7      109.8055        1.9426      135.5343      137.4769      27.671400       0.69523
   4     792.3      112.0209        2.0914      130.0753      132.1667      20.145831       0.86310
   3     825.4       62.1983       74.9160        0.3197       75.2357      13.037348       1.81440
   2     858.4       40.5679       51.0581        0.0010       51.0591      10.491151       0.64996
   1     891.5       21.7727       31.1533        0.0000       31.1533       9.380631       0.28357
   0    1013.0       22.2118       30.4271        0.0000       30.4271       8.215327       0.08091



 Wavenumbers: 12850. - 16000. cm-1, ATM      1
 LEVEL PRESSURE   UPWARD FLUX   DIFDOWN FLUX  DIRDOWN FLUX  DOWNWARD FLUX   NET FLUX    HEATING RATE
          mb          W/m2          W/m2          W/m2        W/m2          W/m2       degree/day
  51    .06700       79.0260        0.0000       98.0872       98.0872      19.061271       0.00000
  50    .07753       79.0260        0.0001       98.0864       98.0864      19.060479       0.63502
  49    .09103       79.0260        0.0002       98.0853       98.0855      19.059484       0.62201
  48    0.1069       79.0260        0.0003       98.0841       98.0843      19.058340       0.60877
  47    0.1255       79.0260        0.0004       98.0826       98.0830      19.057026       0.59583
  46    0.1487       79.0260        0.0005       98.0809       98.0814      19.055367       0.60477
  45    0.1794       79.0261        0.0007       98.0784       98.0792      19.053109       0.61977
  44    0.2165       79.0261        0.0010       98.0756       98.0766      19.050452       0.60431
  43    0.2613       79.0263        0.0013       98.0723       98.0736      19.047327       0.58909
  42    0.3336       79.0265        0.0017       98.0670       98.0687      19.042224       0.59497
  41    0.4307       79.0269        0.0023       98.0602       98.0625      19.035622       0.57408
  40    0.5894       79.0277        0.0034       98.0496       98.0529      19.025210       0.55370
  39     1.339       79.0346        0.0082       98.0043       98.0125      18.977904       0.53257
  38     1.782       79.0409        0.0110       97.9793       97.9903      18.949423       0.54223
  37     2.292       79.0502        0.0143       97.9498       97.9641      18.913895       0.58844
  36     5.035       79.0749        0.0199       97.8891       97.9091      18.834188       0.24524
  35     6.613       79.1268        0.0300       97.7746       97.8046      18.677825       0.83592
  34     8.786       79.1944        0.0436       97.6278       97.6714      18.476968       0.78005
  33     11.80       79.2824        0.0629       97.4339       97.4968      18.214366       0.73520
  32     15.07       79.3669        0.0837       97.2433       97.3270      17.960118       0.65642
  31     18.79       79.4532        0.1072       97.0439       97.1510      17.697829       0.59469
  30     23.16       79.5435        0.1345       96.8292       96.9637      17.420166       0.53691
  29     28.12       79.6346        0.1658       96.6048       96.7706      17.135955       0.48314
  28     33.73       79.7191        0.2008       96.3831       96.5839      16.864759       0.40775
  27     40.54       79.8009        0.2430       96.1494       96.3924      16.591483       0.33903
  26     48.69       79.8799        0.2940       95.9016       96.1957      16.315772       0.28532
  25     57.69       79.9476        0.3500       95.6629       96.0129      16.065334       0.23475
  24     68.43       80.0077        0.4167       95.4149       95.8316      15.823926       0.18978
  23     81.20       80.0511        0.4963       95.1674       95.6637      15.612594       0.13964
  22     96.49       80.0767        0.5913       94.9172       95.5085      15.431719       0.09983
  21     114.6       80.1058        0.7050       94.6421       95.3472      15.241335       0.08890
  20     136.5       80.1291        0.8399       94.3324       95.1723      15.043153       0.07621
  19     162.9       80.1468        1.0005       93.9750       94.9755      14.828758       0.06853
  18     196.4       80.1480        1.2088       93.5336       94.7425      14.594473       0.05897
  17     218.7       80.1412        1.3456       93.2498       94.5954      14.454243       0.05324
  16     243.0       80.1308        1.4943       92.9420       94.4363      14.305515       0.05158
  15     269.0       80.1168        1.6554       92.6087       94.2640      14.147203       0.05136
  14     297.5       80.1002        1.8295       92.2464       94.0759      13.975706       0.05086
  13     328.5       80.0831        2.0176       91.8517       93.8693      13.786216       0.05152
  12     361.9       80.0667        2.2201       91.4219       93.6419      13.575231       0.05338
  11     398.1       80.0529        2.4379       90.9524       93.3903      13.337443       0.05540
  10     437.6       80.0454        2.6717       90.4358       93.1076      13.062183       0.05885
   9     480.5       80.0479        2.9221       89.8659       92.7881      12.740168       0.06324
   8     533.0       80.0711        3.2300       89.1347       92.3647      12.293625       0.07183
   7     589.8       80.1330        3.5607       88.2943       91.8550      11.721981       0.08485
   6     651.6       80.2743        3.9138       87.2867       91.2005      10.926224       0.10882
   5     718.7       80.5268        4.2879       86.1028       90.3907       9.863930       0.13350
   4     792.3       80.9852        4.6792       84.6812       89.3604       8.375192       0.17074
   3     825.4       53.1817       59.6928        0.2157       59.9085       6.726820       0.42074
   2     858.4       41.3161       47.1709        0.0007       47.1716       5.855567       0.22240
   1     891.5       30.6708       35.9997        0.0000       35.9997       5.328875       0.13449
   0    1013.0       30.9551       35.6092        0.0000       35.6092       4.654124       0.04685



 Wavenumbers: 16000. - 22650. cm-1, ATM      1
 LEVEL PRESSURE   UPWARD FLUX   DIFDOWN FLUX  DIRDOWN FLUX  DOWNWARD FLUX   NET FLUX    HEATING RATE
          mb          W/m2          W/m2          W/m2        W/m2          W/m2       degree/day
  51    .06700      140.0789        0.0000      156.3892      156.3892      16.310373       0.00000
  50    .07753      140.0788        0.0004      156.3887      156.3891      16.310226       0.11798
  49    .09103      140.0788        0.0009      156.3879      156.3888      16.310012       0.13382
  48    0.1069      140.0788        0.0015      156.3871      156.3885      16.309725       0.15260
  47    0.1255      140.0788        0.0021      156.3861      156.3882      16.309341       0.17394
  46    0.1487      140.0789        0.0029      156.3847      156.3877      16.308776       0.20612
  45    0.1794      140.0790        0.0041      156.3828      156.3869      16.307892       0.24269
  44    0.2165      140.0792        0.0054      156.3805      156.3859      16.306693       0.27275
  43    0.2613      140.0796        0.0070      156.3776      156.3846      16.305066       0.30664
  42    0.3336      140.0803        0.0096      156.3726      156.3823      16.301973       0.36060
  41    0.4307      140.0815        0.0131      156.3657      156.3788      16.297311       0.40536
  40    0.5894      140.0841        0.0188      156.3537      156.3725      16.288420       0.47283
  39     1.339      140.1064        0.0457      156.2834      156.3291      16.222730       0.73955
  38     1.782      140.1271        0.0615      156.2324      156.2939      16.166770       1.06539
  37     2.292      140.1582        0.0798      156.1641      156.2439      16.085767       1.34161
  36     5.035      140.2416        0.1115      156.0076      156.1191      15.877511       0.64075
  35     6.613      140.4172        0.1678      155.6950      155.8628      15.445576       2.30913
  34     8.786      140.6459        0.2435      155.2860      155.5295      14.883540       2.18274
  33     11.80      140.9436        0.3516      154.7422      155.0938      14.150245       2.05299
  32     15.07      141.2286        0.4675      154.2059      154.6735      13.444858       1.82117
  31     18.79      141.5196        0.5983      153.6432      154.2415      12.721920       1.63912
  30     23.16      141.8235        0.7507      153.0352      153.7859      11.962321       1.46882
  29     28.12      142.1293        0.9247      152.3965      153.3213      11.191983       1.30952
  28     33.73      142.4113        1.1193      151.7604      152.8797      10.468426       1.08789
  27     40.54      142.6824        1.3541      151.0815      152.4357       9.753312       0.88718
  26     48.69      142.9415        1.6369      150.3500      151.9869       9.045362       0.73262
  25     57.69      143.1608        1.9471      149.6296      151.5767       8.415941       0.58999
  24     68.43      143.3514        2.3161      148.8604      151.1765       7.825100       0.46448
  23     81.20      143.4818        2.7554      148.0628      150.8182       7.336351       0.32296
  22     96.49      143.5476        3.2784      147.2220      150.5004       6.952818       0.21168
  21     114.6      143.5795        3.8974      146.2838      150.1812       6.601697       0.16395
  20     136.5      143.5863        4.6284      145.2142      149.8426       6.256295       0.13282
  19     162.9      143.5660        5.4948      143.9816      149.4763       5.910314       0.11059
  18     196.4      143.4785        6.6125      142.4652      149.0777       5.599150       0.07832
  17     218.7      143.3987        7.3429      141.5017      148.8446       5.445857       0.05820
  16     243.0      143.3017        8.1334      140.4717      148.6052       5.303474       0.04938
  15     269.0      143.1859        8.9863      139.3740      148.3603       5.174394       0.04187
  14     297.5      143.0506        9.9034      138.2062      148.1096       5.058978       0.03423
  13     328.5      142.8999       10.8891      136.9574      147.8465       4.946604       0.03055
  12     361.9      142.7335       11.9443      135.6265      147.5709       4.837394       0.02763
  11     398.1      142.5508       13.0731      134.2081      147.2813       4.730429       0.02492
  10     437.6      142.3530       14.2774      132.6981      146.9755       4.622527       0.02307
   9     480.5      142.1396       15.5594      131.0935      146.6530       4.513348       0.02144
   8     533.0      141.8773       17.1251      129.1351      146.2602       4.382921       0.02098
   7     589.8      141.5990       18.7979      127.0392      145.8371       4.238097       0.02150
   6     651.6      141.3114       20.5793      124.7944      145.3737       4.062319       0.02404
   5     718.7      141.0212       22.4711      122.3908      144.8619       3.840659       0.02786
   4     792.3      140.7462       24.4711      119.8121      144.2832       3.536938       0.03483
   3     825.4      115.1474      117.9614        0.3038      118.2652       3.117885       0.10696
   2     858.4      109.4738      112.2682        0.0010      112.2692       2.795327       0.08234
   1     891.5      104.4052      106.9268        0.0000      106.9268       2.521606       0.06989
   0    1013.0      104.5731      106.6963        0.0000      106.6963       2.123257       0.02766



 Wavenumbers: 22650. - 29000. cm-1, ATM      1
 LEVEL PRESSURE   UPWARD FLUX   DIFDOWN FLUX  DIRDOWN FLUX  DOWNWARD FLUX   NET FLUX    HEATING RATE
          mb          W/m2          W/m2          W/m2        W/m2          W/m2       degree/day
  51    .06700       58.1367        0.0000       59.0156       59.0156       0.878950       0.00000
  50    .07753       58.1366        0.0005       59.0151       59.0155       0.878950       0.00000
  49    .09103       58.1365        0.0010       59.0144       59.0154       0.878950      -0.00000
  48    0.1069       58.1363        0.0017       59.0136       59.0153       0.878950       0.00000
  47    0.1255       58.1362        0.0025       59.0127       59.0151       0.878950       0.00000
  46    0.1487       58.1360        0.0034       59.0115       59.0149       0.878950       0.00000
  45    0.1794       58.1357        0.0048       59.0099       59.0147       0.878950       0.00000
  44    0.2165       58.1354        0.0063       59.0080       59.0144       0.878950      -0.00000
  43    0.2613       58.1350        0.0082       59.0058       59.0140       0.878950       0.00000
  42    0.3336       58.1344        0.0112       59.0022       59.0134       0.878950       0.00000
  41    0.4307       58.1336        0.0153       58.9973       59.0126       0.878950       0.00000
  40    0.5894       58.1323        0.0219       58.9894       59.0113       0.878950       0.00000
  39     1.339       58.1262        0.0533       58.9518       59.0051       0.878950       0.00000
  38     1.782       58.1225        0.0718       58.9297       59.0015       0.878950      -0.00000
  37     2.292       58.1183        0.0931       58.9042       58.9973       0.878950      -0.00000
  36     5.035       58.1110        0.1301       58.8599       58.9900       0.878950       0.00000
  35     6.613       58.0981        0.1958       58.7812       58.9770       0.878950      -0.00000
  34     8.786       58.0807        0.2842       58.6754       58.9596       0.878950       0.00000
  33     11.80       58.0558        0.4106       58.5242       58.9347       0.878950      -0.00000
  32     15.07       58.0291        0.5459       58.3621       58.9080       0.878950       0.00000
  31     18.79       57.9990        0.6986       58.1794       58.8780       0.878950      -0.00000
  30     23.16       57.9639        0.8764       57.9665       58.8429       0.878950       0.00000
  29     28.12       57.9240        1.0792       57.7237       58.8029       0.878950       0.00000
  28     33.73       57.8794        1.3054       57.4530       58.7583       0.878950      -0.00000
  27     40.54       57.8257        1.5774       57.1272       58.7047       0.878950       0.00000
  26     48.69       57.7613        1.9037       56.7366       58.6403       0.878950       0.00000
  25     57.69       57.6910        2.2600       56.3100       58.5700       0.878950      -0.00000
  24     68.43       57.6079        2.6812       55.8057       58.4868       0.878950      -0.00000
  23     81.20       57.5096        3.1786       55.2100       58.3886       0.878950       0.00000
  22     96.49       57.3938        3.7650       54.5077       58.2727       0.878950      -0.00000
  21     114.6       57.2579        4.4523       53.6845       58.1368       0.878950       0.00000
  20     136.5       57.0992        5.2545       52.7236       57.9781       0.878950       0.00000
  19     162.9       56.9135        6.1921       51.6003       57.7924       0.878950       0.00000
  18     196.4       56.6780        7.3799       50.1770       57.5569       0.878950      -0.00000
  17     218.7       56.5265        8.1431       49.2623       57.4054       0.878950      -0.00000
  16     243.0       56.3646        8.9579       48.2857       57.2436       0.878950       0.00000
  15     269.0       56.1924        9.8237       47.2476       57.0714       0.878950       0.00000
  14     297.5       56.0100       10.7399       46.1491       56.8889       0.878950       0.00000
  13     328.5       55.8171       11.7076       44.9884       56.6960       0.878950      -0.00000
  12     361.9       55.6141       12.7243       43.7687       56.4930       0.878950      -0.00000
  11     398.1       55.4010       13.7901       42.4898       56.2799       0.878950       0.00000
  10     437.6       55.1781       14.9028       41.1542       56.0570       0.878950       0.00000
   9     480.5       54.9458       16.0601       39.7647       55.8248       0.878950      -0.00000
   8     533.0       54.6690       17.4362       38.1118       55.5480       0.878950      -0.00000
   7     589.8       54.3813       18.8624       36.3978       55.2603       0.878950      -0.00000
   6     651.6       54.0840       20.3315       34.6314       54.9630       0.878950       0.00000
   5     718.7       53.7781       21.8379       32.8192       54.6570       0.878950      -0.00000
   4     792.3       53.4651       23.3725       30.9715       54.3440       0.878950      -0.00000
   3     825.4       46.7327       47.5363        0.0748       47.6112       0.878419       0.00014
   2     858.4       44.9836       45.8613        0.0002       45.8616       0.877938       0.00012
   1     891.5       43.2473       44.1248        0.0000       44.1248       0.877474       0.00012
   0    1013.0       43.2167       44.0942        0.0000       44.0942       0.877474       0.00000



 Wavenumbers: 29000. - 38000. cm-1, ATM      1
 LEVEL PRESSURE   UPWARD FLUX   DIFDOWN FLUX  DIRDOWN FLUX  DOWNWARD FLUX   NET FLUX    HEATING RATE
          mb          W/m2          W/m2          W/m2        W/m2          W/m2       degree/day
  51    .06700        8.7685        0.0000       20.8114       20.8114      12.042822       0.00000
  50    .07753        8.7684        0.0003       20.8070       20.8074      12.039015       3.05174
  49    .09103        8.7681        0.0007       20.8009       20.8016      12.033478       3.46107
  48    0.1069        8.7679        0.0012       20.7928       20.7939      12.026067       3.94455
  47    0.1255        8.7676        0.0017       20.7820       20.7837      12.016162       4.49063
  46    0.1487        8.7672        0.0024       20.7665       20.7688      12.001598       5.30879
  45    0.1794        8.7668        0.0033       20.7424       20.7457      11.978931       6.22246
  44    0.2165        8.7663        0.0044       20.7103       20.7147      11.948406       6.94388
  43    0.2613        8.7657        0.0056       20.6675       20.6731      11.907409       7.72787
  42    0.3336        8.7648        0.0077       20.5880       20.5957      11.830842       8.92690
  41    0.4307        8.7637        0.0104       20.4722       20.4826      11.718881       9.73476
  40    0.5894        8.7622        0.0147       20.2637       20.2784      11.516181      10.77933
  39     1.339        8.7589        0.0331       19.0984       19.1315      10.372583      12.87484
  38     1.782        8.7595        0.0427       18.4394       18.4821       9.722559      12.37541
  37     2.292        8.7623        0.0530       17.7714       17.8244       9.062080      10.93926
  36     5.035        8.7751        0.0692       16.7265       16.7957       8.020514       3.20462
  35     6.613        8.8052        0.0963       15.5186       15.6149       6.809764       6.47267
  34     8.786        8.8453        0.1317       14.5590       14.6906       5.845313       3.74558
  33     11.80        8.8980        0.1804       13.7000       13.8804       4.982401       2.41588
  32     15.07        8.9490        0.2306       13.0749       13.3055       4.356468       1.61604
  31     18.79        9.0018        0.2859       12.5486       12.8345       3.832626       1.18771
  30     23.16        9.0580        0.3486       12.0732       12.4218       3.363767       0.90662
  29     28.12        9.1157        0.4187       11.6423       12.0610       2.945325       0.71132
  28     33.73        9.1689        0.4957       11.2628       11.7585       2.589637       0.53479
  27     40.54        9.2194        0.5877       10.8969       11.4845       2.265160       0.40255
  26     48.69        9.2670        0.6966       10.5353       11.2319       1.964908       0.31071
  25     57.69        9.3059        0.8144       10.2040       11.0184       1.712477       0.23662
  24     68.43        9.3373        0.9525        9.8713       10.8238       1.486453       0.17769
  23     81.20        9.3519        1.1154        9.5431       10.6585       1.306577       0.11886
  22     96.49        9.3477        1.3068        9.2107       10.5176       1.169856       0.07546
  21     114.6        9.3329        1.5279        8.8533       10.3812       1.048312       0.05675
  20     136.5        9.3105        1.7805        8.4618       10.2423       0.931834       0.04479
  19     162.9        9.2806        2.0683        8.0302       10.0985       0.817922       0.03641
  18     196.4        9.2309        2.4247        7.5240        9.9487       0.717783       0.02521
  17     218.7        9.1952        2.6487        7.2154        9.8641       0.668996       0.01852
  16     243.0        9.1560        2.8828        6.8972        9.7800       0.623984       0.01561
  15     269.0        9.1132        3.1262        6.5707        9.6968       0.583599       0.01310
  14     297.5        9.0669        3.3776        6.2374        9.6150       0.548028       0.01055
  13     328.5        9.0185        3.6361        5.8964        9.5325       0.514000       0.00925
  12     361.9        8.9684        3.8992        5.5509        9.4501       0.481667       0.00818
  11     398.1        8.9168        4.1663        5.2016        9.3679       0.451053       0.00713
  10     437.6        8.8642        4.4358        4.8500        9.2858       0.421569       0.00630
   9     480.5        8.8110        4.7056        4.4990        9.2046       0.393610       0.00549
   8     533.0        8.7496        5.0129        4.0999        9.1128       0.363164       0.00490
   7     589.8        8.6889        5.3156        3.7070        9.0226       0.333721       0.00437
   6     651.6        8.6296        5.6098        3.3248        8.9345       0.304950       0.00393
   5     718.7        8.5723        5.8940        2.9551        8.8491       0.276808       0.00354
   4     792.3        8.5177        6.1647        2.6023        8.7670       0.249299       0.00316
   3     825.4        7.6311        7.8440        0.0057        7.8497       0.218543       0.00785
   2     858.4        7.2319        7.4232        0.0000        7.4233       0.191325       0.00695
   1     891.5        6.8849        7.0514        0.0000        7.0514       0.166467       0.00635
   0    1013.0        6.8869        7.0267        0.0000        7.0267       0.139832       0.00185



 Wavenumbers: 38000. - 50000. cm-1, ATM      1
 LEVEL PRESSURE   UPWARD FLUX   DIFDOWN FLUX  DIRDOWN FLUX  DOWNWARD FLUX   NET FLUX    HEATING RATE
          mb          W/m2          W/m2          W/m2        W/m2          W/m2       degree/day
  51    .06700        0.0061        0.0000        1.2836        1.2836       1.277566       0.00000
  50    .07753        0.0060        0.0001        1.2812        1.2812       1.275231       1.87147
  49    .09103        0.0059        0.0002        1.2777        1.2778       1.271899       2.08243
  48    0.1069        0.0058        0.0002        1.2731        1.2734       1.267521       2.33056
  47    0.1255        0.0058        0.0004        1.2672        1.2675       1.261766       2.60905
  46    0.1487        0.0056        0.0005        1.2586        1.2591       1.253440       3.03495
  45    0.1794        0.0055        0.0007        1.2455        1.2462       1.240672       3.50516
  44    0.2165        0.0053        0.0009        1.2282        1.2291       1.223746       3.85033
  43    0.2613        0.0051        0.0011        1.2054        1.2065       1.201398       4.21256
  42    0.3336        0.0048        0.0015        1.1639        1.1654       1.160574       4.75965
  41    0.4307        0.0044        0.0020        1.1051        1.1070       1.102615       5.03937
  40    0.5894        0.0039        0.0026        1.0039        1.0064       1.002575       5.32000
  39     1.339        0.0022        0.0035        0.5438        0.5473       0.545166       5.14960
  38     1.782        0.0016        0.0032        0.3635        0.3666       0.365077       3.42860
  37     2.292        0.0011        0.0027        0.2356        0.2383       0.237147       2.11885
  36     5.035        0.0007        0.0019        0.1180        0.1199       0.119172       0.36298
  35     6.613        0.0004        0.0013        0.0504        0.0516       0.051220       0.36327
  34     8.786        0.0002        0.0009        0.0239        0.0248       0.024556       0.10355
  33     11.80        0.0001        0.0006        0.0105        0.0110       0.010913       0.03820
  32     15.07        0.0001        0.0004        0.0048        0.0052       0.005151       0.01488
  31     18.79        0.0000        0.0002        0.0022        0.0024       0.002406       0.00622
  30     23.16        0.0000        0.0001        0.0010        0.0011       0.001079       0.00257
  29     28.12        0.0000        0.0001        0.0004        0.0005       0.000469       0.00104
  28     33.73        0.0000        0.0000        0.0002        0.0002       0.000205       0.00040
  27     40.54        0.0000        0.0000        0.0001        0.0001       0.000083       0.00015
  26     48.69        0.0000        0.0000        0.0000        0.0000       0.000031       0.00005
  25     57.69        0.0000        0.0000        0.0000        0.0000       0.000011       0.00002
  24     68.43        0.0000        0.0000        0.0000        0.0000       0.000004       0.00001
  23     81.20        0.0000        0.0000        0.0000        0.0000       0.000001       0.00000
  22     96.49        0.0000        0.0000        0.0000        0.0000       0.000000       0.00000
  21     114.6        0.0000        0.0000        0.0000        0.0000       0.000000       0.00000
  20     136.5        0.0000        0.0000        0.0000        0.0000       0.000000       0.00000
  19     162.9        0.0000        0.0000        0.0000        0.0000       0.000000       0.00000
  18     196.4        0.0000        0.0000        0.0000        0.0000       0.000000       0.00000
  17     218.7        0.0000        0.0000        0.0000        0.0000       0.000000       0.00000
  16     243.0        0.0000        0.0000        0.0000        0.0000       0.000000       0.00000
  15     269.0        0.0000        0.0000        0.0000        0.0000       0.000000       0.00000
  14     297.5        0.0000        0.0000        0.0000        0.0000       0.000000       0.00000
  13     328.5        0.0000        0.0000        0.0000        0.0000       0.000000       0.00000
  12     361.9        0.0000        0.0000        0.0000        0.0000       0.000000       0.00000
  11     398.1        0.0000        0.0000        0.0000        0.0000       0.000000       0.00000
  10     437.6        0.0000        0.0000        0.0000        0.0000       0.000000       0.00000
   9     480.5        0.0000        0.0000        0.0000        0.0000       0.000000       0.00000
   8     533.0        0.0000        0.0000        0.0000        0.0000       0.000000       0.00000
   7     589.8        0.0000        0.0000        0.0000        0.0000       0.000000       0.00000
   6     651.6        0.0000        0.0000        0.0000        0.0000       0.000000       0.00000
   5     718.7        0.0000        0.0000        0.0000        0.0000       0.000000       0.00000
   4     792.3        0.0000        0.0000        0.0000        0.0000       0.000000       0.00000
   3     825.4        0.0000        0.0000        0.0000        0.0000       0.000000       0.00000
   2     858.4        0.0000        0.0000        0.0000        0.0000       0.000000       0.00000
   1     891.5        0.0000        0.0000        0.0000        0.0000       0.000000       0.00000
   0    1013.0        0.0000        0.0000        0.0000        0.0000       0.000000       0.00000



 Wavenumbers:   820. -  2600. cm-1, ATM      1
 LEVEL PRESSURE   UPWARD FLUX   DIFDOWN FLUX  DIRDOWN FLUX  DOWNWARD FLUX   NET FLUX    HEATING RATE
          mb          W/m2          W/m2          W/m2        W/m2          W/m2       degree/day
  51    .06700        1.4864        0.0000        6.0047        6.0047       4.518242       0.00000
  50    .07753        1.4864        0.0000        6.0008        6.0008       4.514389       3.08824
  49    .09103        1.4864        0.0000        5.9999        5.9999       4.513503       0.55361
  48    0.1069        1.4864        0.0000        5.9989        5.9989       4.512514       0.52656
  47    0.1255        1.4864        0.0000        5.9978        5.9978       4.511397       0.50653
  46    0.1487        1.4864        0.0000        5.9964        5.9964       4.510040       0.49461
  45    0.1794        1.4864        0.0000        5.9947        5.9947       4.508320       0.47204
  44    0.2165        1.4864        0.0000        5.9929        5.9929       4.506478       0.41914
  43    0.2613        1.4864        0.0000        5.9909        5.9909       4.504518       0.36937
  42    0.3336        1.4864        0.0000        5.9880        5.9880       4.501640       0.33560
  41    0.4307        1.4864        0.0000        5.9846        5.9846       4.498170       0.30169
  40    0.5894        1.4864        0.0000        5.9791        5.9791       4.492664       0.29281
  39     1.339        1.4864        0.0000        5.9536        5.9536       4.467172       0.28699
  38     1.782        1.4864        0.0000        5.9395        5.9395       4.453032       0.26922
  37     2.292        1.4864        0.0000        5.9237        5.9237       4.437278       0.26093
  36     5.035        1.4864        0.0000        5.8954        5.8954       4.409004       0.08699
  35     6.613        1.4864        0.0000        5.8469        5.8469       4.360497       0.25932
  34     8.786        1.4865        0.0000        5.7915        5.7915       4.305051       0.21533
  33     11.80        1.4865        0.0000        5.7245        5.7245       4.237977       0.18779
  32     15.07        1.4865        0.0000        5.6684        5.6684       4.181926       0.14471
  31     18.79        1.4866        0.0000        5.6231        5.6231       4.136505       0.10298
  30     23.16        1.4866        0.0000        5.5871        5.5871       4.100508       0.06961
  29     28.12        1.4866        0.0000        5.5583        5.5583       4.071664       0.04903
  28     33.73        1.4867        0.0000        5.5327        5.5328       4.046071       0.03848
  27     40.54        1.4867        0.0000        5.5051        5.5051       4.018333       0.03441
  26     48.69        1.4868        0.0000        5.4733        5.4733       3.986533       0.03291
  25     57.69        1.4869        0.0000        5.4393        5.4394       3.952475       0.03192
  24     68.43        1.4870        0.0000        5.3998        5.3999       3.912884       0.03112
  23     81.20        1.4871        0.0000        5.3545        5.3546       3.867481       0.03000
  22     96.49        1.4872        0.0000        5.3027        5.3028       3.815537       0.02867
  21     114.6        1.4874        0.0000        5.2431        5.2431       3.755713       0.02793
  20     136.5        1.4876        0.0000        5.1754        5.1755       3.687873       0.02609
  19     162.9        1.4879        0.0000        5.0924        5.0924       3.604500       0.02665
  18     196.4        1.4884        0.0000        4.9695        4.9695       3.481122       0.03106
  17     218.7        1.4889        0.0000        4.8606        4.8606       3.371723       0.04153
  16     243.0        1.4897        0.0000        4.7093        4.7093       3.219636       0.05275
  15     269.0        1.4909        0.0000        4.5352        4.5352       3.044291       0.05688
  14     297.5        1.4928        0.0000        4.3425        4.3426       2.849766       0.05769
  13     328.5        1.4954        0.0000        4.1286        4.1286       2.633263       0.05887
  12     361.9        1.4988        0.0000        3.8790        3.8791       2.380286       0.06401
  11     398.1        1.5032        0.0000        3.6162        3.6163       2.113039       0.06226
  10     437.6        1.5089        0.0000        3.3761        3.3761       1.867159       0.05257
   9     480.5        1.5160        0.0000        3.1959        3.1960       1.679970       0.03676
   8     533.0        1.5267        0.0000        3.0468        3.0468       1.520170       0.02571
   7     589.8        1.5425        0.0001        2.9024        2.9024       1.359981       0.02378
   6     651.6        1.5699        0.0001        2.7184        2.7185       1.148512       0.02892
   5     718.7        1.6176        0.0001        2.5059        2.5059       0.888368       0.03269
   4     792.3        1.7092        0.0001        2.2757        2.2757       0.566518       0.03691
   3     825.4        0.6912        0.9531        0.0051        0.9582       0.267044       0.07644
   2     858.4        0.3408        0.4942        0.0000        0.4942       0.153349       0.02902
   1     891.5        0.1173        0.2207        0.0000        0.2207       0.103353       0.01277
   0    1013.0        0.1370        0.1876        0.0000        0.1876       0.050654       0.00366

  Modules and versions used in this calculation:

       rrtmg_sw.1col.f90:  $Revision$                    rrtmg_sw_init.f90:  $Revision$        
     rrtmgsw_cldprop.f90:  $Revision$                  rrtmgsw_cldprmc.f90:  NOT USED          
     rrtmg_sw_reftra.f90:  $Revision$                  rrtmg_sw_spcvrt.f90:  NOT USED          
     rrtmg_sw_spcvmc.f90:  NOT USED                    rrtmgsw_setcoef.f90:  NOT USED          
     rrtmg_sw_taumol.f90:  $Revision$                  rrtmg_sw_vrtqdr.f90:  NOT USED          
                rrtatm.f:  NOT USED                             util_xxx.f:  NOT USED          
                 extra.f:  NOT USED                       rrtmg_sw_k_g.f90:  $Revision$        

