

 Wavenumbers:   820. - 50000. cm-1, ATM      1
 LEVEL PRESSURE   UPWARD FLUX   DIFDOWN FLUX  DIRDOWN FLUX  DOWNWARD FLUX   NET FLUX    HEATING RATE
          mb          W/m2          W/m2          W/m2        W/m2          W/m2       degree/day
  51    .06700      451.6038        0.0000      617.8126      617.8126     166.208753       0.00000
  50    .07753      451.6035        0.0014      617.7947      617.7961     166.192610      12.93895
  49    .09103      451.6030        0.0031      617.7778      617.7808     166.177796       9.25901
  48    0.1069      451.6025        0.0050      617.7581      617.7631     166.160530       9.19101
  47    0.1255      451.6020        0.0072      617.7340      617.7412     166.139179       9.67947
  46    0.1487      451.6015        0.0101      617.7009      617.7110     166.109485      10.82386
  45    0.1794      451.6008        0.0139      617.6521      617.6660     166.065241      12.14593
  44    0.2165      451.6001        0.0185      617.5895      617.6080     166.007903      13.04334
  43    0.2613      451.5994        0.0239      617.5089      617.5327     165.933369      14.04937
  42    0.3336      451.5986        0.0327      617.3641      617.3968     165.798245      15.75416
  41    0.4307      451.5979        0.0444      617.1591      617.2035     165.605564      16.75315
  40    0.5894      451.5979        0.0632      616.8005      616.8636     165.265767      18.06997
  39     1.339      451.6160        0.1482      614.9443      615.0925     163.476437      20.14460
  38     1.782      451.6395        0.1961      613.9670      614.1631     162.523604      18.14041
  37     2.292      451.6782        0.2506      613.0059      613.2564     161.578197      15.65841
  36     5.035      451.7923        0.3434      611.5124      611.8559     160.063564       4.66013
  35     6.613      452.0383        0.5073      609.6144      610.1218     158.083467      10.58560
  34     8.786      452.3594        0.7273      607.8253      608.5526     156.193230       7.34100
  33     11.80      452.7755        1.0400      605.8783      606.9183     154.142749       5.74070
  32     15.07      453.1719        1.3732      604.1777      605.5510     152.379033       4.55357
  31     18.79      453.5746        1.7479      602.5196      604.2675     150.692917       3.82294
  30     23.16      453.9928        2.1831      600.8127      602.9957     149.002913       3.26792
  29     28.12      454.4101        2.6782      599.0712      601.7494     147.339272       2.82808
  28     33.73      454.7877        3.2300      597.3500      600.5800     145.792376       2.32580
  27     40.54      455.1397        3.8942      595.5035      599.3977     144.257982       1.90359
  26     48.69      455.4632        4.6910      593.4958      598.1867     142.723559       1.58789
  25     57.69      455.7206        5.5618      591.4872      597.0491     141.328408       1.30774
  24     68.43      455.9211        6.5934      589.2939      595.8873     139.966227       1.07086
  23     81.20      456.0122        7.8163      586.9289      594.7453     138.733068       0.81485
  22     96.49      455.9838        9.2642      584.3423      593.6065     137.622641       0.61288
  21     114.6      455.8952       10.9674      581.4033      592.3707     136.475451       0.53566
  20     136.5      455.7455       12.9616      578.0541      591.0157     135.270221       0.46344
  19     162.9      455.5295       15.3019      574.1654      589.4673     133.937776       0.42590
  18     196.4      455.1621       18.2863      569.1760      587.4623     132.300196       0.41220
  17     218.7      454.8929       20.2158      565.6314      585.8472     130.954354       0.51097
  16     243.0      454.5932       22.2854      561.3129      583.5983     129.005135       0.67605
  15     269.0      454.2649       24.4964      555.9478      580.4442     126.179337       0.91668
  14     297.5      453.9144       26.8495      549.5394      576.3889     122.474533       1.09880
  13     328.5      453.5523       29.3512      542.6225      571.9737     118.421410       1.10203
  12     361.9      453.1874       31.9977      535.1469      567.1446     113.957199       1.12949
  11     398.1      452.8322       34.7936      526.9326      561.7262     108.894005       1.17961
  10     437.6      452.5109       37.7375      517.8921      555.6296     103.118653       1.23481
   9     480.5      452.2498       40.8274      508.2121      549.0395      96.789668       1.24299
   8     533.0      452.0844       44.5424      496.3783      540.9207      88.836249       1.27945
   7     589.8      452.1912       48.4406      483.5433      531.9839      79.792653       1.34237
   6     651.6      452.8994       52.5091      469.1414      521.6505      68.751085       1.50996
   5     718.7      454.6754       56.7397      453.6623      510.4020      55.726517       1.63683
   4     792.3      458.7575       61.1100      436.9145      498.0246      39.267064       1.88771
   3     825.4      317.0896      341.9280        0.2317      342.1598      25.070117       3.62369
   2     858.4      264.0241      284.1257        0.0002      284.1258      20.101709       1.26827
   1     891.5      218.3203      236.1773        0.0000      236.1773      17.856961       0.57318
   0    1013.0      219.2173      234.7326        0.0000      234.7326      15.515284       0.16259



 Wavenumbers:  2600. -  3250. cm-1, ATM      1
 LEVEL PRESSURE   UPWARD FLUX   DIFDOWN FLUX  DIRDOWN FLUX  DOWNWARD FLUX   NET FLUX    HEATING RATE
          mb          W/m2          W/m2          W/m2        W/m2          W/m2       degree/day
  51    .06700        1.9799        0.0000        5.4450        5.4450       3.465143       0.00000
  50    .07753        1.9799        0.0000        5.4450        5.4450       3.465135       0.00640
  49    .09103        1.9799        0.0000        5.4450        5.4450       3.465125       0.00627
  48    0.1069        1.9799        0.0000        5.4450        5.4450       3.465113       0.00613
  47    0.1255        1.9799        0.0000        5.4450        5.4450       3.465100       0.00599
  46    0.1487        1.9799        0.0000        5.4450        5.4450       3.465083       0.00608
  45    0.1794        1.9799        0.0000        5.4450        5.4450       3.465061       0.00625
  44    0.2165        1.9799        0.0000        5.4449        5.4449       3.465034       0.00612
  43    0.2613        1.9799        0.0000        5.4449        5.4449       3.465002       0.00600
  42    0.3336        1.9799        0.0000        5.4448        5.4448       3.464949       0.00617
  41    0.4307        1.9799        0.0000        5.4448        5.4448       3.464878       0.00620
  40    0.5894        1.9799        0.0000        5.4446        5.4446       3.464758       0.00637
  39     1.339        1.9799        0.0000        5.4439        5.4439       3.464050       0.00797
  38     1.782        1.9799        0.0000        5.4434        5.4434       3.463507       0.01034
  37     2.292        1.9799        0.0000        5.4427        5.4427       3.462791       0.01186
  36     5.035        1.9799        0.0000        5.4412        5.4412       3.461265       0.00470
  35     6.613        1.9799        0.0000        5.4381        5.4381       3.458187       0.01645
  34     8.786        1.9799        0.0000        5.4341        5.4341       3.454180       0.01556
  33     11.80        1.9799        0.0000        5.4288        5.4288       3.448933       0.01469
  32     15.07        1.9799        0.0000        5.4239        5.4239       3.444005       0.01272
  31     18.79        1.9799        0.0000        5.4191        5.4192       3.439259       0.01076
  30     23.16        1.9799        0.0000        5.4144        5.4144       3.434508       0.00919
  29     28.12        1.9799        0.0000        5.4096        5.4096       3.429671       0.00822
  28     33.73        1.9799        0.0000        5.4042        5.4042       3.424302       0.00807
  27     40.54        1.9799        0.0000        5.3972        5.3972       3.417269       0.00873
  26     48.69        1.9800        0.0000        5.3877        5.3877       3.407722       0.00988
  25     57.69        1.9800        0.0000        5.3759        5.3759       3.395873       0.01111
  24     68.43        1.9801        0.0000        5.3604        5.3604       3.380303       0.01224
  23     81.20        1.9802        0.0000        5.3405        5.3405       3.360359       0.01318
  22     96.49        1.9803        0.0000        5.3159        5.3159       3.335640       0.01364
  21     114.6        1.9805        0.0001        5.2857        5.2857       3.305239       0.01419
  20     136.5        1.9807        0.0001        5.2507        5.2508       3.270058       0.01353
  19     162.9        1.9811        0.0001        5.2113        5.2114       3.230336       0.01270
  18     196.4        1.9817        0.0001        5.1642        5.1643       3.182642       0.01200
  17     218.7        1.9823        0.0001        5.1333        5.1334       3.151099       0.01198
  16     243.0        1.9833        0.0001        5.0963        5.0964       3.113196       0.01315
  15     269.0        1.9848        0.0001        5.0512        5.0513       3.066526       0.01514
  14     297.5        1.9871        0.0001        4.9957        4.9958       3.008710       0.01715
  13     328.5        1.9903        0.0001        4.9304        4.9306       2.940235       0.01862
  12     361.9        1.9948        0.0002        4.8511        4.8513       2.856508       0.02118
  11     398.1        2.0009        0.0002        4.7507        4.7509       2.749936       0.02483
  10     437.6        2.0095        0.0002        4.6221        4.6222       2.612720       0.02934
   9     480.5        2.0214        0.0002        4.4625        4.4627       2.441248       0.03368
   8     533.0        2.0409        0.0002        4.2461        4.2463       2.205332       0.03795
   7     589.8        2.0708        0.0002        3.9954        3.9956       1.924846       0.04163
   6     651.6        2.1204        0.0002        3.7089        3.7091       1.588728       0.04597
   5     718.7        2.2030        0.0002        3.4018        3.4020       1.199082       0.04897
   4     792.3        2.3549        0.0002        3.0564        3.0567       0.701734       0.05704
   3     825.4        0.8921        1.1861        0.0014        1.1876       0.295442       0.10370
   2     858.4        0.3770        0.5559        0.0000        0.5559       0.178866       0.02976
   1     891.5        0.0010        0.1449        0.0000        0.1449       0.143930       0.00892
   0    1013.0        0.0011        0.1306        0.0000        0.1306       0.129524       0.00100



 Wavenumbers:  3250. -  4000. cm-1, ATM      1
 LEVEL PRESSURE   UPWARD FLUX   DIFDOWN FLUX  DIRDOWN FLUX  DOWNWARD FLUX   NET FLUX    HEATING RATE
          mb          W/m2          W/m2          W/m2        W/m2          W/m2       degree/day
  51    .06700        0.0603        0.0000        9.1795        9.1795       9.119199       0.00000
  50    .07753        0.0603        0.0000        9.1747        9.1747       9.114356       3.88162
  49    .09103        0.0603        0.0000        9.1713        9.1713       9.110969       2.11758
  48    0.1069        0.0603        0.0000        9.1688        9.1688       9.108443       1.34411
  47    0.1255        0.0603        0.0000        9.1665        9.1665       9.106184       1.02430
  46    0.1487        0.0603        0.0000        9.1641        9.1641       9.103742       0.88998
  45    0.1794        0.0603        0.0000        9.1612        9.1612       9.100864       0.79014
  44    0.2165        0.0603        0.0000        9.1583        9.1583       9.097944       0.66436
  43    0.2613        0.0603        0.0000        9.1553        9.1553       9.094970       0.56046
  42    0.3336        0.0603        0.0000        9.1511        9.1511       9.090791       0.48727
  41    0.4307        0.0603        0.0000        9.1464        9.1464       9.086022       0.41463
  40    0.5894        0.0603        0.0000        9.1393        9.1393       9.079016       0.37258
  39     1.339        0.0603        0.0000        9.1127        9.1127       9.052400       0.29965
  38     1.782        0.0603        0.0000        9.1011        9.1011       9.040811       0.22064
  37     2.292        0.0603        0.0000        9.0901        9.0901       9.029744       0.18331
  36     5.035        0.0603        0.0000        9.0731        9.0731       9.012811       0.05210
  35     6.613        0.0603        0.0000        9.0438        9.0439       8.983531       0.15653
  34     8.786        0.0603        0.0000        9.0058        9.0058       8.945445       0.14791
  33     11.80        0.0603        0.0000        8.9509        8.9509       8.890574       0.15362
  32     15.07        0.0603        0.0000        8.8914        8.8914       8.831095       0.15356
  31     18.79        0.0603        0.0000        8.8241        8.8242       8.763861       0.15244
  30     23.16        0.0603        0.0000        8.7473        8.7474       8.687049       0.14853
  29     28.12        0.0603        0.0000        8.6639        8.6640       8.603666       0.14174
  28     33.73        0.0603        0.0000        8.5784        8.5784       8.518156       0.12857
  27     40.54        0.0603        0.0001        8.4859        8.4860       8.425683       0.11472
  26     48.69        0.0603        0.0001        8.3873        8.3873       8.327059       0.10206
  25     57.69        0.0603        0.0001        8.2887        8.2888       8.228509       0.09238
  24     68.43        0.0602        0.0001        8.1771        8.1772       8.116992       0.08767
  23     81.20        0.0602        0.0001        8.0474        8.0475       7.987271       0.08572
  22     96.49        0.0602        0.0001        7.8963        7.8965       7.836258       0.08335
  21     114.6        0.0602        0.0001        7.7173        7.7174       7.657248       0.08359
  20     136.5        0.0602        0.0002        7.5201        7.5203       7.460132       0.07580
  19     162.9        0.0601        0.0002        7.2919        7.2921       7.232001       0.07292
  18     196.4        0.0601        0.0002        6.9664        6.9666       6.906488       0.08194
  17     218.7        0.0601        0.0002        6.6650        6.6652       6.605131       0.11441
  16     243.0        0.0601        0.0002        6.2620        6.2622       6.202145       0.13977
  15     269.0        0.0601        0.0003        5.7575        5.7578       5.697637       0.16366
  14     297.5        0.0602        0.0003        5.1717        5.1720       5.111709       0.17378
  13     328.5        0.0605        0.0002        4.5755        4.5757       4.515248       0.16218
  12     361.9        0.0608        0.0002        3.9992        3.9995       3.938636       0.14589
  11     398.1        0.0614        0.0002        3.4651        3.4653       3.403916       0.12458
  10     437.6        0.0624        0.0002        2.9736        2.9739       2.911411       0.10530
   9     480.5        0.0641        0.0002        2.5303        2.5305       2.466363       0.08741
   8     533.0        0.0673        0.0002        2.0610        2.0612       1.993861       0.07601
   7     589.8        0.0732        0.0002        1.6146        1.6148       1.541584       0.06713
   6     651.6        0.0855        0.0001        1.1562        1.1563       1.070799       0.06438
   5     718.7        0.1127        0.0001        0.7388        0.7389       0.626247       0.05587
   4     792.3        0.1852        0.0001        0.3984        0.3984       0.213217       0.04737
   3     825.4        0.0095        0.0238        0.0001        0.0238       0.014334       0.05076
   2     858.4        0.0007        0.0017        0.0000        0.0017       0.001063       0.00339
   1     891.5        0.0000        0.0001        0.0000        0.0001       0.000103       0.00025
   0    1013.0        0.0000        0.0000        0.0000        0.0000       0.000010       0.00001



 Wavenumbers:  4000. -  4650. cm-1, ATM      1
 LEVEL PRESSURE   UPWARD FLUX   DIFDOWN FLUX  DIRDOWN FLUX  DOWNWARD FLUX   NET FLUX    HEATING RATE
          mb          W/m2          W/m2          W/m2        W/m2          W/m2       degree/day
  51    .06700        6.5419        0.0000       10.7795       10.7795       4.237674       0.00000
  50    .07753        6.5419        0.0000       10.7795       10.7795       4.237673       0.00080
  49    .09103        6.5419        0.0000       10.7795       10.7795       4.237672       0.00078
  48    0.1069        6.5419        0.0000       10.7795       10.7795       4.237670       0.00077
  47    0.1255        6.5419        0.0000       10.7795       10.7795       4.237669       0.00075
  46    0.1487        6.5419        0.0000       10.7795       10.7795       4.237667       0.00076
  45    0.1794        6.5419        0.0000       10.7795       10.7795       4.237664       0.00078
  44    0.2165        6.5419        0.0000       10.7795       10.7795       4.237660       0.00076
  43    0.2613        6.5419        0.0000       10.7795       10.7795       4.237656       0.00075
  42    0.3336        6.5419        0.0000       10.7795       10.7795       4.237650       0.00077
  41    0.4307        6.5419        0.0000       10.7795       10.7795       4.237641       0.00077
  40    0.5894        6.5419        0.0000       10.7795       10.7795       4.237626       0.00080
  39     1.339        6.5419        0.0000       10.7794       10.7794       4.237536       0.00101
  38     1.782        6.5419        0.0000       10.7793       10.7793       4.237466       0.00133
  37     2.292        6.5419        0.0000       10.7792       10.7792       4.237372       0.00156
  36     5.035        6.5419        0.0000       10.7790       10.7790       4.237164       0.00064
  35     6.613        6.5419        0.0000       10.7785       10.7786       4.236710       0.00243
  34     8.786        6.5419        0.0000       10.7779       10.7779       4.236040       0.00260
  33     11.80        6.5419        0.0000       10.7768       10.7768       4.234986       0.00295
  32     15.07        6.5419        0.0001       10.7755       10.7756       4.233749       0.00319
  31     18.79        6.5419        0.0001       10.7740       10.7741       4.232253       0.00339
  30     23.16        6.5419        0.0001       10.7722       10.7723       4.230394       0.00360
  29     28.12        6.5419        0.0001       10.7699       10.7700       4.228141       0.00383
  28     33.73        6.5419        0.0002       10.7671       10.7673       4.225360       0.00418
  27     40.54        6.5420        0.0002       10.7633       10.7635       4.221586       0.00468
  26     48.69        6.5420        0.0002       10.7583       10.7586       4.216550       0.00521
  25     57.69        6.5421        0.0003       10.7524       10.7527       4.210571       0.00560
  24     68.43        6.5423        0.0003       10.7450       10.7453       4.203066       0.00590
  23     81.20        6.5425        0.0004       10.7359       10.7363       4.193808       0.00612
  22     96.49        6.5428        0.0005       10.7249       10.7253       4.182517       0.00623
  21     114.6        6.5433        0.0006       10.7111       10.7116       4.168363       0.00661
  20     136.5        6.5439        0.0007       10.6945       10.6952       4.151263       0.00658
  19     162.9        6.5449        0.0008       10.6744       10.6751       4.130223       0.00673
  18     196.4        6.5466        0.0010       10.6467       10.6476       4.101060       0.00734
  17     218.7        6.5480        0.0011       10.6258       10.6268       4.078780       0.00846
  16     243.0        6.5502        0.0012       10.5983       10.5995       4.049326       0.01022
  15     269.0        6.5534        0.0013       10.5613       10.5627       4.009292       0.01299
  14     297.5        6.5580        0.0014       10.5122       10.5136       3.955613       0.01592
  13     328.5        6.5644        0.0016       10.4501       10.4517       3.887302       0.01857
  12     361.9        6.5727        0.0017       10.3704       10.3721       3.799383       0.02224
  11     398.1        6.5832        0.0019       10.2679       10.2698       3.686608       0.02627
  10     437.6        6.5967        0.0021       10.1391       10.1412       3.544505       0.03038
   9     480.5        6.6140        0.0023        9.9878        9.9900       3.376082       0.03308
   8     533.0        6.6407        0.0025        9.7937        9.7962       3.155556       0.03548
   7     589.8        6.6794        0.0027        9.5752        9.5779       2.898450       0.03816
   6     651.6        6.7424        0.0029        9.2958        9.2987       2.556366       0.04678
   5     718.7        6.8491        0.0031        8.9267        8.9299       2.080751       0.05977
   4     792.3        7.0525        0.0033        8.4542        8.4576       1.405035       0.07750
   3     825.4        3.2736        4.0993        0.0044        4.1037       0.830107       0.14675
   2     858.4        1.5444        2.1973        0.0000        2.1973       0.652903       0.04523
   1     891.5        0.0386        0.6336        0.0000        0.6336       0.594990       0.01479
   0    1013.0        0.0400        0.6075        0.0000        0.6075       0.567489       0.00191



 Wavenumbers:  4650. -  5150. cm-1, ATM      1
 LEVEL PRESSURE   UPWARD FLUX   DIFDOWN FLUX  DIRDOWN FLUX  DOWNWARD FLUX   NET FLUX    HEATING RATE
          mb          W/m2          W/m2          W/m2        W/m2          W/m2       degree/day
  51    .06700        4.7008        0.0000       10.2033       10.2033       5.502512       0.00000
  50    .07753        4.7008        0.0000       10.2031       10.2031       5.502276       0.18901
  49    .09103        4.7008        0.0000       10.2028       10.2028       5.501981       0.18428
  48    0.1069        4.7008        0.0000       10.2025       10.2025       5.501645       0.17931
  47    0.1255        4.7008        0.0000       10.2021       10.2021       5.501260       0.17426
  46    0.1487        4.7008        0.0000       10.2016       10.2016       5.500779       0.17536
  45    0.1794        4.7008        0.0000       10.2010       10.2010       5.500129       0.17850
  44    0.2165        4.7008        0.0000       10.2002       10.2002       5.499369       0.17277
  43    0.2613        4.7008        0.0000       10.1993       10.1993       5.498484       0.16690
  42    0.3336        4.7008        0.0000       10.1979       10.1979       5.497051       0.16702
  41    0.4307        4.7008        0.0000       10.1960       10.1960       5.495211       0.16002
  40    0.5894        4.7008        0.0000       10.1932       10.1932       5.492337       0.15283
  39     1.339        4.7008        0.0000       10.1816       10.1816       5.480745       0.13051
  38     1.782        4.7008        0.0000       10.1760       10.1760       5.475216       0.10527
  37     2.292        4.7008        0.0000       10.1706       10.1706       5.469758       0.09039
  36     5.035        4.7008        0.0000       10.1630       10.1630       5.462171       0.02334
  35     6.613        4.7008        0.0000       10.1533       10.1533       5.452461       0.05191
  34     8.786        4.7008        0.0000       10.1442       10.1442       5.443366       0.03532
  33     11.80        4.7009        0.0001       10.1340       10.1341       5.433216       0.02842
  32     15.07        4.7009        0.0001       10.1237       10.1238       5.422939       0.02653
  31     18.79        4.7009        0.0001       10.1115       10.1117       5.410731       0.02768
  30     23.16        4.7010        0.0002       10.0961       10.0963       5.395256       0.02992
  29     28.12        4.7011        0.0002       10.0769       10.0771       5.375966       0.03279
  28     33.73        4.7012        0.0002       10.0536       10.0539       5.352633       0.03508
  27     40.54        4.7014        0.0003       10.0235       10.0238       5.322409       0.03750
  26     48.69        4.7017        0.0003        9.9852        9.9855       5.283810       0.03994
  25     57.69        4.7020        0.0004        9.9414        9.9418       5.239759       0.04129
  24     68.43        4.7025        0.0005        9.8884        9.8889       5.186368       0.04197
  23     81.20        4.7032        0.0006        9.8258        9.8263       5.123135       0.04178
  22     96.49        4.7041        0.0007        9.7537        9.7544       5.050250       0.04023
  21     114.6        4.7054        0.0008        9.6735        9.6743       4.968854       0.03801
  20     136.5        4.7072        0.0009        9.5870        9.5879       4.880719       0.03389
  19     162.9        4.7097        0.0011        9.4949        9.4960       4.786313       0.03018
  18     196.4        4.7135        0.0013        9.3889        9.3902       4.676648       0.02760
  17     218.7        4.7166        0.0015        9.3234        9.3249       4.608291       0.02595
  16     243.0        4.7205        0.0016        9.2524        9.2540       4.533502       0.02594
  15     269.0        4.7257        0.0018        9.1720        9.1738       4.448038       0.02772
  14     297.5        4.7330        0.0020        9.0765        9.0785       4.345468       0.03042
  13     328.5        4.7426        0.0021        8.9652        8.9673       4.224778       0.03282
  12     361.9        4.7549        0.0023        8.8351        8.8375       4.082599       0.03597
  11     398.1        4.7708        0.0025        8.6822        8.6847       3.913903       0.03930
  10     437.6        4.7916        0.0027        8.5030        8.5057       3.714085       0.04272
   9     480.5        4.8187        0.0030        8.2950        8.2979       3.479217       0.04613
   8     533.0        4.8601        0.0032        8.0210        8.0242       3.164140       0.05069
   7     589.8        4.9177        0.0035        7.7064        7.7099       2.792145       0.05522
   6     651.6        5.0034        0.0037        7.3413        7.3450       2.341644       0.06161
   5     718.7        5.1335        0.0039        6.9387        6.9426       1.809122       0.06692
   4     792.3        5.3432        0.0041        6.5066        6.5107       1.167548       0.07358
   3     825.4        2.3538        2.9988        0.0033        3.0021       0.648301       0.13254
   2     858.4        1.0714        1.5445        0.0000        1.5445       0.473099       0.04472
   1     891.5        0.0069        0.4244        0.0000        0.4244       0.417506       0.01420
   0    1013.0        0.0072        0.4031        0.0000        0.4031       0.395915       0.00150



 Wavenumbers:  5150. -  6150. cm-1, ATM      1
 LEVEL PRESSURE   UPWARD FLUX   DIFDOWN FLUX  DIRDOWN FLUX  DOWNWARD FLUX   NET FLUX    HEATING RATE
          mb          W/m2          W/m2          W/m2        W/m2          W/m2       degree/day
  51    .06700       11.2654        0.0000       25.5798       25.5798      14.314432       0.00000
  50    .07753       11.2654        0.0000       25.5798       25.5798      14.314393       0.03162
  49    .09103       11.2654        0.0000       25.5797       25.5797      14.314342       0.03211
  48    0.1069       11.2654        0.0000       25.5797       25.5797      14.314280       0.03262
  47    0.1255       11.2654        0.0000       25.5796       25.5796      14.314207       0.03312
  46    0.1487       11.2654        0.0000       25.5795       25.5795      14.314112       0.03489
  45    0.1794       11.2654        0.0000       25.5794       25.5794      14.313976       0.03713
  44    0.2165       11.2654        0.0000       25.5792       25.5792      14.313811       0.03769
  43    0.2613       11.2654        0.0000       25.5790       25.5790      14.313608       0.03827
  42    0.3336       11.2654        0.0000       25.5786       25.5786      14.313261       0.04044
  41    0.4307       11.2654        0.0000       25.5782       25.5782      14.312789       0.04098
  40    0.5894       11.2654        0.0000       25.5774       25.5774      14.312000       0.04199
  39     1.339       11.2654        0.0000       25.5735       25.5736      14.308195       0.04283
  38     1.782       11.2654        0.0001       25.5713       25.5714      14.305980       0.04218
  37     2.292       11.2654        0.0001       25.5688       25.5688      14.303472       0.04154
  36     5.035       11.2654        0.0001       25.5647       25.5648      14.299371       0.01262
  35     6.613       11.2654        0.0002       25.5576       25.5578      14.292380       0.03737
  34     8.786       11.2654        0.0002       25.5485       25.5487      14.283319       0.03519
  33     11.80       11.2655        0.0003       25.5362       25.5365      14.271063       0.03431
  32     15.07       11.2655        0.0004       25.5239       25.5243      14.258770       0.03174
  31     18.79       11.2656        0.0005       25.5110       25.5115      14.245915       0.02915
  30     23.16       11.2657        0.0007       25.4971       25.4977      14.232065       0.02678
  29     28.12       11.2658        0.0008       25.4824       25.4833      14.217458       0.02483
  28     33.73       11.2660        0.0010       25.4676       25.4686      14.202645       0.02227
  27     40.54       11.2662        0.0012       25.4514       25.4526      14.186430       0.02012
  26     48.69       11.2665        0.0015       25.4341       25.4356      14.169042       0.01799
  25     57.69       11.2669        0.0018       25.4169       25.4187      14.151756       0.01620
  24     68.43       11.2675        0.0021       25.3983       25.4004      14.132965       0.01477
  23     81.20       11.2681        0.0025       25.3779       25.3804      14.112269       0.01368
  22     96.49       11.2690        0.0030       25.3550       25.3580      14.089004       0.01284
  21     114.6       11.2700        0.0036       25.3288       25.3324      14.062333       0.01245
  20     136.5       11.2713        0.0043       25.2983       25.3026      14.031318       0.01193
  19     162.9       11.2729        0.0051       25.2537       25.2588      13.985898       0.01452
  18     196.4       11.2751        0.0062       25.1601       25.1663      13.891190       0.02384
  17     218.7       11.2767        0.0069       25.0164       25.0232      13.746493       0.05494
  16     243.0       11.2787        0.0076       24.7092       24.7168      13.438107       0.10696
  15     269.0       11.2812        0.0082       24.1621       24.1704      12.889188       0.17807
  14     297.5       11.2846        0.0089       23.4546       23.4635      12.178976       0.21064
  13     328.5       11.2890        0.0096       22.7357       22.7453      11.456329       0.19649
  12     361.9       11.2948        0.0104       21.9226       21.9330      10.638171       0.20700
  11     398.1       11.3026        0.0110       20.9941       21.0051       9.702536       0.21798
  10     437.6       11.3134        0.0117       19.9835       19.9952       8.681791       0.21824
   9     480.5       11.3284        0.0124       18.9485       18.9608       7.632443       0.20609
   8     533.0       11.3538        0.0131       17.7798       17.7929       6.439119       0.19197
   7     589.8       11.3948        0.0139       16.6727       16.6866       5.291782       0.17030
   6     651.6       11.4700        0.0147       15.6344       15.6491       4.179114       0.15216
   5     718.7       11.6081        0.0155       14.7739       14.7895       3.181388       0.12539
   4     792.3       11.8855        0.0165       14.0292       14.0457       2.160219       0.11712
   3     825.4        5.7529        7.1048        0.0073        7.1121       1.359213       0.20445
   2     858.4        2.7939        3.9341        0.0000        3.9341       1.140218       0.05590
   1     891.5        0.0906        1.1675        0.0000        1.1675       1.076972       0.01615
   0    1013.0        0.0923        1.1398        0.0000        1.1398       1.047459       0.00205



 Wavenumbers:  6150. -  7700. cm-1, ATM      1
 LEVEL PRESSURE   UPWARD FLUX   DIFDOWN FLUX  DIRDOWN FLUX  DOWNWARD FLUX   NET FLUX    HEATING RATE
          mb          W/m2          W/m2          W/m2        W/m2          W/m2       degree/day
  51    .06700       17.9322        0.0000       47.3109       47.3109      29.378708       0.00000
  50    .07753       17.9322        0.0000       47.3108       47.3108      29.378651       0.04553
  49    .09103       17.9321        0.0000       47.3107       47.3107      29.378578       0.04583
  48    0.1069       17.9321        0.0000       47.3106       47.3106      29.378491       0.04614
  47    0.1255       17.9321        0.0000       47.3105       47.3105      29.378389       0.04645
  46    0.1487       17.9321        0.0000       47.3104       47.3104      29.378255       0.04852
  45    0.1794       17.9321        0.0000       47.3102       47.3102      29.378069       0.05127
  44    0.2165       17.9321        0.0000       47.3100       47.3100      29.377842       0.05167
  43    0.2613       17.9321        0.0000       47.3097       47.3097      29.377565       0.05210
  42    0.3336       17.9321        0.0000       47.3092       47.3092      29.377096       0.05471
  41    0.4307       17.9321        0.0000       47.3085       47.3086      29.376461       0.05521
  40    0.5894       17.9321        0.0001       47.3074       47.3075      29.375402       0.05633
  39     1.339       17.9321        0.0002       47.3022       47.3024      29.370309       0.05733
  38     1.782       17.9320        0.0002       47.2991       47.2994      29.367339       0.05655
  37     2.292       17.9320        0.0003       47.2956       47.2959      29.363963       0.05591
  36     5.035       17.9319        0.0004       47.2899       47.2903      29.358388       0.01715
  35     6.613       17.9318        0.0006       47.2800       47.2806      29.348812       0.05119
  34     8.786       17.9316        0.0009       47.2670       47.2679      29.336268       0.04872
  33     11.80       17.9314        0.0013       47.2491       47.2504      29.319031       0.04826
  32     15.07       17.9311        0.0017       47.2308       47.2325      29.301407       0.04550
  31     18.79       17.9309        0.0022       47.2112       47.2134      29.282571       0.04271
  30     23.16       17.9305        0.0028       47.1895       47.1923      29.261794       0.04018
  29     28.12       17.9301        0.0035       47.1661       47.1695      29.239390       0.03808
  28     33.73       17.9297        0.0042       47.1416       47.1458      29.216050       0.03509
  27     40.54       17.9292        0.0051       47.1141       47.1192      29.189958       0.03237
  26     48.69       17.9286        0.0061       47.0837       47.0898      29.161217       0.02974
  25     57.69       17.9279        0.0073       47.0527       47.0600      29.132120       0.02727
  24     68.43       17.9271        0.0087       47.0183       47.0270      29.099878       0.02535
  23     81.20       17.9262        0.0104       46.9796       46.9900      29.063849       0.02381
  22     96.49       17.9250        0.0124       46.9356       46.9480      29.022940       0.02258
  21     114.6       17.9237        0.0148       46.8846       46.8994      28.975703       0.02206
  20     136.5       17.9221        0.0176       46.8250       46.8425      28.920440       0.02125
  19     162.9       17.9203        0.0209       46.7403       46.7613      28.841010       0.02539
  18     196.4       17.9180        0.0253       46.5732       46.5985      28.680461       0.04041
  17     218.7       17.9168        0.0280       46.3491       46.3771      28.460390       0.08355
  16     243.0       17.9158        0.0310       45.9309       45.9618      28.046079       0.14370
  15     269.0       17.9155        0.0339       45.1716       45.2055      27.289945       0.24529
  14     297.5       17.9168        0.0368       44.0121       44.0489      26.132042       0.34342
  13     328.5       17.9202        0.0398       42.7247       42.7645      24.844239       0.35015
  12     361.9       17.9267        0.0428       41.3543       41.3971      23.470382       0.34760
  11     398.1       17.9382        0.0458       39.7956       39.8414      21.903238       0.36511
  10     437.6       17.9575        0.0486       37.9951       38.0437      20.086196       0.38849
   9     480.5       17.9884        0.0513       36.0650       36.1163      18.127876       0.38461
   8     533.0       18.0467        0.0542       33.7776       33.8318      15.785099       0.37688
   7     589.8       18.1484        0.0569       31.4085       31.4654      13.317012       0.36634
   6     651.6       18.3447        0.0592       28.8836       28.9428      10.598049       0.37183
   5     718.7       18.7209        0.0612       26.4106       26.4718       7.750841       0.35782
   4     792.3       19.5231        0.0629       24.0058       24.0687       4.545562       0.36761
   3     825.4        8.7493       11.0066        0.0119       11.0185       2.269216       0.58102
   2     858.4        4.1705        5.8811        0.0000        5.8811       1.710646       0.14258
   1     891.5        0.2489        1.7957        0.0000        1.7957       1.546710       0.04186
   0    1013.0        0.2573        1.7231        0.0000        1.7231       1.465839       0.00562



 Wavenumbers:  7700. -  8050. cm-1, ATM      1
 LEVEL PRESSURE   UPWARD FLUX   DIFDOWN FLUX  DIRDOWN FLUX  DOWNWARD FLUX   NET FLUX    HEATING RATE
          mb          W/m2          W/m2          W/m2        W/m2          W/m2       degree/day
  51    .06700        8.3617        0.0000       11.1810       11.1810       2.819304       0.00000
  50    .07753        8.3617        0.0000       11.1809       11.1809       2.819280       0.01893
  49    .09103        8.3617        0.0000       11.1809       11.1809       2.819250       0.01856
  48    0.1069        8.3617        0.0000       11.1809       11.1809       2.819216       0.01817
  47    0.1255        8.3617        0.0000       11.1809       11.1809       2.819177       0.01778
  46    0.1487        8.3617        0.0000       11.1808       11.1808       2.819128       0.01804
  45    0.1794        8.3617        0.0000       11.1808       11.1808       2.819060       0.01856
  44    0.2165        8.3617        0.0000       11.1807       11.1807       2.818980       0.01821
  43    0.2613        8.3618        0.0000       11.1806       11.1806       2.818885       0.01787
  42    0.3336        8.3618        0.0000       11.1805       11.1805       2.818728       0.01828
  41    0.4307        8.3618        0.0000       11.1803       11.1804       2.818520       0.01808
  40    0.5894        8.3619        0.0000       11.1801       11.1801       2.818181       0.01806
  39     1.339        8.3623        0.0001       11.1788       11.1789       2.816574       0.01809
  38     1.782        8.3625        0.0001       11.1781       11.1782       2.815629       0.01797
  37     2.292        8.3628        0.0001       11.1772       11.1773       2.814537       0.01810
  36     5.035        8.3633        0.0002       11.1757       11.1759       2.812640       0.00583
  35     6.613        8.3641        0.0003       11.1731       11.1734       2.809272       0.01800
  34     8.786        8.3652        0.0004       11.1695       11.1699       2.804735       0.01762
  33     11.80        8.3668        0.0006       11.1644       11.1650       2.798246       0.01817
  32     15.07        8.3684        0.0008       11.1589       11.1597       2.791282       0.01798
  31     18.79        8.3704        0.0010       11.1528       11.1538       2.783422       0.01782
  30     23.16        8.3726        0.0013       11.1456       11.1469       2.774249       0.01774
  29     28.12        8.3752        0.0016       11.1374       11.1390       2.763772       0.01781
  28     33.73        8.3781        0.0019       11.1282       11.1302       2.752063       0.01760
  27     40.54        8.3816        0.0024       11.1172       11.1196       2.737942       0.01752
  26     48.69        8.3859        0.0029       11.1040       11.1069       2.720956       0.01758
  25     57.69        8.3906        0.0034       11.0896       11.0930       2.702346       0.01744
  24     68.43        8.3963        0.0040       11.0725       11.0765       2.680251       0.01737
  23     81.20        8.4031        0.0048       11.0523       11.0571       2.654025       0.01733
  22     96.49        8.4112        0.0057       11.0284       11.0342       2.622915       0.01717
  21     114.6        8.4210        0.0068       11.0004       11.0072       2.586170       0.01716
  20     136.5        8.4328        0.0081       10.9676       10.9757       2.542880       0.01665
  19     162.9        8.4470        0.0097       10.9290       10.9387       2.491679       0.01637
  18     196.4        8.4658        0.0117       10.8799       10.8916       2.425802       0.01658
  17     218.7        8.4783        0.0130       10.8482       10.8611       2.382802       0.01633
  16     243.0        8.4922        0.0144       10.8140       10.8284       2.336227       0.01615
  15     269.0        8.5075        0.0159       10.7774       10.7933       2.285856       0.01634
  14     297.5        8.5244        0.0176       10.7382       10.7558       2.231393       0.01615
  13     328.5        8.5431        0.0194       10.6962       10.7155       2.172436       0.01603
  12     361.9        8.5639        0.0213       10.6512       10.6725       2.108670       0.01613
  11     398.1        8.5870        0.0234       10.6031       10.6265       2.039462       0.01612
  10     437.6        8.6129        0.0256       10.5513       10.5770       1.964025       0.01613
   9     480.5        8.6420        0.0280       10.4956       10.5237       1.881612       0.01619
   8     533.0        8.6800        0.0310       10.4264       10.4574       1.777367       0.01677
   7     589.8        8.7243        0.0341       10.3500       10.3841       1.659796       0.01745
   6     651.6        8.7774        0.0375       10.2633       10.3008       1.523407       0.01865
   5     718.7        8.8426        0.0411       10.1637       10.2048       1.362158       0.02026
   4     792.3        8.9256        0.0449       10.0457       10.0907       1.165052       0.02261
   3     825.4        4.7370        5.6930        0.0055        5.6985       0.961488       0.05196
   2     858.4        2.5608        3.4083        0.0000        3.4083       0.847528       0.02909
   1     891.5        0.5631        1.3574        0.0000        1.3574       0.794220       0.01361
   0    1013.0        0.5740        1.3306        0.0000        1.3306       0.756561       0.00261



 Wavenumbers:  8050. - 12850. cm-1, ATM      1
 LEVEL PRESSURE   UPWARD FLUX   DIFDOWN FLUX  DIRDOWN FLUX  DOWNWARD FLUX   NET FLUX    HEATING RATE
          mb          W/m2          W/m2          W/m2        W/m2          W/m2       degree/day
  51    .06700      110.2563        0.0000      156.5418      156.5418      46.285499       0.00000
  50    .07753      110.2562        0.0000      156.5417      156.5417      46.285499      -0.00000
  49    .09103      110.2562        0.0001      156.5417      156.5417      46.285499      -0.00000
  48    0.1069      110.2562        0.0001      156.5416      156.5417      46.285499       0.00000
  47    0.1255      110.2562        0.0002      156.5415      156.5417      46.285499       0.00000
  46    0.1487      110.2562        0.0002      156.5414      156.5417      46.285499      -0.00000
  45    0.1794      110.2561        0.0003      156.5413      156.5416      46.285499       0.00000
  44    0.2165      110.2561        0.0004      156.5412      156.5416      46.285499      -0.00000
  43    0.2613      110.2561        0.0006      156.5410      156.5416      46.285499       0.00000
  42    0.3336      110.2560        0.0008      156.5407      156.5415      46.285499      -0.00000
  41    0.4307      110.2559        0.0011      156.5403      156.5414      46.285499       0.00000
  40    0.5894      110.2557        0.0016      156.5397      156.5412      46.285499      -0.00000
  39     1.339      110.2550        0.0038      156.5367      156.5405      46.285499      -0.00000
  38     1.782      110.2546        0.0051      156.5350      156.5401      46.285499       0.00000
  37     2.292      110.2541        0.0066      156.5330      156.5396      46.285499      -0.00000
  36     5.035      110.2532        0.0092      156.5295      156.5387      46.285499       0.00000
  35     6.613      110.2517        0.0139      156.5233      156.5372      46.285499      -0.00000
  34     8.786      110.2497        0.0202      156.5149      156.5352      46.285499       0.00000
  33     11.80      110.2467        0.0293      156.5029      156.5322      46.285499       0.00000
  32     15.07      110.2436        0.0390      156.4901      156.5291      46.285499       0.00000
  31     18.79      110.2400        0.0500      156.4755      156.5255      46.285499       0.00000
  30     23.16      110.2358        0.0628      156.4585      156.5213      46.285499      -0.00000
  29     28.12      110.2310        0.0775      156.4390      156.5165      46.285499       0.00000
  28     33.73      110.2256        0.0940      156.4171      156.5111      46.285499       0.00000
  27     40.54      110.2191        0.1139      156.3907      156.5046      46.285499       0.00000
  26     48.69      110.2113        0.1380      156.3588      156.4968      46.285499      -0.00000
  25     57.69      110.2027        0.1645      156.3237      156.4882      46.285499      -0.00000
  24     68.43      110.1924        0.1961      156.2818      156.4779      46.285499       0.00000
  23     81.20      110.1801        0.2337      156.2319      156.4656      46.285499       0.00000
  22     96.49      110.1654        0.2787      156.1722      156.4509      46.285499      -0.00000
  21     114.6      110.1482        0.3322      156.0952      156.4275      46.279219       0.00293
  20     136.5      110.1278        0.3958      156.0034      156.3992      46.271432       0.00299
  19     162.9      110.1035        0.4717      155.8903      156.3620      46.258526       0.00413
  18     196.4      110.0720        0.5703      155.7272      156.2975      46.225512       0.00831
  17     218.7      110.0518        0.6352      155.5805      156.2157      46.163988       0.02336
  16     243.0      110.0310        0.7057      155.3439      156.0496      46.018699       0.05039
  15     269.0      110.0112        0.7820      154.9586      155.7407      45.729457       0.09383
  14     297.5      109.9954        0.8642      154.3968      155.2610      45.265638       0.13756
  13     328.5      109.9853        0.9528      153.7223      154.6751      44.689824       0.15656
  12     361.9      109.9847        1.0480      152.9159      153.9639      43.979134       0.17981
  11     398.1      110.0001        1.1498      151.9057      153.0555      43.055416       0.21521
  10     437.6      110.0423        1.2581      150.6102      151.8683      41.826043       0.26285
   9     480.5      110.1246        1.3727      149.0084      150.3811      40.256497       0.30825
   8     533.0      110.2965        1.5114      146.7445      148.2559      37.959435       0.36952
   7     589.8      110.6132        1.6569      143.8798      145.5367      34.923504       0.45063
   6     651.6      111.2367        1.8062      140.1022      141.9084      30.671635       0.58145
   5     718.7      112.4083        1.9578      135.5343      137.4921      25.083756       0.70224
   4     792.3      114.7393        2.1079      130.0753      132.1832      17.443902       0.87621
   3     825.4       63.1494       73.6587        0.0684       73.7271      10.577757       1.75255
   2     858.4       41.1931       49.4599        0.0000       49.4600       8.266893       0.58989
   1     891.5       22.5119       29.8093        0.0000       29.8093       7.297355       0.24757
   0    1013.0       22.9143       29.2051        0.0000       29.2051       6.290780       0.06989



 Wavenumbers: 12850. - 16000. cm-1, ATM      1
 LEVEL PRESSURE   UPWARD FLUX   DIFDOWN FLUX  DIRDOWN FLUX  DOWNWARD FLUX   NET FLUX    HEATING RATE
          mb          W/m2          W/m2          W/m2        W/m2          W/m2       degree/day
  51    .06700       81.2525        0.0000       98.0872       98.0872      16.834723       0.00000
  50    .07753       81.2525        0.0001       98.0864       98.0864      16.833930       0.63541
  49    .09103       81.2525        0.0002       98.0853       98.0855      16.832934       0.62246
  48    0.1069       81.2525        0.0003       98.0841       98.0843      16.831790       0.60928
  47    0.1255       81.2525        0.0004       98.0826       98.0830      16.830474       0.59642
  46    0.1487       81.2526        0.0005       98.0809       98.0814      16.828813       0.60546
  45    0.1794       81.2526        0.0007       98.0784       98.0792      16.826552       0.62058
  44    0.2165       81.2527        0.0010       98.0756       98.0766      16.823892       0.60522
  43    0.2613       81.2528        0.0013       98.0723       98.0736      16.820761       0.59011
  42    0.3336       81.2531        0.0017       98.0670       98.0688      16.815648       0.59618
  41    0.4307       81.2535        0.0024       98.0602       98.0626      16.809030       0.57544
  40    0.5894       81.2544        0.0034       98.0496       98.0530      16.798588       0.55528
  39     1.339       81.2615        0.0083       98.0043       98.0126      16.751062       0.53505
  38     1.782       81.2680        0.0111       97.9793       97.9904      16.722394       0.54580
  37     2.292       81.2776        0.0144       97.9498       97.9642      16.686594       0.59294
  36     5.035       81.3031        0.0201       97.8891       97.9093      16.606189       0.24739
  35     6.613       81.3565        0.0303       97.7746       97.8049      16.448373       0.84368
  34     8.786       81.4261        0.0440       97.6278       97.6718      16.245622       0.78741
  33     11.80       81.5169        0.0635       97.4339       97.4974      15.980539       0.74215
  32     15.07       81.6039        0.0845       97.2433       97.3278      15.723895       0.66261
  31     18.79       81.6929        0.1082       97.0439       97.1520      15.459137       0.60029
  30     23.16       81.7861        0.1358       96.8292       96.9650      15.178868       0.54195
  29     28.12       81.8802        0.1674       96.6048       96.7722      14.892002       0.48765
  28     33.73       81.9675        0.2027       96.3831       96.5858      14.618297       0.41152
  27     40.54       82.0522        0.2454       96.1494       96.3948      14.342527       0.34212
  26     48.69       82.1342        0.2969       95.9016       96.1985      14.064328       0.28789
  25     57.69       82.2047        0.3534       95.6629       96.0164      13.811662       0.23684
  24     68.43       82.2676        0.4208       95.4149       95.8357      13.568142       0.19144
  23     81.20       82.3135        0.5012       95.1674       95.6686      13.355037       0.14082
  22     96.49       82.3416        0.5971       94.9172       95.5143      13.172735       0.10062
  21     114.6       82.3735        0.7120       94.6421       95.3541      12.980592       0.08972
  20     136.5       82.4000        0.8483       94.3324       95.1806      12.780636       0.07689
  19     162.9       82.4211        1.0105       93.9750       94.9855      12.564403       0.06912
  18     196.4       82.4263        1.2209       93.5336       94.7546      12.328334       0.05942
  17     218.7       82.4218        1.3592       93.2498       94.6090      12.187139       0.05361
  16     243.0       82.4139        1.5094       92.9420       94.4514      12.037434       0.05192
  15     269.0       82.4027        1.6721       92.6087       94.2808      11.878126       0.05168
  14     297.5       82.3889        1.8481       92.2464       94.0945      11.705578       0.05118
  13     328.5       82.3749        2.0381       91.8517       93.8899      11.514904       0.05184
  12     361.9       82.3621        2.2428       91.4219       93.6646      11.302553       0.05373
  11     398.1       82.3522        2.4629       90.9524       93.4154      11.063143       0.05578
  10     437.6       82.3492        2.6993       90.4358       93.1351      10.785873       0.05928
   9     480.5       82.3570        2.9524       89.8659       92.8183      10.461324       0.06374
   8     533.0       82.3874        3.2636       89.1347       92.3983      10.010950       0.07245
   7     589.8       82.4584        3.5980       88.2943       91.8923       9.433881       0.08566
   6     651.6       82.6121        3.9552       87.2867       91.2418       8.629707       0.10997
   5     718.7       82.8817        4.3336       86.1028       90.4364       7.554725       0.13510
   4     792.3       83.3653        4.7295       84.6812       89.4107       6.045477       0.17309
   3     825.4       57.5328       61.9126        0.0461       61.9587       4.425948       0.41338
   2     858.4       48.0814       51.6610        0.0000       51.6610       3.579591       0.21605
   1     891.5       40.1536       43.2049        0.0000       43.2049       3.051249       0.13491
   0    1013.0       40.4780       42.8203        0.0000       42.8203       2.342268       0.04923



 Wavenumbers: 16000. - 22650. cm-1, ATM      1
 LEVEL PRESSURE   UPWARD FLUX   DIFDOWN FLUX  DIRDOWN FLUX  DOWNWARD FLUX   NET FLUX    HEATING RATE
          mb          W/m2          W/m2          W/m2        W/m2          W/m2       degree/day
  51    .06700      140.3837        0.0000      156.3892      156.3892      16.005574       0.00000
  50    .07753      140.3836        0.0004      156.3887      156.3891      16.005426       0.11812
  49    .09103      140.3836        0.0009      156.3879      156.3888      16.005212       0.13397
  48    0.1069      140.3836        0.0015      156.3871      156.3885      16.004925       0.15277
  47    0.1255      140.3836        0.0021      156.3861      156.3882      16.004541       0.17414
  46    0.1487      140.3837        0.0029      156.3847      156.3877      16.003975       0.20635
  45    0.1794      140.3838        0.0041      156.3828      156.3869      16.003090       0.24296
  44    0.2165      140.3840        0.0054      156.3805      156.3859      16.001889       0.27306
  43    0.2613      140.3844        0.0070      156.3776      156.3846      16.000261       0.30699
  42    0.3336      140.3851        0.0096      156.3726      156.3823      15.997164       0.36101
  41    0.4307      140.3863        0.0131      156.3657      156.3788      15.992497       0.40582
  40    0.5894      140.3889        0.0188      156.3537      156.3725      15.983595       0.47337
  39     1.339      140.4114        0.0458      156.2834      156.3292      15.917830       0.74040
  38     1.782      140.4321        0.0616      156.2324      156.2939      15.861806       1.06661
  37     2.292      140.4633        0.0799      156.1641      156.2440      15.780711       1.34315
  36     5.035      140.5470        0.1116      156.0076      156.1192      15.572217       0.64148
  35     6.613      140.7231        0.1679      155.6950      155.8629      15.139786       2.31178
  34     8.786      140.9526        0.2437      155.2860      155.5297      14.577103       2.18526
  33     11.80      141.2511        0.3519      154.7422      155.0941      13.842960       2.05537
  32     15.07      141.5371        0.4679      154.2059      154.6738      13.136752       1.82329
  31     18.79      141.8290        0.5987      153.6432      154.2420      12.412970       1.64104
  30     23.16      142.1340        0.7513      153.0352      153.7865      11.652478       1.47055
  29     28.12      142.4408        0.9255      152.3965      153.3220      10.881229       1.31107
  28     33.73      142.7238        1.1202      151.7604      152.8806      10.156812       1.08918
  27     40.54      142.9959        1.3552      151.0815      152.4367       9.440843       0.88824
  26     48.69      143.2562        1.6382      150.3500      151.9882       8.732041       0.73350
  25     57.69      143.4764        1.9487      149.6296      151.5783       8.101859       0.59070
  24     68.43      143.6681        2.3180      148.8604      151.1784       7.510299       0.46505
  23     81.20      143.7995        2.7577      148.0628      150.8204       7.020952       0.32335
  22     96.49      143.8661        3.2810      147.2220      150.5031       6.636947       0.21194
  21     114.6      143.8990        3.9006      146.2838      150.1844       6.285416       0.16414
  20     136.5      143.9068        4.6322      145.2142      149.8464       5.939609       0.13297
  19     162.9      143.8877        5.4993      143.9816      149.4809       5.593220       0.11072
  18     196.4      143.8015        6.6180      142.4652      149.0832       5.281686       0.07842
  17     218.7      143.7225        7.3491      141.5017      148.8507       5.128209       0.05827
  16     243.0      143.6264        8.1403      140.4717      148.6120       4.985651       0.04944
  15     269.0      143.5115        8.9939      139.3740      148.3679       4.856408       0.04193
  14     297.5      143.3772        9.9118      138.2062      148.1180       4.740835       0.03428
  13     328.5      143.2275       10.8984      136.9574      147.8558       4.628298       0.03060
  12     361.9      143.0622       11.9546      135.6265      147.5811       4.518915       0.02767
  11     398.1      142.8808       13.0845      134.2081      147.2926       4.411761       0.02496
  10     437.6      142.6844       14.2899      132.6981      146.9880       4.303640       0.02312
   9     480.5      142.4724       15.5731      131.0935      146.6666       4.194204       0.02149
   8     533.0      142.2120       17.1403      129.1351      146.2754       4.063416       0.02104
   7     589.8      141.9358       18.8147      127.0392      145.8539       3.918109       0.02157
   6     651.6      141.6507       20.5979      124.7944      145.3923       3.741617       0.02414
   5     718.7      141.3635       22.4916      122.3908      144.8824       3.518895       0.02799
   4     792.3      141.0922       24.4936      119.8121      144.3057       3.213528       0.03502
   3     825.4      114.5362      117.2731        0.0650      117.3381       2.801852       0.10508
   2     858.4      108.1187      110.6093        0.0000      110.6093       2.490594       0.07945
   1     891.5      102.3909      104.6222        0.0000      104.6222       2.231328       0.06620
   0    1013.0      102.5499      104.4084        0.0000      104.4084       1.858470       0.02589



 Wavenumbers: 22650. - 29000. cm-1, ATM      1
 LEVEL PRESSURE   UPWARD FLUX   DIFDOWN FLUX  DIRDOWN FLUX  DOWNWARD FLUX   NET FLUX    HEATING RATE
          mb          W/m2          W/m2          W/m2        W/m2          W/m2       degree/day
  51    .06700       58.5284        0.0000       59.0156       59.0156       0.487237       0.00000
  50    .07753       58.5283        0.0005       59.0151       59.0155       0.487237      -0.00000
  49    .09103       58.5282        0.0010       59.0144       59.0154       0.487237       0.00000
  48    0.1069       58.5280        0.0017       59.0136       59.0153       0.487237       0.00000
  47    0.1255       58.5279        0.0025       59.0127       59.0151       0.487237      -0.00000
  46    0.1487       58.5277        0.0034       59.0115       59.0149       0.487237       0.00000
  45    0.1794       58.5274        0.0048       59.0099       59.0147       0.487237       0.00000
  44    0.2165       58.5271        0.0063       59.0080       59.0144       0.487237       0.00000
  43    0.2613       58.5268        0.0082       59.0058       59.0140       0.487237      -0.00000
  42    0.3336       58.5262        0.0113       59.0022       59.0134       0.487237       0.00000
  41    0.4307       58.5254        0.0153       58.9973       59.0126       0.487237       0.00000
  40    0.5894       58.5241        0.0220       58.9894       59.0113       0.487237       0.00000
  39     1.339       58.5180        0.0535       58.9518       59.0052       0.487237      -0.00000
  38     1.782       58.5144        0.0720       58.9297       59.0017       0.487237       0.00000
  37     2.292       58.5103        0.0934       58.9042       58.9975       0.487237       0.00000
  36     5.035       58.5031        0.1305       58.8599       58.9903       0.487237      -0.00000
  35     6.613       58.4903        0.1963       58.7812       58.9776       0.487237       0.00000
  34     8.786       58.4731        0.2850       58.6754       58.9604       0.487237      -0.00000
  33     11.80       58.4486        0.4117       58.5242       58.9358       0.487237      -0.00000
  32     15.07       58.4223        0.5474       58.3621       58.9095       0.487237       0.00000
  31     18.79       58.3926        0.7005       58.1794       58.8799       0.487237      -0.00000
  30     23.16       58.3580        0.8788       57.9665       58.8453       0.487237       0.00000
  29     28.12       58.3186        1.0822       57.7237       58.8059       0.487237      -0.00000
  28     33.73       58.2747        1.3089       57.4530       58.7619       0.487237       0.00000
  27     40.54       58.2218        1.5818       57.1272       58.7090       0.487237      -0.00000
  26     48.69       58.1583        1.9090       56.7366       58.6455       0.487237       0.00000
  25     57.69       58.0890        2.2662       56.3100       58.5763       0.487237      -0.00000
  24     68.43       58.0071        2.6886       55.8057       58.4943       0.487237       0.00000
  23     81.20       57.9103        3.1875       55.2100       58.3975       0.487237       0.00000
  22     96.49       57.7961        3.7756       54.5077       58.2833       0.487237       0.00000
  21     114.6       57.6623        4.4650       53.6845       58.1495       0.487237       0.00000
  20     136.5       57.5060        5.2696       52.7236       57.9932       0.487237      -0.00000
  19     162.9       57.3232        6.2101       51.6003       57.8104       0.487237      -0.00000
  18     196.4       57.0915        7.4017       50.1770       57.5787       0.487237       0.00000
  17     218.7       56.9425        8.1674       49.2623       57.4297       0.487237      -0.00000
  16     243.0       56.7833        8.9849       48.2857       57.2705       0.487237       0.00000
  15     269.0       56.6140        9.8537       47.2476       57.1013       0.487237       0.00000
  14     297.5       56.4348       10.7730       46.1491       56.9221       0.487237      -0.00000
  13     328.5       56.2454       11.7442       44.9884       56.7326       0.487237       0.00000
  12     361.9       56.0462       12.7647       43.7687       56.5334       0.487237      -0.00000
  11     398.1       55.8371       13.8346       42.4898       56.3243       0.487237      -0.00000
  10     437.6       55.6186       14.9517       41.1542       56.1058       0.487237      -0.00000
   9     480.5       55.3911       16.1136       39.7647       55.8783       0.487237       0.00000
   8     533.0       55.1201       17.4956       38.1118       55.6074       0.487237       0.00000
   7     589.8       54.8388       18.9282       36.3978       55.3260       0.487237       0.00000
   6     651.6       54.5484       20.4042       34.6314       55.0357       0.487237       0.00000
   5     718.7       54.2500       21.9181       32.8192       54.7372       0.487237       0.00000
   4     792.3       53.9452       23.4609       30.9715       54.4324       0.487237      -0.00000
   3     825.4       47.7524       48.2230        0.0160       48.2390       0.486564       0.00017
   2     858.4       46.5329       47.0188        0.0000       47.0188       0.485939       0.00016
   1     891.5       45.3174       45.8027        0.0000       45.8027       0.485329       0.00016
   0    1013.0       45.3005       45.7858        0.0000       45.7858       0.485329      -0.00000



 Wavenumbers: 29000. - 38000. cm-1, ATM      1
 LEVEL PRESSURE   UPWARD FLUX   DIFDOWN FLUX  DIRDOWN FLUX  DOWNWARD FLUX   NET FLUX    HEATING RATE
          mb          W/m2          W/m2          W/m2        W/m2          W/m2       degree/day
  51    .06700        8.8088        0.0000       20.8114       20.8114      12.002526       0.00000
  50    .07753        8.8086        0.0003       20.8070       20.8074      11.998719       3.05179
  49    .09103        8.8084        0.0007       20.8009       20.8016      11.993181       3.46112
  48    0.1069        8.8082        0.0012       20.7928       20.7939      11.985771       3.94461
  47    0.1255        8.8079        0.0017       20.7820       20.7837      11.975865       4.49070
  46    0.1487        8.8075        0.0024       20.7665       20.7688      11.961301       5.30887
  45    0.1794        8.8071        0.0033       20.7424       20.7457      11.938634       6.22256
  44    0.2165        8.8066        0.0044       20.7103       20.7147      11.908109       6.94399
  43    0.2613        8.8060        0.0056       20.6675       20.6731      11.867110       7.72800
  42    0.3336        8.8051        0.0077       20.5880       20.5957      11.790543       8.92705
  41    0.4307        8.8040        0.0104       20.4722       20.4826      11.678580       9.73494
  40    0.5894        8.8025        0.0147       20.2637       20.2784      11.475876      10.77955
  39     1.339        8.7993        0.0332       19.0984       19.1315      10.332247      12.87518
  38     1.782        8.7999        0.0428       18.4394       18.4821       9.682197      12.37590
  37     2.292        8.8028        0.0531       17.7714       17.8245       9.021681      10.93987
  36     5.035        8.8157        0.0693       16.7265       16.7957       7.980024       3.20490
  35     6.613        8.8459        0.0964       15.5186       15.6150       6.769090       6.47366
  34     8.786        8.8864        0.1318       14.5590       14.6908       5.804397       3.74652
  33     11.80        8.9395        0.1806       13.7000       13.8807       4.941165       2.41678
  32     15.07        8.9909        0.2309       13.0749       13.3058       4.314917       1.61685
  31     18.79        9.0441        0.2863       12.5486       12.8349       3.790744       1.18846
  30     23.16        9.1008        0.3491       12.0732       12.4223       3.321525       0.90732
  29     28.12        9.1589        0.4193       11.6423       12.0616       2.902704       0.71197
  28     33.73        9.2126        0.4965       11.2628       11.7593       2.546645       0.53534
  27     40.54        9.2637        0.5886       10.8969       11.4855       2.221785       0.40303
  26     48.69        9.3119        0.6977       10.5353       11.2330       1.921137       0.31112
  25     57.69        9.3514        0.8158       10.2040       11.0198       1.668337       0.23696
  24     68.43        9.3834        0.9541        9.8713       10.8254       1.441950       0.17797
  23     81.20        9.3987        1.1173        9.5431       10.6604       1.261760       0.11907
  22     96.49        9.3951        1.3092        9.2107       10.5199       1.124782       0.07560
  21     114.6        9.3810        1.5307        8.8533       10.3840       1.002992       0.05687
  20     136.5        9.3595        1.7839        8.4618       10.2457       0.886262       0.04489
  19     162.9        9.3305        2.0724        8.0302       10.1026       0.772083       0.03650
  18     196.4        9.2819        2.4296        7.5240        9.9536       0.671689       0.02527
  17     218.7        9.2469        2.6543        7.2154        9.8697       0.622769       0.01857
  16     243.0        9.2086        2.8890        6.8972        9.7862       0.577628       0.01566
  15     269.0        9.1666        3.1331        6.5707        9.7038       0.537121       0.01314
  14     297.5        9.1212        3.3853        6.2374        9.6227       0.501437       0.01058
  13     328.5        9.0738        3.6447        5.8964        9.5411       0.467296       0.00928
  12     361.9        9.0247        3.9087        5.5509        9.4596       0.434849       0.00821
  11     398.1        8.9742        4.1767        5.2016        9.3783       0.404121       0.00716
  10     437.6        8.9228        4.4473        4.8500        9.2973       0.374521       0.00633
   9     480.5        8.8708        4.7183        4.4990        9.2173       0.346445       0.00551
   8     533.0        8.8111        5.0271        4.0999        9.1269       0.315863       0.00492
   7     589.8        8.7520        5.3313        3.7070        9.0383       0.286280       0.00439
   6     651.6        8.6946        5.6272        3.3248        8.9520       0.257364       0.00395
   5     718.7        8.6394        5.9133        2.9551        8.8684       0.229068       0.00356
   4     792.3        8.5870        6.1861        2.6023        8.7884       0.201398       0.00317
   3     825.4        7.7025        7.8720        0.0012        7.8732       0.170702       0.00783
   2     858.4        7.3176        7.4613        0.0000        7.4613       0.143730       0.00689
   1     891.5        6.9969        7.1161        0.0000        7.1161       0.119210       0.00626
   0    1013.0        7.0021        7.0951        0.0000        7.0951       0.092946       0.00182



 Wavenumbers: 38000. - 50000. cm-1, ATM      1
 LEVEL PRESSURE   UPWARD FLUX   DIFDOWN FLUX  DIRDOWN FLUX  DOWNWARD FLUX   NET FLUX    HEATING RATE
          mb          W/m2          W/m2          W/m2        W/m2          W/m2       degree/day
  51    .06700        0.0061        0.0000        1.2836        1.2836       1.277566       0.00000
  50    .07753        0.0060        0.0001        1.2812        1.2812       1.275231       1.87147
  49    .09103        0.0059        0.0002        1.2777        1.2778       1.271899       2.08243
  48    0.1069        0.0058        0.0002        1.2731        1.2734       1.267521       2.33056
  47    0.1255        0.0058        0.0004        1.2672        1.2675       1.261766       2.60905
  46    0.1487        0.0056        0.0005        1.2586        1.2591       1.253440       3.03495
  45    0.1794        0.0055        0.0007        1.2455        1.2462       1.240672       3.50516
  44    0.2165        0.0053        0.0009        1.2282        1.2291       1.223746       3.85033
  43    0.2613        0.0051        0.0011        1.2054        1.2065       1.201398       4.21256
  42    0.3336        0.0048        0.0015        1.1639        1.1654       1.160574       4.75965
  41    0.4307        0.0044        0.0020        1.1051        1.1070       1.102615       5.03937
  40    0.5894        0.0039        0.0026        1.0039        1.0064       1.002575       5.32000
  39     1.339        0.0022        0.0035        0.5438        0.5473       0.545166       5.14960
  38     1.782        0.0016        0.0032        0.3635        0.3666       0.365077       3.42860
  37     2.292        0.0011        0.0027        0.2356        0.2383       0.237147       2.11885
  36     5.035        0.0007        0.0019        0.1180        0.1199       0.119172       0.36298
  35     6.613        0.0004        0.0013        0.0504        0.0516       0.051220       0.36327
  34     8.786        0.0002        0.0009        0.0239        0.0248       0.024556       0.10355
  33     11.80        0.0001        0.0006        0.0105        0.0110       0.010913       0.03820
  32     15.07        0.0001        0.0004        0.0048        0.0052       0.005151       0.01488
  31     18.79        0.0000        0.0002        0.0022        0.0024       0.002406       0.00622
  30     23.16        0.0000        0.0001        0.0010        0.0011       0.001079       0.00257
  29     28.12        0.0000        0.0001        0.0004        0.0005       0.000469       0.00104
  28     33.73        0.0000        0.0000        0.0002        0.0002       0.000205       0.00040
  27     40.54        0.0000        0.0000        0.0001        0.0001       0.000083       0.00015
  26     48.69        0.0000        0.0000        0.0000        0.0000       0.000031       0.00005
  25     57.69        0.0000        0.0000        0.0000        0.0000       0.000011       0.00002
  24     68.43        0.0000        0.0000        0.0000        0.0000       0.000004       0.00001
  23     81.20        0.0000        0.0000        0.0000        0.0000       0.000001       0.00000
  22     96.49        0.0000        0.0000        0.0000        0.0000       0.000000       0.00000
  21     114.6        0.0000        0.0000        0.0000        0.0000       0.000000       0.00000
  20     136.5        0.0000        0.0000        0.0000        0.0000       0.000000       0.00000
  19     162.9        0.0000        0.0000        0.0000        0.0000       0.000000       0.00000
  18     196.4        0.0000        0.0000        0.0000        0.0000       0.000000       0.00000
  17     218.7        0.0000        0.0000        0.0000        0.0000       0.000000       0.00000
  16     243.0        0.0000        0.0000        0.0000        0.0000       0.000000       0.00000
  15     269.0        0.0000        0.0000        0.0000        0.0000       0.000000       0.00000
  14     297.5        0.0000        0.0000        0.0000        0.0000       0.000000       0.00000
  13     328.5        0.0000        0.0000        0.0000        0.0000       0.000000       0.00000
  12     361.9        0.0000        0.0000        0.0000        0.0000       0.000000       0.00000
  11     398.1        0.0000        0.0000        0.0000        0.0000       0.000000       0.00000
  10     437.6        0.0000        0.0000        0.0000        0.0000       0.000000       0.00000
   9     480.5        0.0000        0.0000        0.0000        0.0000       0.000000       0.00000
   8     533.0        0.0000        0.0000        0.0000        0.0000       0.000000       0.00000
   7     589.8        0.0000        0.0000        0.0000        0.0000       0.000000       0.00000
   6     651.6        0.0000        0.0000        0.0000        0.0000       0.000000       0.00000
   5     718.7        0.0000        0.0000        0.0000        0.0000       0.000000       0.00000
   4     792.3        0.0000        0.0000        0.0000        0.0000       0.000000       0.00000
   3     825.4        0.0000        0.0000        0.0000        0.0000       0.000000       0.00000
   2     858.4        0.0000        0.0000        0.0000        0.0000       0.000000       0.00000
   1     891.5        0.0000        0.0000        0.0000        0.0000       0.000000       0.00000
   0    1013.0        0.0000        0.0000        0.0000        0.0000       0.000000       0.00000



 Wavenumbers:   820. -  2600. cm-1, ATM      1
 LEVEL PRESSURE   UPWARD FLUX   DIFDOWN FLUX  DIRDOWN FLUX  DOWNWARD FLUX   NET FLUX    HEATING RATE
          mb          W/m2          W/m2          W/m2        W/m2          W/m2       degree/day
  51    .06700        1.5260        0.0000        6.0047        6.0047       4.478656       0.00000
  50    .07753        1.5260        0.0000        6.0008        6.0008       4.474803       3.08825
  49    .09103        1.5260        0.0000        5.9999        5.9999       4.473917       0.55361
  48    0.1069        1.5260        0.0000        5.9989        5.9989       4.472928       0.52656
  47    0.1255        1.5260        0.0000        5.9978        5.9978       4.471811       0.50653
  46    0.1487        1.5260        0.0000        5.9964        5.9964       4.470454       0.49461
  45    0.1794        1.5260        0.0000        5.9947        5.9947       4.468734       0.47204
  44    0.2165        1.5260        0.0000        5.9929        5.9929       4.466892       0.41914
  43    0.2613        1.5260        0.0000        5.9909        5.9909       4.464932       0.36937
  42    0.3336        1.5260        0.0000        5.9880        5.9880       4.462054       0.33561
  41    0.4307        1.5260        0.0000        5.9846        5.9846       4.458584       0.30170
  40    0.5894        1.5260        0.0000        5.9791        5.9791       4.453078       0.29281
  39     1.339        1.5260        0.0000        5.9536        5.9536       4.427586       0.28699
  38     1.782        1.5260        0.0000        5.9395        5.9395       4.413445       0.26922
  37     2.292        1.5260        0.0000        5.9237        5.9237       4.397691       0.26093
  36     5.035        1.5260        0.0000        5.8954        5.8954       4.369417       0.08699
  35     6.613        1.5260        0.0000        5.8469        5.8469       4.320909       0.25932
  34     8.786        1.5261        0.0000        5.7915        5.7915       4.265463       0.21533
  33     11.80        1.5261        0.0000        5.7245        5.7245       4.198387       0.18779
  32     15.07        1.5261        0.0000        5.6684        5.6684       4.142335       0.14471
  31     18.79        1.5261        0.0000        5.6231        5.6231       4.096912       0.10299
  30     23.16        1.5262        0.0000        5.5871        5.5871       4.060913       0.06961
  29     28.12        1.5262        0.0000        5.5583        5.5583       4.032068       0.04903
  28     33.73        1.5263        0.0000        5.5327        5.5328       4.006473       0.03848
  27     40.54        1.5263        0.0000        5.5051        5.5051       3.978732       0.03442
  26     48.69        1.5264        0.0000        5.4733        5.4733       3.946930       0.03291
  25     57.69        1.5265        0.0000        5.4393        5.4394       3.912868       0.03193
  24     68.43        1.5266        0.0000        5.3998        5.3999       3.873273       0.03113
  23     81.20        1.5267        0.0000        5.3545        5.3546       3.827865       0.03000
  22     96.49        1.5268        0.0000        5.3027        5.3028       3.775915       0.02867
  21     114.6        1.5270        0.0000        5.2431        5.2431       3.716083       0.02794
  20     136.5        1.5272        0.0000        5.1754        5.1755       3.648234       0.02609
  19     162.9        1.5275        0.0000        5.0924        5.0924       3.564847       0.02665
  18     196.4        1.5281        0.0000        4.9695        4.9695       3.441446       0.03106
  17     218.7        1.5286        0.0000        4.8606        4.8606       3.332025       0.04154
  16     243.0        1.5294        0.0000        4.7093        4.7093       3.179903       0.05276
  15     269.0        1.5307        0.0000        4.5352        4.5352       3.004505       0.05690
  14     297.5        1.5327        0.0000        4.3425        4.3426       2.809897       0.05772
  13     328.5        1.5354        0.0000        4.1286        4.1286       2.593283       0.05890
  12     361.9        1.5389        0.0000        3.8790        3.8791       2.340161       0.06404
  11     398.1        1.5435        0.0000        3.6162        3.6163       2.072727       0.06231
  10     437.6        1.5495        0.0000        3.3761        3.3761       1.826605       0.05262
   9     480.5        1.5568        0.0000        3.1959        3.1960       1.639121       0.03682
   8     533.0        1.5680        0.0000        3.0468        3.0468       1.478874       0.02578
   7     589.8        1.5844        0.0001        2.9024        2.9024       1.318025       0.02388
   6     651.6        1.6130        0.0001        2.7184        2.7185       1.105418       0.02907
   5     718.7        1.6627        0.0001        2.5059        2.5059       0.843248       0.03295
   4     792.3        1.7586        0.0001        2.2757        2.2757       0.517155       0.03740
   3     825.4        0.6482        0.8763        0.0011        0.8774       0.229192       0.07350
   2     858.4        0.2619        0.3925        0.0000        0.3925       0.130639       0.02516
   1     891.5        0.0005        0.0986        0.0000        0.0986       0.098058       0.00832
   0    1013.0        0.0006        0.0833        0.0000        0.0833       0.082692       0.00107

  Modules and versions used in this calculation:

       rrtmg_sw.1col.f90:  $Revision$                    rrtmg_sw_init.f90:  $Revision$        
     rrtmgsw_cldprop.f90:  $Revision$                  rrtmgsw_cldprmc.f90:  NOT USED          
     rrtmg_sw_reftra.f90:  $Revision$                  rrtmg_sw_spcvrt.f90:  NOT USED          
     rrtmg_sw_spcvmc.f90:  NOT USED                    rrtmgsw_setcoef.f90:  NOT USED          
     rrtmg_sw_taumol.f90:  $Revision$                  rrtmg_sw_vrtqdr.f90:  NOT USED          
                rrtatm.f:  NOT USED                             util_xxx.f:  NOT USED          
                 extra.f:  NOT USED                       rrtmg_sw_k_g.f90:  $Revision$        

