

 Wavenumbers:   820. - 50000. cm-1, ATM      1
 LEVEL PRESSURE   UPWARD FLUX   DIFDOWN FLUX  DIRDOWN FLUX  DOWNWARD FLUX   NET FLUX    HEATING RATE
          mb          W/m2          W/m2          W/m2        W/m2          W/m2       degree/day
  51    .06700      435.2036        0.0000      617.8126      617.8126     182.608934       0.00000
  50    .07753      435.2033        0.0014      617.7947      617.7961     182.592793      12.93755
  49    .09103      435.2028        0.0030      617.7778      617.7808     182.577982       9.25750
  48    0.1069      435.2024        0.0050      617.7581      617.7631     182.560718       9.18938
  47    0.1255      435.2018        0.0072      617.7340      617.7412     182.539371       9.67769
  46    0.1487      435.2013        0.0101      617.7009      617.7109     182.509682      10.82184
  45    0.1794      435.2005        0.0139      617.6521      617.6660     182.465447      12.14362
  44    0.2165      435.1998        0.0184      617.5895      617.6079     182.408121      13.04082
  43    0.2613      435.1991        0.0238      617.5089      617.5327     182.333601      14.04661
  42    0.3336      435.1983        0.0327      617.3641      617.3968     182.198504      15.75099
  41    0.4307      435.1976        0.0443      617.1591      617.2034     182.005864      16.74965
  40    0.5894      435.1974        0.0631      616.8005      616.8636     181.666142      18.06597
  39     1.339      435.2149        0.1480      614.9443      615.0923     179.877342      20.13863
  38     1.782      435.2379        0.1958      613.9670      614.1628     178.924949      18.13203
  37     2.292      435.2759        0.2502      613.0059      613.2561     177.980171      15.64799
  36     5.035      435.3882        0.3429      611.5124      611.8553     176.467128       4.65523
  35     6.613      435.6306        0.5065      609.6144      610.1209     174.490322      10.56801
  34     8.786      435.9470        0.7261      607.8253      608.5514     172.604392       7.32427
  33     11.80      436.3570        1.0382      605.8783      606.9166     170.559588       5.72481
  32     15.07      436.7473        1.3710      604.1777      605.5487     168.801402       4.53929
  31     18.79      437.1435        1.7450      602.5196      604.2646     167.121026       3.80993
  30     23.16      437.5549        2.1794      600.8127      602.9921     165.437142       3.25609
  29     28.12      437.9650        2.6737      599.0712      601.7448     163.779817       2.81734
  28     33.73      438.3355        3.2245      597.3500      600.5745     162.238991       2.31667
  27     40.54      438.6802        3.8875      595.5035      599.3909     160.710773       1.89593
  26     48.69      438.9959        4.6828      593.4958      598.1786     159.182681       1.58134
  25     57.69      439.2459        5.5521      591.4872      597.0393     157.793414       1.30223
  24     68.43      439.4386        6.5818      589.2939      595.8757     156.437081       1.06626
  23     81.20      439.5221        7.8024      586.9289      594.7314     155.209260       0.81133
  22     96.49      439.4862        9.2475      584.3423      593.5899     154.103696       0.61019
  21     114.6      439.3902       10.9476      581.4033      592.3508     152.960677       0.53371
  20     136.5      439.2319       12.9380      578.0541      590.9921     151.760201       0.46161
  19     162.9      439.0058       15.2737      574.1654      589.4391     150.433361       0.42411
  18     196.4      438.6254       18.2522      569.1760      587.4282     148.802814       0.41043
  17     218.7      438.3474       20.1778      565.6314      585.8092     147.461834       0.50912
  16     243.0      438.0374       22.2431      561.3129      583.5560     145.518592       0.67398
  15     269.0      437.6967       24.4494      555.9478      580.3973     142.700590       0.91415
  14     297.5      437.3303       26.7975      549.5394      576.3369     139.006603       1.09560
  13     328.5      436.9482       29.2938      542.6225      571.9162     134.968095       1.09806
  12     361.9      436.5575       31.9344      535.1469      567.0813     130.523748       1.12446
  11     398.1      436.1686       34.7239      526.9326      561.6565     125.487974       1.17322
  10     437.6      435.8016       37.6610      517.8921      555.5531     119.751531       1.22649
   9     480.5      435.4781       40.7437      508.2121      548.9558     113.477654       1.23217
   8     533.0      435.2104       44.4497      496.3783      540.8280     105.617568       1.26444
   7     589.8      435.1592       48.3384      483.5433      531.8817      96.722453       1.32033
   6     651.6      435.5939       52.3970      469.1414      521.5384      85.944524       1.47391
   5     718.7      436.8852       56.6172      453.6623      510.2795      73.394241       1.57722
   4     792.3      439.9997       60.9769      436.9145      497.8914      57.891714       1.77797
   3     825.4      328.5722      351.5008       18.9863      370.4871      41.914902       4.07799
   2     858.4      291.0257      324.9837        1.0385      326.0222      34.996459       1.76605
   1     891.5      260.1409      291.2292        0.0571      291.2863      31.145355       0.98336
   0    1013.0      261.8651      288.2067        0.0544      288.2610      26.395933       0.32978



 Wavenumbers:  2600. -  3250. cm-1, ATM      1
 LEVEL PRESSURE   UPWARD FLUX   DIFDOWN FLUX  DIRDOWN FLUX  DOWNWARD FLUX   NET FLUX    HEATING RATE
          mb          W/m2          W/m2          W/m2        W/m2          W/m2       degree/day
  51    .06700        1.6878        0.0000        5.4450        5.4450       3.757219       0.00000
  50    .07753        1.6878        0.0000        5.4450        5.4450       3.757211       0.00640
  49    .09103        1.6878        0.0000        5.4450        5.4450       3.757201       0.00627
  48    0.1069        1.6878        0.0000        5.4450        5.4450       3.757189       0.00613
  47    0.1255        1.6878        0.0000        5.4450        5.4450       3.757176       0.00599
  46    0.1487        1.6878        0.0000        5.4450        5.4450       3.757159       0.00608
  45    0.1794        1.6878        0.0000        5.4450        5.4450       3.757137       0.00625
  44    0.2165        1.6878        0.0000        5.4449        5.4449       3.757110       0.00612
  43    0.2613        1.6878        0.0000        5.4449        5.4449       3.757078       0.00600
  42    0.3336        1.6878        0.0000        5.4448        5.4448       3.757025       0.00617
  41    0.4307        1.6878        0.0000        5.4448        5.4448       3.756954       0.00620
  40    0.5894        1.6878        0.0000        5.4446        5.4446       3.756834       0.00637
  39     1.339        1.6878        0.0000        5.4439        5.4439       3.756126       0.00797
  38     1.782        1.6878        0.0000        5.4434        5.4434       3.755583       0.01034
  37     2.292        1.6878        0.0000        5.4427        5.4427       3.754867       0.01186
  36     5.035        1.6878        0.0000        5.4412        5.4412       3.753341       0.00470
  35     6.613        1.6878        0.0000        5.4381        5.4381       3.750263       0.01645
  34     8.786        1.6878        0.0000        5.4341        5.4341       3.746256       0.01556
  33     11.80        1.6878        0.0000        5.4288        5.4288       3.741010       0.01469
  32     15.07        1.6878        0.0000        5.4239        5.4239       3.736083       0.01272
  31     18.79        1.6878        0.0000        5.4191        5.4192       3.731337       0.01076
  30     23.16        1.6878        0.0000        5.4144        5.4144       3.726587       0.00918
  29     28.12        1.6878        0.0000        5.4096        5.4096       3.721752       0.00822
  28     33.73        1.6878        0.0000        5.4042        5.4042       3.716386       0.00807
  27     40.54        1.6879        0.0000        5.3972        5.3972       3.709357       0.00872
  26     48.69        1.6879        0.0000        5.3877        5.3877       3.699817       0.00987
  25     57.69        1.6879        0.0000        5.3759        5.3759       3.687977       0.01110
  24     68.43        1.6880        0.0000        5.3604        5.3604       3.672419       0.01223
  23     81.20        1.6880        0.0000        5.3405        5.3405       3.652492       0.01317
  22     96.49        1.6881        0.0000        5.3159        5.3159       3.627798       0.01363
  21     114.6        1.6883        0.0000        5.2857        5.2857       3.597432       0.01418
  20     136.5        1.6885        0.0001        5.2507        5.2508       3.562298       0.01351
  19     162.9        1.6888        0.0001        5.2113        5.2114       3.522644       0.01267
  18     196.4        1.6892        0.0001        5.1642        5.1643       3.475064       0.01198
  17     218.7        1.6897        0.0001        5.1333        5.1334       3.443629       0.01193
  16     243.0        1.6905        0.0001        5.0963        5.0964       3.405905       0.01308
  15     269.0        1.6918        0.0001        5.0512        5.0513       3.359512       0.01505
  14     297.5        1.6937        0.0001        4.9957        4.9958       3.302117       0.01702
  13     328.5        1.6963        0.0001        4.9304        4.9306       3.234234       0.01846
  12     361.9        1.7000        0.0001        4.8511        4.8513       3.151328       0.02098
  11     398.1        1.7050        0.0002        4.7507        4.7509       3.045901       0.02456
  10     437.6        1.7119        0.0002        4.6221        4.6222       2.910293       0.02899
   9     480.5        1.7216        0.0002        4.4625        4.4627       2.741082       0.03323
   8     533.0        1.7373        0.0002        4.2461        4.2463       2.508905       0.03735
   7     589.8        1.7614        0.0002        3.9954        3.9956       2.234232       0.04077
   6     651.6        1.8011        0.0002        3.7089        3.7091       1.907963       0.04462
   5     718.7        1.8668        0.0002        3.4018        3.4020       1.535204       0.04685
   4     792.3        1.9864        0.0002        3.0564        3.0567       1.070264       0.05332
   3     825.4        0.8529        1.3465        0.1187        1.4652       0.612340       0.11688
   2     858.4        0.3844        0.8239        0.0060        0.8299       0.445522       0.04258
   1     891.5        0.0025        0.3823        0.0003        0.3826       0.380128       0.01670
   0    1013.0        0.0028        0.3369        0.0003        0.3372       0.334437       0.00317



 Wavenumbers:  3250. -  4000. cm-1, ATM      1
 LEVEL PRESSURE   UPWARD FLUX   DIFDOWN FLUX  DIRDOWN FLUX  DOWNWARD FLUX   NET FLUX    HEATING RATE
          mb          W/m2          W/m2          W/m2        W/m2          W/m2       degree/day
  51    .06700        0.0410        0.0000        9.1795        9.1795       9.138514       0.00000
  50    .07753        0.0410        0.0000        9.1747        9.1747       9.133671       3.88162
  49    .09103        0.0410        0.0000        9.1713        9.1713       9.130283       2.11758
  48    0.1069        0.0410        0.0000        9.1688        9.1688       9.127758       1.34411
  47    0.1255        0.0410        0.0000        9.1665        9.1665       9.125498       1.02430
  46    0.1487        0.0410        0.0000        9.1641        9.1641       9.123057       0.88998
  45    0.1794        0.0410        0.0000        9.1612        9.1612       9.120179       0.79014
  44    0.2165        0.0410        0.0000        9.1583        9.1583       9.117258       0.66436
  43    0.2613        0.0410        0.0000        9.1553        9.1553       9.114285       0.56046
  42    0.3336        0.0410        0.0000        9.1511        9.1511       9.110105       0.48727
  41    0.4307        0.0410        0.0000        9.1464        9.1464       9.105337       0.41463
  40    0.5894        0.0410        0.0000        9.1393        9.1393       9.098331       0.37258
  39     1.339        0.0410        0.0000        9.1127        9.1127       9.071715       0.29965
  38     1.782        0.0410        0.0000        9.1011        9.1011       9.060126       0.22064
  37     2.292        0.0410        0.0000        9.0901        9.0901       9.049058       0.18331
  36     5.035        0.0410        0.0000        9.0731        9.0731       9.032126       0.05210
  35     6.613        0.0410        0.0000        9.0438        9.0439       9.002845       0.15653
  34     8.786        0.0410        0.0000        9.0058        9.0058       8.964760       0.14791
  33     11.80        0.0410        0.0000        8.9509        8.9509       8.909889       0.15362
  32     15.07        0.0410        0.0000        8.8914        8.8914       8.850410       0.15356
  31     18.79        0.0410        0.0000        8.8241        8.8242       8.783175       0.15244
  30     23.16        0.0410        0.0000        8.7473        8.7474       8.706363       0.14853
  29     28.12        0.0410        0.0000        8.6639        8.6640       8.622981       0.14174
  28     33.73        0.0410        0.0000        8.5784        8.5784       8.537470       0.12857
  27     40.54        0.0410        0.0001        8.4859        8.4860       8.444997       0.11472
  26     48.69        0.0410        0.0001        8.3873        8.3873       8.346373       0.10206
  25     57.69        0.0409        0.0001        8.2887        8.2888       8.247823       0.09238
  24     68.43        0.0409        0.0001        8.1771        8.1772       8.136306       0.08767
  23     81.20        0.0409        0.0001        8.0474        8.0475       8.006586       0.08572
  22     96.49        0.0409        0.0001        7.8963        7.8965       7.855573       0.08335
  21     114.6        0.0409        0.0001        7.7173        7.7174       7.676563       0.08359
  20     136.5        0.0409        0.0002        7.5201        7.5203       7.479448       0.07580
  19     162.9        0.0408        0.0002        7.2919        7.2921       7.251317       0.07292
  18     196.4        0.0408        0.0002        6.9664        6.9666       6.925805       0.08194
  17     218.7        0.0408        0.0002        6.6650        6.6652       6.624451       0.11441
  16     243.0        0.0408        0.0002        6.2620        6.2622       6.221474       0.13977
  15     269.0        0.0408        0.0003        5.7575        5.7578       5.716986       0.16365
  14     297.5        0.0409        0.0003        5.1717        5.1720       5.131100       0.17377
  13     328.5        0.0410        0.0002        4.5755        4.5757       4.534713       0.16216
  12     361.9        0.0412        0.0002        3.9992        3.9995       3.958224       0.14586
  11     398.1        0.0416        0.0002        3.4651        3.4653       3.423704       0.12453
  10     437.6        0.0423        0.0002        2.9736        2.9738       2.931533       0.10523
   9     480.5        0.0434        0.0002        2.5303        2.5305       2.487025       0.08730
   8     533.0        0.0456        0.0002        2.0610        2.0612       2.015564       0.07584
   7     589.8        0.0496        0.0002        1.6146        1.6148       1.565191       0.06685
   6     651.6        0.0579        0.0001        1.1562        1.1563       1.098384       0.06384
   5     718.7        0.0763        0.0001        0.7388        0.7389       0.662612       0.05476
   4     792.3        0.1252        0.0001        0.3984        0.3984       0.273171       0.04466
   3     825.4        0.0123        0.0431        0.0055        0.0486       0.036330       0.06045
   2     858.4        0.0018        0.0073        0.0001        0.0074       0.005642       0.00783
   1     891.5        0.0000        0.0010        0.0000        0.0010       0.001036       0.00118
   0    1013.0        0.0000        0.0001        0.0000        0.0001       0.000105       0.00006



 Wavenumbers:  4000. -  4650. cm-1, ATM      1
 LEVEL PRESSURE   UPWARD FLUX   DIFDOWN FLUX  DIRDOWN FLUX  DOWNWARD FLUX   NET FLUX    HEATING RATE
          mb          W/m2          W/m2          W/m2        W/m2          W/m2       degree/day
  51    .06700        5.6830        0.0000       10.7795       10.7795       5.096579       0.00000
  50    .07753        5.6830        0.0000       10.7795       10.7795       5.096578       0.00080
  49    .09103        5.6830        0.0000       10.7795       10.7795       5.096577       0.00078
  48    0.1069        5.6830        0.0000       10.7795       10.7795       5.096575       0.00076
  47    0.1255        5.6830        0.0000       10.7795       10.7795       5.096574       0.00075
  46    0.1487        5.6830        0.0000       10.7795       10.7795       5.096572       0.00076
  45    0.1794        5.6830        0.0000       10.7795       10.7795       5.096569       0.00078
  44    0.2165        5.6830        0.0000       10.7795       10.7795       5.096565       0.00076
  43    0.2613        5.6830        0.0000       10.7795       10.7795       5.096562       0.00075
  42    0.3336        5.6830        0.0000       10.7795       10.7795       5.096555       0.00077
  41    0.4307        5.6830        0.0000       10.7795       10.7795       5.096546       0.00077
  40    0.5894        5.6830        0.0000       10.7795       10.7795       5.096531       0.00080
  39     1.339        5.6830        0.0000       10.7794       10.7794       5.096442       0.00101
  38     1.782        5.6830        0.0000       10.7793       10.7793       5.096372       0.00133
  37     2.292        5.6830        0.0000       10.7792       10.7792       5.096277       0.00156
  36     5.035        5.6830        0.0000       10.7790       10.7790       5.096069       0.00064
  35     6.613        5.6830        0.0000       10.7785       10.7786       5.095616       0.00242
  34     8.786        5.6830        0.0000       10.7779       10.7779       5.094946       0.00260
  33     11.80        5.6830        0.0000       10.7768       10.7768       5.093894       0.00295
  32     15.07        5.6829        0.0001       10.7755       10.7756       5.092659       0.00319
  31     18.79        5.6830        0.0001       10.7740       10.7741       5.091165       0.00339
  30     23.16        5.6830        0.0001       10.7722       10.7723       5.089309       0.00359
  29     28.12        5.6830        0.0001       10.7699       10.7700       5.087061       0.00382
  28     33.73        5.6830        0.0002       10.7671       10.7673       5.084288       0.00417
  27     40.54        5.6830        0.0002       10.7633       10.7635       5.080524       0.00467
  26     48.69        5.6831        0.0002       10.7583       10.7586       5.075505       0.00519
  25     57.69        5.6831        0.0003       10.7524       10.7527       5.069549       0.00558
  24     68.43        5.6832        0.0003       10.7450       10.7453       5.062077       0.00587
  23     81.20        5.6834        0.0004       10.7359       10.7363       5.052865       0.00609
  22     96.49        5.6837        0.0005       10.7249       10.7253       5.041639       0.00620
  21     114.6        5.6840        0.0005       10.7111       10.7116       5.027579       0.00657
  20     136.5        5.6846        0.0006       10.6945       10.6952       5.010608       0.00653
  19     162.9        5.6854        0.0008       10.6744       10.6751       4.989752       0.00667
  18     196.4        5.6867        0.0009       10.6467       10.6476       4.960890       0.00726
  17     218.7        5.6879        0.0010       10.6258       10.6268       4.938868       0.00836
  16     243.0        5.6897        0.0011       10.5983       10.5995       4.909784       0.01009
  15     269.0        5.6923        0.0013       10.5613       10.5626       4.870284       0.01281
  14     297.5        5.6962        0.0014       10.5122       10.5136       4.817377       0.01569
  13     328.5        5.7015        0.0015       10.4501       10.4516       4.750118       0.01829
  12     361.9        5.7085        0.0017       10.3704       10.3720       4.663580       0.02189
  11     398.1        5.7172        0.0018       10.2679       10.2698       4.552556       0.02587
  10     437.6        5.7284        0.0020       10.1391       10.1411       4.412725       0.02990
   9     480.5        5.7427        0.0022        9.9878        9.9900       4.247275       0.03249
   8     533.0        5.7647        0.0024        9.7937        9.7961       4.031440       0.03472
   7     589.8        5.7964        0.0026        9.5752        9.5778       3.781338       0.03712
   6     651.6        5.8476        0.0028        9.2958        9.2986       3.451048       0.04517
   5     718.7        5.9333        0.0030        8.9267        8.9297       2.996433       0.05713
   4     792.3        6.0937        0.0032        8.4542        8.4574       2.363728       0.07256
   3     825.4        2.9669        4.3295        0.3576        4.6871       1.720208       0.16425
   2     858.4        1.4499        2.9096        0.0193        2.9288       1.478934       0.06159
   1     891.5        0.0872        1.4637        0.0011        1.4647       1.377458       0.02591
   0    1013.0        0.0913        1.3863        0.0010        1.3873       1.296022       0.00565



 Wavenumbers:  4650. -  5150. cm-1, ATM      1
 LEVEL PRESSURE   UPWARD FLUX   DIFDOWN FLUX  DIRDOWN FLUX  DOWNWARD FLUX   NET FLUX    HEATING RATE
          mb          W/m2          W/m2          W/m2        W/m2          W/m2       degree/day
  51    .06700        4.0652        0.0000       10.2033       10.2033       6.138148       0.00000
  50    .07753        4.0652        0.0000       10.2031       10.2031       6.137913       0.18901
  49    .09103        4.0652        0.0000       10.2028       10.2028       6.137618       0.18428
  48    0.1069        4.0652        0.0000       10.2025       10.2025       6.137281       0.17931
  47    0.1255        4.0652        0.0000       10.2021       10.2021       6.136897       0.17426
  46    0.1487        4.0652        0.0000       10.2016       10.2016       6.136415       0.17536
  45    0.1794        4.0652        0.0000       10.2010       10.2010       6.135765       0.17850
  44    0.2165        4.0652        0.0000       10.2002       10.2002       6.135006       0.17277
  43    0.2613        4.0652        0.0000       10.1993       10.1993       6.134120       0.16690
  42    0.3336        4.0652        0.0000       10.1979       10.1979       6.132688       0.16702
  41    0.4307        4.0652        0.0000       10.1960       10.1960       6.130847       0.16002
  40    0.5894        4.0652        0.0000       10.1932       10.1932       6.127973       0.15283
  39     1.339        4.0652        0.0000       10.1816       10.1816       6.116381       0.13050
  38     1.782        4.0652        0.0000       10.1760       10.1760       6.110852       0.10527
  37     2.292        4.0652        0.0000       10.1706       10.1706       6.105395       0.09038
  36     5.035        4.0652        0.0000       10.1630       10.1630       6.097809       0.02334
  35     6.613        4.0652        0.0000       10.1533       10.1533       6.088101       0.05190
  34     8.786        4.0652        0.0000       10.1442       10.1442       6.079008       0.03531
  33     11.80        4.0652        0.0001       10.1340       10.1341       6.068864       0.02840
  32     15.07        4.0652        0.0001       10.1237       10.1238       6.058594       0.02651
  31     18.79        4.0653        0.0001       10.1115       10.1117       6.046397       0.02766
  30     23.16        4.0653        0.0001       10.0961       10.0962       6.030937       0.02989
  29     28.12        4.0654        0.0002       10.0769       10.0771       6.011668       0.03276
  28     33.73        4.0655        0.0002       10.0536       10.0538       5.988361       0.03504
  27     40.54        4.0656        0.0003       10.0235       10.0238       5.958174       0.03745
  26     48.69        4.0658        0.0003        9.9852        9.9855       5.919629       0.03989
  25     57.69        4.0661        0.0004        9.9414        9.9418       5.875647       0.04123
  24     68.43        4.0665        0.0005        9.8884        9.8889       5.822349       0.04190
  23     81.20        4.0671        0.0005        9.8258        9.8263       5.759246       0.04170
  22     96.49        4.0678        0.0006        9.7537        9.7544       5.686539       0.04013
  21     114.6        4.0689        0.0008        9.6735        9.6743       5.605387       0.03789
  20     136.5        4.0703        0.0009        9.5870        9.5879       5.517587       0.03376
  19     162.9        4.0723        0.0011        9.4949        9.4960       5.423643       0.03003
  18     196.4        4.0755        0.0013        9.3889        9.3902       5.314685       0.02743
  17     218.7        4.0779        0.0014        9.3234        9.3248       5.246879       0.02574
  16     243.0        4.0811        0.0016        9.2524        9.2539       5.172797       0.02569
  15     269.0        4.0854        0.0017        9.1720        9.1737       5.088272       0.02742
  14     297.5        4.0914        0.0019        9.0765        9.0784       4.986996       0.03004
  13     328.5        4.0993        0.0021        8.9652        8.9673       4.867986       0.03236
  12     361.9        4.1094        0.0023        8.8351        8.8374       4.727972       0.03542
  11     398.1        4.1226        0.0024        8.6822        8.6846       4.562088       0.03865
  10     437.6        4.1397        0.0026        8.5030        8.5056       4.365935       0.04194
   9     480.5        4.1620        0.0029        8.2950        8.2978       4.135853       0.04519
   8     533.0        4.1960        0.0031        8.0210        8.0241       3.828123       0.04950
   7     589.8        4.2433        0.0033        7.7064        7.7098       3.466433       0.05369
   6     651.6        4.3135        0.0035        7.3413        7.3448       3.031398       0.05949
   5     718.7        4.4196        0.0037        6.9387        6.9425       2.522843       0.06391
   4     792.3        4.5892        0.0039        6.5066        6.5106       1.921345       0.06899
   3     825.4        2.1562        3.2289        0.2723        3.5011       1.344983       0.14711
   2     858.4        1.0151        2.1065        0.0144        2.1209       1.105811       0.06105
   1     891.5        0.0162        1.0214        0.0008        1.0222       1.005975       0.02549
   0    1013.0        0.0171        0.9563        0.0007        0.9570       0.939893       0.00459



 Wavenumbers:  5150. -  6150. cm-1, ATM      1
 LEVEL PRESSURE   UPWARD FLUX   DIFDOWN FLUX  DIRDOWN FLUX  DOWNWARD FLUX   NET FLUX    HEATING RATE
          mb          W/m2          W/m2          W/m2        W/m2          W/m2       degree/day
  51    .06700        9.8110        0.0000       25.5798       25.5798      15.768823       0.00000
  50    .07753        9.8110        0.0000       25.5798       25.5798      15.768783       0.03161
  49    .09103        9.8110        0.0000       25.5797       25.5797      15.768732       0.03210
  48    0.1069        9.8110        0.0000       25.5797       25.5797      15.768671       0.03261
  47    0.1255        9.8110        0.0000       25.5796       25.5796      15.768598       0.03311
  46    0.1487        9.8110        0.0000       25.5795       25.5795      15.768502       0.03488
  45    0.1794        9.8110        0.0000       25.5794       25.5794      15.768367       0.03712
  44    0.2165        9.8110        0.0000       25.5792       25.5792      15.768201       0.03768
  43    0.2613        9.8110        0.0000       25.5790       25.5790      15.767998       0.03826
  42    0.3336        9.8110        0.0000       25.5786       25.5786      15.767652       0.04042
  41    0.4307        9.8110        0.0000       25.5782       25.5782      15.767180       0.04097
  40    0.5894        9.8110        0.0000       25.5774       25.5774      15.766391       0.04198
  39     1.339        9.8110        0.0000       25.5735       25.5736      15.762588       0.04282
  38     1.782        9.8110        0.0001       25.5713       25.5714      15.760373       0.04216
  37     2.292        9.8110        0.0001       25.5688       25.5688      15.757866       0.04152
  36     5.035        9.8110        0.0001       25.5647       25.5647      15.753769       0.01261
  35     6.613        9.8110        0.0001       25.5576       25.5578      15.746784       0.03734
  34     8.786        9.8110        0.0002       25.5485       25.5487      15.737733       0.03515
  33     11.80        9.8110        0.0003       25.5362       25.5365      15.725491       0.03427
  32     15.07        9.8111        0.0004       25.5239       25.5243      15.713216       0.03169
  31     18.79        9.8111        0.0005       25.5110       25.5115      15.700382       0.02910
  30     23.16        9.8112        0.0007       25.4971       25.4977      15.686559       0.02673
  29     28.12        9.8112        0.0008       25.4824       25.4832      15.671984       0.02478
  28     33.73        9.8114        0.0010       25.4676       25.4686      15.657211       0.02221
  27     40.54        9.8115        0.0012       25.4514       25.4526      15.641051       0.02005
  26     48.69        9.8118        0.0015       25.4341       25.4355      15.623737       0.01792
  25     57.69        9.8121        0.0017       25.4169       25.4186      15.606540       0.01612
  24     68.43        9.8125        0.0021       25.3983       25.4004      15.587862       0.01468
  23     81.20        9.8130        0.0025       25.3779       25.3803      15.567306       0.01358
  22     96.49        9.8137        0.0029       25.3550       25.3579      15.544215       0.01274
  21     114.6        9.8145        0.0035       25.3288       25.3323      15.517757       0.01235
  20     136.5        9.8155        0.0042       25.2983       25.3025      15.487003       0.01183
  19     162.9        9.8168        0.0050       25.2537       25.2587      15.441905       0.01442
  18     196.4        9.8185        0.0060       25.1601       25.1661      15.347636       0.02373
  17     218.7        9.8197        0.0066       25.0164       25.0230      15.203252       0.05482
  16     243.0        9.8213        0.0073       24.7092       24.7165      14.895246       0.10683
  15     269.0        9.8233        0.0080       24.1621       24.1701      14.346807       0.17791
  14     297.5        9.8260        0.0086       23.4546       23.4632      13.637240       0.21045
  13     328.5        9.8296        0.0093       22.7357       22.7450      12.915435       0.19626
  12     361.9        9.8342        0.0100       21.9226       21.9326      12.098389       0.20672
  11     398.1        9.8405        0.0107       20.9941       21.0048      11.164258       0.21763
  10     437.6        9.8492        0.0113       19.9835       19.9948      10.145617       0.21779
   9     480.5        9.8612        0.0119       18.9485       18.9604       9.099212       0.20551
   8     533.0        9.8814        0.0126       17.7798       17.7924       7.910942       0.19115
   7     589.8        9.9142        0.0133       16.6727       16.6861       6.771905       0.16907
   6     651.6        9.9738        0.0141       15.6344       15.6485       5.674667       0.15005
   5     718.7       10.0830        0.0149       14.7739       14.7888       4.705803       0.12176
   4     792.3       10.3001        0.0158       14.0292       14.0450       3.744851       0.11021
   3     825.4        5.1340        7.3737        0.6000        7.9737       2.839705       0.23103
   2     858.4        2.5556        5.0391        0.0326        5.0717       2.516056       0.08262
   1     891.5        0.1981        2.5886        0.0018        2.5904       2.392313       0.03160
   0    1013.0        0.2029        2.5029        0.0017        2.5046       2.301704       0.00629



 Wavenumbers:  6150. -  7700. cm-1, ATM      1
 LEVEL PRESSURE   UPWARD FLUX   DIFDOWN FLUX  DIRDOWN FLUX  DOWNWARD FLUX   NET FLUX    HEATING RATE
          mb          W/m2          W/m2          W/m2        W/m2          W/m2       degree/day
  51    .06700       15.5617        0.0000       47.3109       47.3109      31.749176       0.00000
  50    .07753       15.5617        0.0000       47.3108       47.3108      31.749119       0.04553
  49    .09103       15.5617        0.0000       47.3107       47.3107      31.749046       0.04583
  48    0.1069       15.5617        0.0000       47.3106       47.3106      31.748959       0.04614
  47    0.1255       15.5617        0.0000       47.3105       47.3105      31.748857       0.04645
  46    0.1487       15.5617        0.0000       47.3104       47.3104      31.748724       0.04852
  45    0.1794       15.5617        0.0000       47.3102       47.3102      31.748537       0.05127
  44    0.2165       15.5617        0.0000       47.3100       47.3100      31.748310       0.05167
  43    0.2613       15.5617        0.0000       47.3097       47.3097      31.748034       0.05210
  42    0.3336       15.5617        0.0000       47.3092       47.3092      31.747564       0.05471
  41    0.4307       15.5617        0.0000       47.3085       47.3086      31.746929       0.05521
  40    0.5894       15.5616        0.0001       47.3074       47.3075      31.745870       0.05633
  39     1.339       15.5616        0.0002       47.3022       47.3024      31.740778       0.05733
  38     1.782       15.5615        0.0002       47.2991       47.2994      31.737808       0.05655
  37     2.292       15.5615        0.0003       47.2956       47.2959      31.734432       0.05591
  36     5.035       15.5614        0.0004       47.2899       47.2903      31.728856       0.01715
  35     6.613       15.5613        0.0006       47.2800       47.2806      31.719281       0.05119
  34     8.786       15.5611        0.0009       47.2670       47.2679      31.706737       0.04872
  33     11.80       15.5609        0.0013       47.2491       47.2504      31.689500       0.04826
  32     15.07       15.5606        0.0017       47.2308       47.2325      31.671876       0.04550
  31     18.79       15.5603        0.0022       47.2112       47.2134      31.653041       0.04271
  30     23.16       15.5600        0.0027       47.1895       47.1922      31.632264       0.04018
  29     28.12       15.5596        0.0034       47.1661       47.1694      31.609861       0.03808
  28     33.73       15.5591        0.0041       47.1416       47.1457      31.586522       0.03509
  27     40.54       15.5586        0.0049       47.1141       47.1190      31.560431       0.03237
  26     48.69       15.5580        0.0060       47.0837       47.0896      31.531692       0.02974
  25     57.69       15.5572        0.0071       47.0527       47.0598      31.502597       0.02727
  24     68.43       15.5564        0.0085       47.0183       47.0268      31.470359       0.02534
  23     81.20       15.5554        0.0101       46.9796       46.9897      31.434334       0.02380
  22     96.49       15.5542        0.0121       46.9356       46.9476      31.393430       0.02258
  21     114.6       15.5528        0.0144       46.8846       46.8990      31.346202       0.02205
  20     136.5       15.5511        0.0171       46.8250       46.8421      31.290952       0.02124
  19     162.9       15.5491        0.0204       46.7403       46.7607      31.211545       0.02538
  18     196.4       15.5467        0.0246       46.5732       46.5978      31.051054       0.04040
  17     218.7       15.5453        0.0273       46.3491       46.3764      30.831058       0.08352
  16     243.0       15.5441        0.0301       45.9309       45.9610      30.416899       0.14364
  15     269.0       15.5434        0.0330       45.1716       45.2045      29.661087       0.24518
  14     297.5       15.5440        0.0358       44.0121       44.0478      28.503833       0.34323
  13     328.5       15.5462        0.0386       42.7247       42.7633      27.217118       0.34985
  12     361.9       15.5508        0.0415       41.3543       41.3958      25.845009       0.34716
  11     398.1       15.5593        0.0444       39.7956       39.8400      24.280643       0.36446
  10     437.6       15.5741        0.0471       37.9951       38.0421      22.468051       0.38754
   9     480.5       15.5980        0.0496       36.0650       36.1146      20.516649       0.38325
   8     533.0       15.6433        0.0524       33.7776       33.8299      18.186667       0.37482
   7     589.8       15.7226        0.0549       31.4085       31.4633      15.740732       0.36306
   6     651.6       15.8758        0.0569       28.8836       28.9405      13.064758       0.36595
   5     718.7       16.1674        0.0587       26.4106       26.4693      10.301926       0.34721
   4     792.3       16.7786        0.0602       24.0058       24.0660       7.287404       0.34573
   3     825.4        8.0524       11.7706        0.9751       12.7458       4.693416       0.66210
   2     858.4        4.0571        7.8665        0.0515        7.9179       3.860789       0.21254
   1     891.5        0.5515        4.0853        0.0028        4.0881       3.536639       0.08277
   0    1013.0        0.5761        3.8560        0.0026        3.8586       3.282470       0.01765



 Wavenumbers:  7700. -  8050. cm-1, ATM      1
 LEVEL PRESSURE   UPWARD FLUX   DIFDOWN FLUX  DIRDOWN FLUX  DOWNWARD FLUX   NET FLUX    HEATING RATE
          mb          W/m2          W/m2          W/m2        W/m2          W/m2       degree/day
  51    .06700        7.5218        0.0000       11.1810       11.1810       3.659172       0.00000
  50    .07753        7.5218        0.0000       11.1809       11.1809       3.659149       0.01842
  49    .09103        7.5218        0.0000       11.1809       11.1809       3.659120       0.01805
  48    0.1069        7.5218        0.0000       11.1809       11.1809       3.659087       0.01767
  47    0.1255        7.5218        0.0000       11.1809       11.1809       3.659049       0.01729
  46    0.1487        7.5218        0.0000       11.1808       11.1808       3.659001       0.01755
  45    0.1794        7.5218        0.0000       11.1808       11.1808       3.658935       0.01806
  44    0.2165        7.5219        0.0000       11.1807       11.1807       3.658857       0.01771
  43    0.2613        7.5219        0.0000       11.1806       11.1806       3.658765       0.01738
  42    0.3336        7.5219        0.0000       11.1805       11.1805       3.658612       0.01778
  41    0.4307        7.5220        0.0000       11.1803       11.1804       3.658410       0.01759
  40    0.5894        7.5220        0.0000       11.1801       11.1801       3.658080       0.01757
  39     1.339        7.5224        0.0001       11.1788       11.1789       3.656517       0.01760
  38     1.782        7.5226        0.0001       11.1781       11.1782       3.655598       0.01748
  37     2.292        7.5228        0.0001       11.1772       11.1773       3.654535       0.01760
  36     5.035        7.5232        0.0002       11.1757       11.1759       3.652691       0.00568
  35     6.613        7.5239        0.0003       11.1731       11.1733       3.649415       0.01751
  34     8.786        7.5249        0.0004       11.1695       11.1699       3.645002       0.01714
  33     11.80        7.5263        0.0006       11.1644       11.1650       3.638692       0.01767
  32     15.07        7.5278        0.0008       11.1589       11.1597       3.631921       0.01748
  31     18.79        7.5295        0.0010       11.1528       11.1538       3.624279       0.01733
  30     23.16        7.5315        0.0013       11.1456       11.1468       3.615362       0.01724
  29     28.12        7.5337        0.0015       11.1374       11.1389       3.605178       0.01731
  28     33.73        7.5363        0.0019       11.1282       11.1301       3.593799       0.01711
  27     40.54        7.5394        0.0023       11.1172       11.1195       3.580079       0.01702
  26     48.69        7.5432        0.0028       11.1040       11.1068       3.563578       0.01708
  25     57.69        7.5473        0.0033       11.0896       11.0929       3.545505       0.01694
  24     68.43        7.5523        0.0039       11.0725       11.0764       3.524053       0.01686
  23     81.20        7.5583        0.0047       11.0523       11.0569       3.498601       0.01682
  22     96.49        7.5655        0.0055       11.0284       11.0340       3.468420       0.01666
  21     114.6        7.5742        0.0066       11.0004       11.0070       3.432792       0.01664
  20     136.5        7.5846        0.0078       10.9676       10.9754       3.390843       0.01613
  19     162.9        7.5971        0.0093       10.9290       10.9384       3.341264       0.01585
  18     196.4        7.6137        0.0113       10.8799       10.8912       3.277531       0.01604
  17     218.7        7.6247        0.0125       10.8482       10.8607       3.235966       0.01578
  16     243.0        7.6369        0.0139       10.8140       10.8279       3.190976       0.01560
  15     269.0        7.6504        0.0154       10.7774       10.7928       3.142358       0.01577
  14     297.5        7.6653        0.0170       10.7382       10.7552       3.089832       0.01558
  13     328.5        7.6819        0.0187       10.6962       10.7149       3.033024       0.01545
  12     361.9        7.7002        0.0206       10.6512       10.6718       2.971641       0.01553
  11     398.1        7.7206        0.0226       10.6031       10.6257       2.905089       0.01551
  10     437.6        7.7434        0.0247       10.5513       10.5761       2.832627       0.01549
   9     480.5        7.7691        0.0270       10.4956       10.5227       2.753556       0.01553
   8     533.0        7.8026        0.0299       10.4264       10.4563       2.653674       0.01607
   7     589.8        7.8417        0.0329       10.3500       10.3829       2.541194       0.01670
   6     651.6        7.8886        0.0362       10.2633       10.2995       2.410926       0.01781
   5     718.7        7.9461        0.0396       10.1637       10.2033       2.257206       0.01932
   4     792.3        8.0193        0.0433       10.0457       10.0890       2.069743       0.02150
   3     825.4        4.5367        5.9407        0.4519        6.3926       1.855871       0.05459
   2     858.4        2.7793        4.4789        0.0253        4.5042       1.724962       0.03342
   1     891.5        1.1647        2.8094        0.0014        2.8108       1.646120       0.02013
   0    1013.0        1.1878        2.7521        0.0014        2.7534       1.565610       0.00559



 Wavenumbers:  8050. - 12850. cm-1, ATM      1
 LEVEL PRESSURE   UPWARD FLUX   DIFDOWN FLUX  DIRDOWN FLUX  DOWNWARD FLUX   NET FLUX    HEATING RATE
          mb          W/m2          W/m2          W/m2        W/m2          W/m2       degree/day
  51    .06700      102.6758        0.0000      156.5418      156.5418      53.865988       0.00000
  50    .07753      102.6758        0.0000      156.5417      156.5417      53.865988       0.00000
  49    .09103      102.6757        0.0001      156.5417      156.5417      53.865988      -0.00000
  48    0.1069      102.6757        0.0001      156.5416      156.5417      53.865988       0.00000
  47    0.1255      102.6757        0.0002      156.5415      156.5417      53.865988       0.00000
  46    0.1487      102.6757        0.0002      156.5414      156.5417      53.865988      -0.00000
  45    0.1794      102.6756        0.0003      156.5413      156.5416      53.865988       0.00000
  44    0.2165      102.6756        0.0004      156.5412      156.5416      53.865988      -0.00000
  43    0.2613      102.6756        0.0006      156.5410      156.5415      53.865988       0.00000
  42    0.3336      102.6755        0.0008      156.5407      156.5415      53.865988      -0.00000
  41    0.4307      102.6754        0.0011      156.5403      156.5414      53.865988       0.00000
  40    0.5894      102.6752        0.0015      156.5397      156.5412      53.865988       0.00000
  39     1.339      102.6744        0.0037      156.5367      156.5404      53.865988      -0.00000
  38     1.782      102.6740        0.0050      156.5350      156.5400      53.865988       0.00000
  37     2.292      102.6735        0.0065      156.5330      156.5394      53.865988      -0.00000
  36     5.035      102.6725        0.0090      156.5295      156.5385      53.865988      -0.00000
  35     6.613      102.6709        0.0136      156.5233      156.5369      53.865988       0.00000
  34     8.786      102.6687        0.0198      156.5149      156.5347      53.865988      -0.00000
  33     11.80      102.6656        0.0286      156.5029      156.5316      53.865988       0.00000
  32     15.07      102.6622        0.0381      156.4901      156.5282      53.865988       0.00000
  31     18.79      102.6584        0.0489      156.4755      156.5244      53.865988      -0.00000
  30     23.16      102.6539        0.0614      156.4585      156.5199      53.865988      -0.00000
  29     28.12      102.6488        0.0758      156.4390      156.5148      53.865988       0.00000
  28     33.73      102.6431        0.0919      156.4171      156.5091      53.865988      -0.00000
  27     40.54      102.6361        0.1114      156.3907      156.5021      53.865988       0.00000
  26     48.69      102.6278        0.1350      156.3588      156.4938      53.865988      -0.00000
  25     57.69      102.6186        0.1608      156.3237      156.4845      53.865988       0.00000
  24     68.43      102.6076        0.1917      156.2818      156.4736      53.865988      -0.00000
  23     81.20      102.5944        0.2286      156.2319      156.4604      53.865988       0.00000
  22     96.49      102.5788        0.2726      156.1722      156.4448      53.865988       0.00000
  21     114.6      102.5604        0.3249      156.0952      156.4201      53.859733       0.00292
  20     136.5      102.5385        0.3871      156.0034      156.3905      53.851976       0.00298
  19     162.9      102.5124        0.4613      155.8903      156.3516      53.839111       0.00411
  18     196.4      102.4787        0.5577      155.7272      156.2849      53.806178       0.00829
  17     218.7      102.4569        0.6212      155.5805      156.2017      53.744790       0.02331
  16     243.0      102.4342        0.6901      155.3439      156.0340      53.599858       0.05027
  15     269.0      102.4118        0.7647      154.9586      155.7233      53.311496       0.09354
  14     297.5      102.3923        0.8450      154.3968      155.2418      52.849572       0.13700
  13     328.5      102.3769        0.9316      153.7223      154.6539      52.277008       0.15568
  12     361.9      102.3689        1.0246      152.9159      153.9405      51.571595       0.17848
  11     398.1      102.3735        1.1241      151.9057      153.0298      50.656312       0.21324
  10     437.6      102.3996        1.2299      150.6102      151.8401      49.440469       0.25995
   9     480.5      102.4583        1.3418      149.0084      150.3502      47.891931       0.30413
   8     533.0      102.5885        1.4772      146.7445      148.2217      45.633159       0.36336
   7     589.8      102.8370        1.6192      143.8798      145.4989      42.661994       0.44102
   6     651.6      103.3357        1.7648      140.1022      141.8670      38.531315       0.56488
   5     718.7      104.2779        1.9126      135.5343      137.4469      33.168999       0.67389
   4     792.3      106.1448        2.0590      130.0753      132.1343      25.989490       0.82341
   3     825.4       66.8027       79.4321        5.6011       85.0331      18.230438       1.98045
   2     858.4       51.1732       65.7732        0.3050       66.0783      14.905073       0.84886
   1     891.5       38.2187       51.2879        0.0168       51.3047      13.085998       0.46449
   0    1013.0       39.1292       49.8557        0.0159       49.8715      10.742328       0.16273



 Wavenumbers: 12850. - 16000. cm-1, ATM      1
 LEVEL PRESSURE   UPWARD FLUX   DIFDOWN FLUX  DIRDOWN FLUX  DOWNWARD FLUX   NET FLUX    HEATING RATE
          mb          W/m2          W/m2          W/m2        W/m2          W/m2       degree/day
  51    .06700       79.5545        0.0000       98.0872       98.0872      18.532764       0.00000
  50    .07753       79.5545        0.0001       98.0864       98.0864      18.531972       0.63483
  49    .09103       79.5545        0.0002       98.0853       98.0855      18.530977       0.62180
  48    0.1069       79.5545        0.0003       98.0841       98.0843      18.529834       0.60853
  47    0.1255       79.5545        0.0004       98.0826       98.0830      18.528521       0.59556
  46    0.1487       79.5545        0.0005       98.0809       98.0814      18.526862       0.60444
  45    0.1794       79.5546        0.0007       98.0784       98.0792      18.524606       0.61938
  44    0.2165       79.5546        0.0010       98.0756       98.0766      18.521952       0.60388
  43    0.2613       79.5548        0.0013       98.0723       98.0736      18.518829       0.58860
  42    0.3336       79.5550        0.0017       98.0670       98.0687      18.513731       0.59440
  41    0.4307       79.5554        0.0023       98.0602       98.0625      18.507136       0.57343
  40    0.5894       79.5562        0.0034       98.0496       98.0529      18.496738       0.55295
  39     1.339       79.5630        0.0082       98.0043       98.0125      18.449537       0.53139
  38     1.782       79.5691        0.0110       97.9793       97.9903      18.421145       0.54054
  37     2.292       79.5783        0.0143       97.9498       97.9641      18.385746       0.58631
  36     5.035       79.6027        0.0200       97.8891       97.9091      18.306370       0.24422
  35     6.613       79.6539        0.0300       97.7746       97.8046      18.150695       0.83224
  34     8.786       79.7206        0.0436       97.6278       97.6714      17.950738       0.77656
  33     11.80       79.8075        0.0630       97.4339       97.4968      17.689315       0.73190
  32     15.07       79.8908        0.0838       97.2433       97.3270      17.436208       0.65347
  31     18.79       79.9760        0.1072       97.0439       97.1511      17.175093       0.59203
  30     23.16       80.0651        0.1346       96.8292       96.9638      16.898671       0.53451
  29     28.12       80.1550        0.1659       96.6048       96.7707      16.615729       0.48098
  28     33.73       80.2383        0.2009       96.3831       96.5840      16.345733       0.40595
  27     40.54       80.3189        0.2432       96.1494       96.3925      16.073656       0.33754
  26     48.69       80.3967        0.2942       95.9016       96.1958      15.799150       0.28407
  25     57.69       80.4633        0.3502       95.6629       96.0132      15.549816       0.23371
  24     68.43       80.5224        0.4170       95.4149       95.8319      15.309490       0.18893
  23     81.20       80.5649        0.4966       95.1674       95.6640      15.099119       0.13901
  22     96.49       80.5897        0.5916       94.9172       95.5088      14.919095       0.09936
  21     114.6       80.6193        0.7055       94.6421       95.3476      14.728364       0.08906
  20     136.5       80.6430        0.8406       94.3324       95.1729      14.529966       0.07629
  19     162.9       80.6608        1.0014       93.9750       94.9764      14.315526       0.06854
  18     196.4       80.6620        1.2099       93.5336       94.7436      14.081588       0.05888
  17     218.7       80.6549        1.3469       93.2498       94.5967      13.941790       0.05308
  16     243.0       80.6441        1.4957       92.9420       94.4378      13.793695       0.05136
  15     269.0       80.6294        1.6571       92.6087       94.2657      13.636286       0.05106
  14     297.5       80.6118        1.8314       92.2464       94.0778      13.466066       0.05049
  13     328.5       80.5932        2.0198       91.8517       93.8715      13.278285       0.05106
  12     361.9       80.5749        2.2226       91.4219       93.6444      13.069577       0.05281
  11     398.1       80.5584        2.4408       90.9524       93.3932      12.834824       0.05469
  10     437.6       80.5473        2.6751       90.4358       93.1109      12.563666       0.05798
   9     480.5       80.5447        2.9260       89.8659       92.7919      12.247182       0.06216
   8     533.0       80.5598        3.2346       89.1347       92.3693      11.809432       0.07042
   7     589.8       80.6098        3.5662       88.2943       91.8605      11.250658       0.08294
   6     651.6       80.7320        3.9206       87.2867       91.2073      10.475280       0.10604
   5     718.7       80.9548        4.2962       86.1028       90.3990       9.444179       0.12958
   4     792.3       81.3639        4.6891       84.6812       89.3703       8.006392       0.16490
   3     825.4       61.8677       64.2989        3.7786       68.0775       6.209840       0.45856
   2     858.4       56.2707       61.1596        0.2107       61.3703       5.099613       0.28341
   1     891.5       52.0398       56.2984        0.0118       56.3102       4.270348       0.21175
   0    1013.0       52.5980       55.6302        0.0114       55.6416       3.043596       0.08518



 Wavenumbers: 16000. - 22650. cm-1, ATM      1
 LEVEL PRESSURE   UPWARD FLUX   DIFDOWN FLUX  DIRDOWN FLUX  DOWNWARD FLUX   NET FLUX    HEATING RATE
          mb          W/m2          W/m2          W/m2        W/m2          W/m2       degree/day
  51    .06700      139.9906        0.0000      156.3892      156.3892      16.398614       0.00000
  50    .07753      139.9906        0.0004      156.3887      156.3891      16.398467       0.11787
  49    .09103      139.9906        0.0009      156.3879      156.3888      16.398253       0.13369
  48    0.1069      139.9906        0.0015      156.3871      156.3885      16.397967       0.15245
  47    0.1255      139.9906        0.0021      156.3861      156.3882      16.397583       0.17378
  46    0.1487      139.9906        0.0029      156.3847      156.3877      16.397019       0.20592
  45    0.1794      139.9908        0.0041      156.3828      156.3869      16.396135       0.24246
  44    0.2165      139.9910        0.0054      156.3805      156.3859      16.394937       0.27250
  43    0.2613      139.9913        0.0070      156.3776      156.3846      16.393312       0.30635
  42    0.3336      139.9920        0.0096      156.3726      156.3823      16.390222       0.36026
  41    0.4307      139.9933        0.0131      156.3657      156.3788      16.385565       0.40497
  40    0.5894      139.9958        0.0188      156.3537      156.3725      16.376682       0.47238
  39     1.339      140.0181        0.0457      156.2834      156.3291      16.311053       0.73886
  38     1.782      140.0387        0.0615      156.2324      156.2939      16.255146       1.06439
  37     2.292      140.0697        0.0798      156.1641      156.2439      16.174220       1.34035
  36     5.035      140.1529        0.1115      156.0076      156.1191      15.966161       0.64014
  35     6.613      140.3281        0.1678      155.6950      155.8628      15.534635       2.30694
  34     8.786      140.5563        0.2435      155.2860      155.5295      14.973133       2.18067
  33     11.80      140.8532        0.3516      154.7422      155.0938      14.240541       2.05103
  32     15.07      141.1376        0.4675      154.2059      154.6734      13.535833       1.81942
  31     18.79      141.4278        0.5982      153.6432      154.2414      12.813597       1.63753
  30     23.16      141.7311        0.7506      153.0352      153.7858      12.054739       1.46739
  29     28.12      142.0360        0.9247      152.3965      153.3212      11.285158       1.30824
  28     33.73      142.3173        1.1192      151.7604      152.8796      10.562318       1.08681
  27     40.54      142.5876        1.3540      151.0815      152.4356       9.847918       0.88629
  26     48.69      142.8461        1.6368      150.3500      151.9868       9.140678       0.73188
  25     57.69      143.0647        1.9470      149.6296      151.5766       8.511894       0.58939
  24     68.43      143.2547        2.3159      148.8604      151.1763       7.921655       0.46401
  23     81.20      143.3846        2.7552      148.0628      150.8180       7.433407       0.32263
  22     96.49      143.4499        3.2781      147.2220      150.5001       7.050269       0.21146
  21     114.6      143.4815        3.8971      146.2838      150.1809       6.699423       0.16382
  20     136.5      143.4879        4.6280      145.2142      149.8422       6.354294       0.13271
  19     162.9      143.4673        5.4943      143.9816      149.4759       6.008588       0.11050
  18     196.4      143.3795        6.6120      142.4652      149.0772       5.697674       0.07826
  17     218.7      143.2995        7.3423      141.5017      148.8440       5.544507       0.05815
  16     243.0      143.2022        8.1328      140.4717      148.6045       5.402248       0.04934
  15     269.0      143.0862        8.9855      139.3740      148.3595       5.273301       0.04183
  14     297.5      142.9507        9.9025      138.2062      148.1087       5.158034       0.03419
  13     328.5      142.7997       10.8882      136.9574      147.8456       5.045843       0.03050
  12     361.9      142.6330       11.9433      135.6265      147.5698       4.936859       0.02757
  11     398.1      142.4500       13.0720      134.2081      147.2801       4.830184       0.02485
  10     437.6      142.2516       14.2762      132.6981      146.9743       4.722665       0.02299
   9     480.5      142.0376       15.5580      131.0935      146.6516       4.613994       0.02134
   8     533.0      141.7743       17.1236      129.1351      146.2587       4.484364       0.02085
   7     589.8      141.4947       18.7962      127.0392      145.8354       4.340698       0.02132
   6     651.6      141.2051       20.5775      124.7944      145.3719       4.166770       0.02379
   5     718.7      140.9119       22.4691      122.3908      144.8599       3.947980       0.02750
   4     792.3      140.6323       24.4690      119.8121      144.2811       3.648826       0.03431
   3     825.4      118.9684      116.8501        5.3247      122.1748       3.206443       0.11292
   2     858.4      115.3596      117.9143        0.2951      118.2094       2.849797       0.09104
   1     891.5      112.8237      115.3376        0.0164      115.3540       2.530267       0.08159
   0    1013.0      113.0322      115.0649        0.0158      115.0807       2.048436       0.03346



 Wavenumbers: 22650. - 29000. cm-1, ATM      1
 LEVEL PRESSURE   UPWARD FLUX   DIFDOWN FLUX  DIRDOWN FLUX  DOWNWARD FLUX   NET FLUX    HEATING RATE
          mb          W/m2          W/m2          W/m2        W/m2          W/m2       degree/day
  51    .06700       58.5071        0.0000       59.0156       59.0156       0.508548       0.00000
  50    .07753       58.5070        0.0005       59.0151       59.0155       0.508548      -0.00000
  49    .09103       58.5069        0.0010       59.0144       59.0154       0.508548      -0.00000
  48    0.1069       58.5067        0.0017       59.0136       59.0153       0.508548       0.00000
  47    0.1255       58.5066        0.0025       59.0127       59.0151       0.508548      -0.00000
  46    0.1487       58.5064        0.0034       59.0115       59.0149       0.508548       0.00000
  45    0.1794       58.5061        0.0048       59.0099       59.0147       0.508548      -0.00000
  44    0.2165       58.5058        0.0063       59.0080       59.0144       0.508548       0.00000
  43    0.2613       58.5055        0.0082       59.0058       59.0140       0.508548       0.00000
  42    0.3336       58.5049        0.0113       59.0022       59.0134       0.508548       0.00000
  41    0.4307       58.5041        0.0153       58.9973       59.0126       0.508548      -0.00000
  40    0.5894       58.5028        0.0220       58.9894       59.0113       0.508548       0.00000
  39     1.339       58.4967        0.0535       58.9518       59.0052       0.508548      -0.00000
  38     1.782       58.4931        0.0719       58.9297       59.0017       0.508548       0.00000
  37     2.292       58.4890        0.0933       58.9042       58.9975       0.508548       0.00000
  36     5.035       58.4818        0.1304       58.8599       58.9903       0.508548      -0.00000
  35     6.613       58.4690        0.1963       58.7812       58.9775       0.508548       0.00000
  34     8.786       58.4518        0.2850       58.6754       58.9603       0.508548      -0.00000
  33     11.80       58.4272        0.4116       58.5242       58.9358       0.508548       0.00000
  32     15.07       58.4009        0.5474       58.3621       58.9094       0.508548      -0.00000
  31     18.79       58.3712        0.7004       58.1794       58.8797       0.508548       0.00000
  30     23.16       58.3366        0.8787       57.9665       58.8452       0.508548       0.00000
  29     28.12       58.2972        1.0820       57.7237       58.8057       0.508548       0.00000
  28     33.73       58.2532        1.3087       57.4530       58.7617       0.508548      -0.00000
  27     40.54       58.2002        1.5815       57.1272       58.7088       0.508548       0.00000
  26     48.69       58.1367        1.9087       56.7366       58.6453       0.508548       0.00000
  25     57.69       58.0674        2.2659       56.3100       58.5759       0.508548      -0.00000
  24     68.43       57.9853        2.6882       55.8057       58.4939       0.508548       0.00000
  23     81.20       57.8885        3.1870       55.2100       58.3970       0.508548      -0.00000
  22     96.49       57.7742        3.7751       54.5077       58.2828       0.508548       0.00000
  21     114.6       57.6403        4.4643       53.6845       58.1488       0.508548       0.00000
  20     136.5       57.4838        5.2687       52.7236       57.9924       0.508548      -0.00000
  19     162.9       57.3009        6.2091       51.6003       57.8094       0.508548      -0.00000
  18     196.4       57.0690        7.4005       50.1770       57.5775       0.508548       0.00000
  17     218.7       56.9198        8.1660       49.2623       57.4284       0.508548       0.00000
  16     243.0       56.7605        8.9834       48.2857       57.2691       0.508548       0.00000
  15     269.0       56.5911        9.8520       47.2476       57.0997       0.508548      -0.00000
  14     297.5       56.4117       10.7712       46.1491       56.9203       0.508548       0.00000
  13     328.5       56.2221       11.7422       44.9884       56.7306       0.508548       0.00000
  12     361.9       56.0227       12.7625       43.7687       56.5312       0.508548      -0.00000
  11     398.1       55.8134       13.8321       42.4898       56.3219       0.508548       0.00000
  10     437.6       55.5946       14.9490       41.1542       56.1032       0.508548       0.00000
   9     480.5       55.3669       16.1107       39.7647       55.8754       0.508548      -0.00000
   8     533.0       55.0956       17.4923       38.1118       55.6041       0.508548       0.00000
   7     589.8       54.8139       18.9246       36.3978       55.3225       0.508548       0.00000
   6     651.6       54.5232       20.4003       34.6314       55.0317       0.508548       0.00000
   5     718.7       54.2243       21.9137       32.8192       54.7329       0.508548      -0.00000
   4     792.3       53.9190       23.4561       30.9715       54.4276       0.508548       0.00000
   3     825.4       48.6397       47.8374        1.3106       49.1480       0.508262       0.00007
   2     858.4       47.9319       48.3708        0.0691       48.4400       0.508010       0.00006
   1     891.5       47.4120       47.9161        0.0037       47.9197       0.507761       0.00006
   0    1013.0       47.3942       47.8986        0.0033       47.9020       0.507761       0.00000



 Wavenumbers: 29000. - 38000. cm-1, ATM      1
 LEVEL PRESSURE   UPWARD FLUX   DIFDOWN FLUX  DIRDOWN FLUX  DOWNWARD FLUX   NET FLUX    HEATING RATE
          mb          W/m2          W/m2          W/m2        W/m2          W/m2       degree/day
  51    .06700        8.7973        0.0000       20.8114       20.8114      12.014059       0.00000
  50    .07753        8.7971        0.0003       20.8070       20.8074      12.010252       3.05176
  49    .09103        8.7969        0.0007       20.8009       20.8016      12.004714       3.46108
  48    0.1069        8.7966        0.0012       20.7928       20.7939      11.997304       3.94456
  47    0.1255        8.7964        0.0017       20.7820       20.7837      11.987398       4.49065
  46    0.1487        8.7960        0.0024       20.7665       20.7688      11.972834       5.30881
  45    0.1794        8.7955        0.0033       20.7424       20.7457      11.950168       6.22248
  44    0.2165        8.7950        0.0044       20.7103       20.7147      11.919643       6.94391
  43    0.2613        8.7945        0.0056       20.6675       20.6731      11.878645       7.72790
  42    0.3336        8.7936        0.0077       20.5880       20.5957      11.802078       8.92694
  41    0.4307        8.7925        0.0104       20.4722       20.4826      11.690116       9.73481
  40    0.5894        8.7910        0.0147       20.2637       20.2784      11.487415      10.77939
  39     1.339        8.7877        0.0332       19.0984       19.1315      10.343809      12.87493
  38     1.782        8.7883        0.0427       18.4394       18.4821       9.693778      12.37554
  37     2.292        8.7912        0.0530       17.7714       17.8245       9.033288      10.93943
  36     5.035        8.8040        0.0692       16.7265       16.7957       7.991700       3.20469
  35     6.613        8.8341        0.0964       15.5186       15.6150       6.780907       6.47290
  34     8.786        8.8743        0.1318       14.5590       14.6907       5.816404       3.74578
  33     11.80        8.9272        0.1806       13.7000       13.8806       4.953432       2.41605
  32     15.07        8.9783        0.2308       13.0749       13.3057       4.327451       1.61616
  31     18.79        9.0312        0.2862       12.5486       12.8347       3.803569       1.18780
  30     23.16        9.0875        0.3490       12.0732       12.4221       3.334679       0.90668
  29     28.12        9.1452        0.4191       11.6423       12.0614       2.916219       0.71135
  28     33.73        9.1985        0.4963       11.2628       11.7591       2.560528       0.53479
  27     40.54        9.2491        0.5883       10.8969       11.4852       2.236062       0.40254
  26     48.69        9.2968        0.6974       10.5353       11.2326       1.935839       0.31068
  25     57.69        9.3359        0.8153       10.2040       11.0193       1.683450       0.23658
  24     68.43        9.3674        0.9535        9.8713       10.8249       1.457481       0.17764
  23     81.20        9.3821        1.1167        9.5431       10.6598       1.277663       0.11882
  22     96.49        9.3781        1.3084        9.2107       10.5191       1.140999       0.07543
  21     114.6        9.3635        1.5297        8.8533       10.3830       1.019514       0.05672
  20     136.5        9.3414        1.7827        8.4618       10.2445       0.903103       0.04476
  19     162.9        9.3119        2.0709        8.0302       10.1011       0.789270       0.03639
  18     196.4        9.2626        2.4278        7.5240        9.9518       0.689211       0.02519
  17     218.7        9.2271        2.6522        7.2154        9.8676       0.640468       0.01851
  16     243.0        9.1883        2.8867        6.8972        9.7838       0.595500       0.01560
  15     269.0        9.1459        3.1304        6.5707        9.7011       0.555157       0.01309
  14     297.5        9.1000        3.3823        6.2374        9.6197       0.519626       0.01054
  13     328.5        9.0521        3.6413        5.8964        9.5377       0.485639       0.00924
  12     361.9        9.0025        3.9049        5.5509        9.4558       0.453348       0.00817
  11     398.1        8.9514        4.1726        5.2016        9.3742       0.422777       0.00712
  10     437.6        8.8994        4.4427        4.8500        9.2927       0.393336       0.00629
   9     480.5        8.8467        4.7132        4.4990        9.2121       0.365422       0.00548
   8     533.0        8.7861        5.0213        4.0999        9.1212       0.335028       0.00489
   7     589.8        8.7262        5.3248        3.7070        9.0318       0.305640       0.00436
   6     651.6        8.6678        5.6200        3.3248        8.9447       0.276928       0.00393
   5     718.7        8.6115        5.9052        2.9551        8.8603       0.248848       0.00353
   4     792.3        8.5579        6.1770        2.6023        8.7793       0.221405       0.00315
   3     825.4        7.9457        8.0353        0.1002        8.1354       0.189660       0.00810
   2     858.4        7.7635        7.9189        0.0048        7.9237       0.160250       0.00751
   1     891.5        7.6251        7.7570        0.0002        7.7572       0.132118       0.00718
   0    1013.0        7.6317        7.7329        0.0002        7.7330       0.101303       0.00214



 Wavenumbers: 38000. - 50000. cm-1, ATM      1
 LEVEL PRESSURE   UPWARD FLUX   DIFDOWN FLUX  DIRDOWN FLUX  DOWNWARD FLUX   NET FLUX    HEATING RATE
          mb          W/m2          W/m2          W/m2        W/m2          W/m2       degree/day
  51    .06700        0.0061        0.0000        1.2836        1.2836       1.277566       0.00000
  50    .07753        0.0060        0.0001        1.2812        1.2812       1.275231       1.87147
  49    .09103        0.0059        0.0002        1.2777        1.2778       1.271899       2.08243
  48    0.1069        0.0058        0.0002        1.2731        1.2734       1.267521       2.33056
  47    0.1255        0.0058        0.0004        1.2672        1.2675       1.261766       2.60905
  46    0.1487        0.0056        0.0005        1.2586        1.2591       1.253440       3.03495
  45    0.1794        0.0055        0.0007        1.2455        1.2462       1.240672       3.50516
  44    0.2165        0.0053        0.0009        1.2282        1.2291       1.223746       3.85033
  43    0.2613        0.0051        0.0011        1.2054        1.2065       1.201398       4.21256
  42    0.3336        0.0048        0.0015        1.1639        1.1654       1.160574       4.75965
  41    0.4307        0.0044        0.0020        1.1051        1.1070       1.102615       5.03937
  40    0.5894        0.0039        0.0026        1.0039        1.0064       1.002575       5.32000
  39     1.339        0.0022        0.0035        0.5438        0.5473       0.545166       5.14960
  38     1.782        0.0016        0.0032        0.3635        0.3666       0.365077       3.42860
  37     2.292        0.0011        0.0027        0.2356        0.2383       0.237147       2.11885
  36     5.035        0.0007        0.0019        0.1180        0.1199       0.119172       0.36298
  35     6.613        0.0004        0.0013        0.0504        0.0516       0.051220       0.36327
  34     8.786        0.0002        0.0009        0.0239        0.0248       0.024556       0.10355
  33     11.80        0.0001        0.0006        0.0105        0.0110       0.010913       0.03820
  32     15.07        0.0001        0.0004        0.0048        0.0052       0.005151       0.01488
  31     18.79        0.0000        0.0002        0.0022        0.0024       0.002406       0.00622
  30     23.16        0.0000        0.0001        0.0010        0.0011       0.001079       0.00257
  29     28.12        0.0000        0.0001        0.0004        0.0005       0.000469       0.00104
  28     33.73        0.0000        0.0000        0.0002        0.0002       0.000205       0.00040
  27     40.54        0.0000        0.0000        0.0001        0.0001       0.000083       0.00015
  26     48.69        0.0000        0.0000        0.0000        0.0000       0.000031       0.00005
  25     57.69        0.0000        0.0000        0.0000        0.0000       0.000011       0.00002
  24     68.43        0.0000        0.0000        0.0000        0.0000       0.000004       0.00001
  23     81.20        0.0000        0.0000        0.0000        0.0000       0.000001       0.00000
  22     96.49        0.0000        0.0000        0.0000        0.0000       0.000000       0.00000
  21     114.6        0.0000        0.0000        0.0000        0.0000       0.000000       0.00000
  20     136.5        0.0000        0.0000        0.0000        0.0000       0.000000       0.00000
  19     162.9        0.0000        0.0000        0.0000        0.0000       0.000000       0.00000
  18     196.4        0.0000        0.0000        0.0000        0.0000       0.000000       0.00000
  17     218.7        0.0000        0.0000        0.0000        0.0000       0.000000       0.00000
  16     243.0        0.0000        0.0000        0.0000        0.0000       0.000000       0.00000
  15     269.0        0.0000        0.0000        0.0000        0.0000       0.000000       0.00000
  14     297.5        0.0000        0.0000        0.0000        0.0000       0.000000       0.00000
  13     328.5        0.0000        0.0000        0.0000        0.0000       0.000000       0.00000
  12     361.9        0.0000        0.0000        0.0000        0.0000       0.000000       0.00000
  11     398.1        0.0000        0.0000        0.0000        0.0000       0.000000       0.00000
  10     437.6        0.0000        0.0000        0.0000        0.0000       0.000000       0.00000
   9     480.5        0.0000        0.0000        0.0000        0.0000       0.000000       0.00000
   8     533.0        0.0000        0.0000        0.0000        0.0000       0.000000       0.00000
   7     589.8        0.0000        0.0000        0.0000        0.0000       0.000000       0.00000
   6     651.6        0.0000        0.0000        0.0000        0.0000       0.000000       0.00000
   5     718.7        0.0000        0.0000        0.0000        0.0000       0.000000       0.00000
   4     792.3        0.0000        0.0000        0.0000        0.0000       0.000000       0.00000
   3     825.4        0.0000        0.0000        0.0000        0.0000       0.000000       0.00000
   2     858.4        0.0000        0.0000        0.0000        0.0000       0.000000       0.00000
   1     891.5        0.0000        0.0000        0.0000        0.0000       0.000000       0.00000
   0    1013.0        0.0000        0.0000        0.0000        0.0000       0.000000       0.00000



 Wavenumbers:   820. -  2600. cm-1, ATM      1
 LEVEL PRESSURE   UPWARD FLUX   DIFDOWN FLUX  DIRDOWN FLUX  DOWNWARD FLUX   NET FLUX    HEATING RATE
          mb          W/m2          W/m2          W/m2        W/m2          W/m2       degree/day
  51    .06700        1.3009        0.0000        6.0047        6.0047       4.703764       0.00000
  50    .07753        1.3009        0.0000        6.0008        6.0008       4.699911       3.08824
  49    .09103        1.3009        0.0000        5.9999        5.9999       4.699025       0.55360
  48    0.1069        1.3009        0.0000        5.9989        5.9989       4.698036       0.52655
  47    0.1255        1.3009        0.0000        5.9978        5.9978       4.696918       0.50652
  46    0.1487        1.3009        0.0000        5.9964        5.9964       4.695562       0.49460
  45    0.1794        1.3009        0.0000        5.9947        5.9947       4.693842       0.47203
  44    0.2165        1.3009        0.0000        5.9929        5.9929       4.692000       0.41913
  43    0.2613        1.3009        0.0000        5.9909        5.9909       4.690040       0.36936
  42    0.3336        1.3009        0.0000        5.9880        5.9880       4.687162       0.33559
  41    0.4307        1.3009        0.0000        5.9846        5.9846       4.683692       0.30168
  40    0.5894        1.3009        0.0000        5.9791        5.9791       4.678186       0.29279
  39     1.339        1.3009        0.0000        5.9536        5.9536       4.652696       0.28698
  38     1.782        1.3009        0.0000        5.9395        5.9395       4.638556       0.26921
  37     2.292        1.3009        0.0000        5.9237        5.9237       4.622802       0.26092
  36     5.035        1.3009        0.0000        5.8954        5.8954       4.594530       0.08699
  35     6.613        1.3009        0.0000        5.8469        5.8469       4.546025       0.25931
  34     8.786        1.3009        0.0000        5.7915        5.7915       4.490582       0.21532
  33     11.80        1.3010        0.0000        5.7245        5.7245       4.423511       0.18778
  32     15.07        1.3010        0.0000        5.6684        5.6684       4.367465       0.14470
  31     18.79        1.3010        0.0000        5.6231        5.6231       4.322049       0.10297
  30     23.16        1.3010        0.0000        5.5871        5.5871       4.286057       0.06960
  29     28.12        1.3011        0.0000        5.5583        5.5583       4.257220       0.04902
  28     33.73        1.3011        0.0000        5.5327        5.5328       4.231634       0.03847
  27     40.54        1.3012        0.0000        5.5051        5.5051       4.203905       0.03440
  26     48.69        1.3012        0.0000        5.4733        5.4733       4.172116       0.03290
  25     57.69        1.3013        0.0000        5.4393        5.4394       4.138069       0.03191
  24     68.43        1.3014        0.0000        5.3998        5.3999       4.098491       0.03111
  23     81.20        1.3015        0.0000        5.3545        5.3546       4.053105       0.02999
  22     96.49        1.3016        0.0000        5.3027        5.3028       4.001182       0.02866
  21     114.6        1.3017        0.0000        5.2431        5.2431       3.941383       0.02792
  20     136.5        1.3019        0.0000        5.1754        5.1755       3.873576       0.02607
  19     162.9        1.3021        0.0000        5.0924        5.0924       3.790248       0.02663
  18     196.4        1.3026        0.0000        4.9695        4.9695       3.666950       0.03104
  17     218.7        1.3030        0.0000        4.8606        4.8606       3.557628       0.04151
  16     243.0        1.3037        0.0000        4.7093        4.7093       3.405663       0.05271
  15     269.0        1.3047        0.0000        4.5352        4.5352       3.230498       0.05682
  14     297.5        1.3063        0.0000        4.3425        4.3426       3.036262       0.05761
  13     328.5        1.3085        0.0000        4.1286        4.1286       2.820144       0.05876
  12     361.9        1.3114        0.0000        3.8790        3.8791       2.567678       0.06388
  11     398.1        1.3152        0.0000        3.6162        3.6163       2.301091       0.06211
  10     437.6        1.3200        0.0000        3.3761        3.3761       2.056066       0.05239
   9     480.5        1.3260        0.0000        3.1959        3.1959       1.869926       0.03656
   8     533.0        1.3351        0.0000        3.0468        3.0468       1.711722       0.02545
   7     589.8        1.3485        0.0000        2.9024        2.9024       1.553892       0.02343
   6     651.6        1.3719        0.0001        2.7184        2.7185       1.346539       0.02836
   5     718.7        1.4123        0.0001        2.5059        2.5059       1.093661       0.03178
   4     792.3        1.4892        0.0001        2.2757        2.2757       0.786548       0.03522
   3     825.4        0.6366        1.0140        0.0901        1.1040       0.467406       0.08146
   2     858.4        0.2836        0.6150        0.0046        0.6196       0.335999       0.03354
   1     891.5        0.0015        0.2804        0.0002        0.2807       0.279193       0.01451
   0    1013.0        0.0017        0.2338        0.0002        0.2340       0.232267       0.00326

  Modules and versions used in this calculation:

       rrtmg_sw.1col.f90:  $Revision$                    rrtmg_sw_init.f90:  $Revision$        
     rrtmgsw_cldprop.f90:  $Revision$                  rrtmgsw_cldprmc.f90:  NOT USED          
     rrtmg_sw_reftra.f90:  $Revision$                  rrtmg_sw_spcvrt.f90:  NOT USED          
     rrtmg_sw_spcvmc.f90:  NOT USED                    rrtmgsw_setcoef.f90:  NOT USED          
     rrtmg_sw_taumol.f90:  $Revision$                  rrtmg_sw_vrtqdr.f90:  NOT USED          
                rrtatm.f:  NOT USED                             util_xxx.f:  NOT USED          
                 extra.f:  NOT USED                       rrtmg_sw_k_g.f90:  $Revision$        

