

 Wavenumbers:   820. - 50000. cm-1, ATM      1
 LEVEL PRESSURE   UPWARD FLUX   DIFDOWN FLUX  DIRDOWN FLUX  DOWNWARD FLUX   NET FLUX    HEATING RATE
          mb          W/m2          W/m2          W/m2        W/m2          W/m2       degree/day
  51    .06700      440.7655        0.0000      617.8126      617.8126     177.047033       0.00000
  50    .07753      440.7652        0.0013      617.7947      617.7961     177.030892      12.93786
  49    .09103      440.7647        0.0030      617.7778      617.7808     177.016080       9.25779
  48    0.1069      440.7642        0.0050      617.7581      617.7631     176.998816       9.18965
  47    0.1255      440.7637        0.0072      617.7340      617.7412     176.977468       9.67795
  46    0.1487      440.7631        0.0100      617.7009      617.7109     176.947779      10.82209
  45    0.1794      440.7624        0.0139      617.6521      617.6660     176.903543      12.14386
  44    0.2165      440.7617        0.0184      617.5895      617.6079     176.846215      13.04103
  43    0.2613      440.7610        0.0238      617.5089      617.5327     176.771695      14.04680
  42    0.3336      440.7601        0.0326      617.3641      617.3967     176.636596      15.75116
  41    0.4307      440.7594        0.0442      617.1591      617.2034     176.443954      16.74980
  40    0.5894      440.7592        0.0630      616.8005      616.8635     176.104230      18.06608
  39     1.339      440.7766        0.1478      614.9443      615.0921     174.315435      20.13859
  38     1.782      440.7995        0.1955      613.9670      614.1626     173.363053      18.13182
  37     2.292      440.8374        0.2498      613.0059      613.2557     172.418296      15.64764
  36     5.035      440.9495        0.3424      611.5124      611.8549     170.905323       4.65502
  35     6.613      441.1916        0.5058      609.6144      610.1202     168.928668      10.56720
  34     8.786      441.5075        0.7251      607.8253      608.5504     167.042928       7.32353
  33     11.80      441.9168        1.0368      605.8783      606.9151     164.998353       5.72417
  32     15.07      442.3064        1.3690      604.1777      605.5467     163.240365       4.53878
  31     18.79      442.7019        1.7425      602.5196      604.2621     161.560170       3.80952
  30     23.16      443.1125        2.1763      600.8127      602.9889     159.876450       3.25577
  29     28.12      443.5217        2.6698      599.0712      601.7409     158.219254       2.81712
  28     33.73      443.8913        3.2198      597.3500      600.5698     156.678496       2.31657
  27     40.54      444.2350        3.8818      595.5035      599.3853     155.150269       1.89594
  26     48.69      444.5496        4.6759      593.4958      598.1717     153.622069       1.58145
  25     57.69      444.7985        5.5439      591.4872      597.0311     152.232583       1.30243
  24     68.43      444.9900        6.5720      589.2939      595.8659     150.875877       1.06655
  23     81.20      445.0722        7.7907      586.9289      594.7197     149.647472       0.81171
  22     96.49      445.0348        9.2336      584.3423      593.5759     148.541069       0.61065
  21     114.6      444.9361       10.9309      581.4033      592.3341     147.398051       0.53371
  20     136.5      444.7749       12.9180      578.0541      590.9721     146.197229       0.46174
  19     162.9      444.5456       15.2498      574.1654      589.4152     144.869599       0.42436
  18     196.4      444.1619       18.2231      569.1760      587.3991     143.237268       0.41088
  17     218.7      443.8821       20.1454      565.6314      585.7768     141.894674       0.50973
  16     243.0      443.5707       22.2070      561.3129      583.5199     139.949199       0.67476
  15     269.0      443.2292       24.4094      555.9478      580.3572     137.128001       0.91518
  14     297.5      442.8632       26.7531      549.5394      576.2925     133.429302       1.09699
  13     328.5      442.4828       29.2446      542.6225      571.8671     129.384287       1.09983
  12     361.9      442.0960       31.8800      535.1469      567.0270     124.930993       1.12673
  11     398.1      441.7138       34.6640      526.9326      561.5966     119.882822       1.17611
  10     437.6      441.3583       37.5950      517.8921      555.4871     114.128824       1.23024
   9     480.5      441.0530       40.6711      508.2121      548.8832     107.830184       1.23703
   8     533.0      440.8188       44.3689      496.3783      540.7472      99.928384       1.27115
   7     589.8      440.8244       48.2485      483.5433      531.7917      90.967362       1.33011
   6     651.6      441.3649       52.2969      469.1414      521.4383      80.073392       1.48978
   5     718.7      442.8521       56.5058      453.6623      510.1682      67.316078       1.60324
   4     792.3      446.3664       60.8532      436.9145      497.7677      51.401318       1.82524
   3     825.4      320.2858      351.2414        5.0636      356.3050      36.019219       3.92619
   2     858.4      272.9891      302.7499        0.0593      302.8092      29.820073       1.58244
   1     891.5      232.0730      258.7033        0.0007      258.7040      26.630985       0.81432
   0    1013.0      233.5050      256.3690        0.0007      256.3697      22.864679       0.26151



 Wavenumbers:  2600. -  3250. cm-1, ATM      1
 LEVEL PRESSURE   UPWARD FLUX   DIFDOWN FLUX  DIRDOWN FLUX  DOWNWARD FLUX   NET FLUX    HEATING RATE
          mb          W/m2          W/m2          W/m2        W/m2          W/m2       degree/day
  51    .06700        1.8658        0.0000        5.4450        5.4450       3.579186       0.00000
  50    .07753        1.8658        0.0000        5.4450        5.4450       3.579178       0.00640
  49    .09103        1.8658        0.0000        5.4450        5.4450       3.579168       0.00627
  48    0.1069        1.8658        0.0000        5.4450        5.4450       3.579156       0.00613
  47    0.1255        1.8658        0.0000        5.4450        5.4450       3.579143       0.00599
  46    0.1487        1.8658        0.0000        5.4450        5.4450       3.579126       0.00608
  45    0.1794        1.8658        0.0000        5.4450        5.4450       3.579104       0.00625
  44    0.2165        1.8658        0.0000        5.4449        5.4449       3.579077       0.00612
  43    0.2613        1.8658        0.0000        5.4449        5.4449       3.579045       0.00600
  42    0.3336        1.8658        0.0000        5.4448        5.4448       3.578992       0.00617
  41    0.4307        1.8658        0.0000        5.4448        5.4448       3.578921       0.00620
  40    0.5894        1.8658        0.0000        5.4446        5.4446       3.578801       0.00637
  39     1.339        1.8658        0.0000        5.4439        5.4439       3.578093       0.00797
  38     1.782        1.8658        0.0000        5.4434        5.4434       3.577550       0.01034
  37     2.292        1.8658        0.0000        5.4427        5.4427       3.576834       0.01186
  36     5.035        1.8658        0.0000        5.4412        5.4412       3.575308       0.00470
  35     6.613        1.8658        0.0000        5.4381        5.4381       3.572230       0.01645
  34     8.786        1.8658        0.0000        5.4341        5.4341       3.568223       0.01556
  33     11.80        1.8658        0.0000        5.4288        5.4288       3.562976       0.01469
  32     15.07        1.8659        0.0000        5.4239        5.4239       3.558049       0.01272
  31     18.79        1.8659        0.0000        5.4191        5.4192       3.553303       0.01076
  30     23.16        1.8659        0.0000        5.4144        5.4144       3.548553       0.00919
  29     28.12        1.8659        0.0000        5.4096        5.4096       3.543717       0.00822
  28     33.73        1.8659        0.0000        5.4042        5.4042       3.538349       0.00807
  27     40.54        1.8659        0.0000        5.3972        5.3972       3.531318       0.00872
  26     48.69        1.8659        0.0000        5.3877        5.3877       3.521775       0.00988
  25     57.69        1.8660        0.0000        5.3759        5.3759       3.509931       0.01110
  24     68.43        1.8660        0.0000        5.3604        5.3604       3.494367       0.01223
  23     81.20        1.8661        0.0000        5.3405        5.3405       3.474432       0.01317
  22     96.49        1.8662        0.0000        5.3159        5.3159       3.449726       0.01364
  21     114.6        1.8664        0.0001        5.2857        5.2857       3.419343       0.01419
  20     136.5        1.8666        0.0001        5.2507        5.2508       3.384186       0.01352
  19     162.9        1.8669        0.0001        5.2113        5.2114       3.344499       0.01269
  18     196.4        1.8674        0.0001        5.1642        5.1643       3.296863       0.01199
  17     218.7        1.8680        0.0001        5.1333        5.1334       3.265375       0.01195
  16     243.0        1.8689        0.0001        5.0963        5.0964       3.227560       0.01312
  15     269.0        1.8703        0.0001        5.0512        5.0513       3.181027       0.01509
  14     297.5        1.8724        0.0001        4.9957        4.9958       3.123421       0.01709
  13     328.5        1.8753        0.0001        4.9304        4.9306       3.055242       0.01854
  12     361.9        1.8794        0.0002        4.8511        4.8513       2.971927       0.02108
  11     398.1        1.8849        0.0002        4.7507        4.7509       2.865934       0.02469
  10     437.6        1.8927        0.0002        4.6221        4.6222       2.729537       0.02916
   9     480.5        1.9035        0.0002        4.4625        4.4627       2.559227       0.03345
   8     533.0        1.9210        0.0002        4.2461        4.2463       2.325246       0.03764
   7     589.8        1.9478        0.0002        3.9954        3.9956       2.047793       0.04118
   6     651.6        1.9922        0.0002        3.7089        3.7091       1.716870       0.04525
   5     718.7        2.0658        0.0002        3.4018        3.4020       1.336248       0.04783
   4     792.3        2.2001        0.0002        3.0564        3.0567       0.856528       0.05502
   3     825.4        1.0122        1.3922        0.0316        1.4239       0.411654       0.11355
   2     858.4        0.5833        0.8371        0.0003        0.8375       0.254169       0.04020
   1     891.5        0.2858        0.4713        0.0000        0.4713       0.185483       0.01754
   0    1013.0        0.3119        0.4273        0.0000        0.4273       0.115360       0.00487



 Wavenumbers:  3250. -  4000. cm-1, ATM      1
 LEVEL PRESSURE   UPWARD FLUX   DIFDOWN FLUX  DIRDOWN FLUX  DOWNWARD FLUX   NET FLUX    HEATING RATE
          mb          W/m2          W/m2          W/m2        W/m2          W/m2       degree/day
  51    .06700        0.0487        0.0000        9.1795        9.1795       9.130812       0.00000
  50    .07753        0.0487        0.0000        9.1747        9.1747       9.125969       3.88162
  49    .09103        0.0487        0.0000        9.1713        9.1713       9.122581       2.11758
  48    0.1069        0.0487        0.0000        9.1688        9.1688       9.120056       1.34411
  47    0.1255        0.0487        0.0000        9.1665        9.1665       9.117797       1.02430
  46    0.1487        0.0487        0.0000        9.1641        9.1641       9.115355       0.88998
  45    0.1794        0.0487        0.0000        9.1612        9.1612       9.112477       0.79014
  44    0.2165        0.0487        0.0000        9.1583        9.1583       9.109556       0.66436
  43    0.2613        0.0487        0.0000        9.1553        9.1553       9.106583       0.56046
  42    0.3336        0.0487        0.0000        9.1511        9.1511       9.102404       0.48727
  41    0.4307        0.0487        0.0000        9.1464        9.1464       9.097635       0.41463
  40    0.5894        0.0487        0.0000        9.1393        9.1393       9.090629       0.37258
  39     1.339        0.0487        0.0000        9.1127        9.1127       9.064013       0.29965
  38     1.782        0.0487        0.0000        9.1011        9.1011       9.052424       0.22064
  37     2.292        0.0487        0.0000        9.0901        9.0901       9.041356       0.18331
  36     5.035        0.0487        0.0000        9.0731        9.0731       9.024424       0.05210
  35     6.613        0.0487        0.0000        9.0438        9.0439       8.995143       0.15653
  34     8.786        0.0487        0.0000        9.0058        9.0058       8.957058       0.14791
  33     11.80        0.0487        0.0000        8.9509        8.9509       8.902187       0.15362
  32     15.07        0.0487        0.0000        8.8914        8.8914       8.842708       0.15356
  31     18.79        0.0487        0.0000        8.8241        8.8242       8.775473       0.15244
  30     23.16        0.0487        0.0000        8.7473        8.7474       8.698661       0.14853
  29     28.12        0.0487        0.0000        8.6639        8.6640       8.615279       0.14174
  28     33.73        0.0487        0.0000        8.5784        8.5784       8.529769       0.12857
  27     40.54        0.0487        0.0001        8.4859        8.4860       8.437295       0.11472
  26     48.69        0.0487        0.0001        8.3873        8.3873       8.338671       0.10206
  25     57.69        0.0486        0.0001        8.2887        8.2888       8.240122       0.09238
  24     68.43        0.0486        0.0001        8.1771        8.1772       8.128604       0.08767
  23     81.20        0.0486        0.0001        8.0474        8.0475       7.998884       0.08572
  22     96.49        0.0486        0.0001        7.8963        7.8965       7.847871       0.08335
  21     114.6        0.0486        0.0001        7.7173        7.7174       7.668861       0.08359
  20     136.5        0.0486        0.0002        7.5201        7.5203       7.471745       0.07580
  19     162.9        0.0485        0.0002        7.2919        7.2921       7.243615       0.07292
  18     196.4        0.0485        0.0002        6.9664        6.9666       6.918102       0.08194
  17     218.7        0.0485        0.0002        6.6650        6.6652       6.616747       0.11441
  16     243.0        0.0485        0.0002        6.2620        6.2622       6.213767       0.13977
  15     269.0        0.0485        0.0003        5.7575        5.7578       5.709270       0.16366
  14     297.5        0.0486        0.0003        5.1717        5.1720       5.123367       0.17377
  13     328.5        0.0488        0.0002        4.5755        4.5757       4.526951       0.16216
  12     361.9        0.0490        0.0002        3.9992        3.9995       3.950413       0.14587
  11     398.1        0.0495        0.0002        3.4651        3.4653       3.415813       0.12455
  10     437.6        0.0503        0.0002        2.9736        2.9738       2.923509       0.10526
   9     480.5        0.0517        0.0002        2.5303        2.5305       2.478786       0.08734
   8     533.0        0.0543        0.0002        2.0610        2.0612       2.006910       0.07591
   7     589.8        0.0590        0.0002        1.6146        1.6148       1.555778       0.06696
   6     651.6        0.0689        0.0001        1.1562        1.1563       1.087385       0.06405
   5     718.7        0.0908        0.0001        0.7388        0.7389       0.648114       0.05520
   4     792.3        0.1491        0.0001        0.3984        0.3984       0.249294       0.04574
   3     825.4        0.0121        0.0368        0.0015        0.0383       0.026155       0.05696
   2     858.4        0.0013        0.0044        0.0000        0.0044       0.003059       0.00590
   1     891.5        0.0000        0.0004        0.0000        0.0004       0.000439       0.00067
   0    1013.0        0.0000        0.0000        0.0000        0.0000       0.000012       0.00003



 Wavenumbers:  4000. -  4650. cm-1, ATM      1
 LEVEL PRESSURE   UPWARD FLUX   DIFDOWN FLUX  DIRDOWN FLUX  DOWNWARD FLUX   NET FLUX    HEATING RATE
          mb          W/m2          W/m2          W/m2        W/m2          W/m2       degree/day
  51    .06700        6.3372        0.0000       10.7795       10.7795       4.442367       0.00000
  50    .07753        6.3372        0.0000       10.7795       10.7795       4.442366       0.00080
  49    .09103        6.3372        0.0000       10.7795       10.7795       4.442365       0.00078
  48    0.1069        6.3372        0.0000       10.7795       10.7795       4.442363       0.00077
  47    0.1255        6.3372        0.0000       10.7795       10.7795       4.442362       0.00075
  46    0.1487        6.3372        0.0000       10.7795       10.7795       4.442360       0.00076
  45    0.1794        6.3372        0.0000       10.7795       10.7795       4.442357       0.00078
  44    0.2165        6.3372        0.0000       10.7795       10.7795       4.442353       0.00076
  43    0.2613        6.3372        0.0000       10.7795       10.7795       4.442349       0.00075
  42    0.3336        6.3372        0.0000       10.7795       10.7795       4.442343       0.00077
  41    0.4307        6.3372        0.0000       10.7795       10.7795       4.442334       0.00077
  40    0.5894        6.3372        0.0000       10.7795       10.7795       4.442319       0.00080
  39     1.339        6.3372        0.0000       10.7794       10.7794       4.442229       0.00101
  38     1.782        6.3372        0.0000       10.7793       10.7793       4.442159       0.00133
  37     2.292        6.3372        0.0000       10.7792       10.7792       4.442065       0.00156
  36     5.035        6.3372        0.0000       10.7790       10.7790       4.441857       0.00064
  35     6.613        6.3372        0.0000       10.7785       10.7786       4.441403       0.00242
  34     8.786        6.3372        0.0000       10.7779       10.7779       4.440733       0.00260
  33     11.80        6.3372        0.0000       10.7768       10.7768       4.439681       0.00295
  32     15.07        6.3372        0.0001       10.7755       10.7756       4.438445       0.00319
  31     18.79        6.3372        0.0001       10.7740       10.7741       4.436950       0.00339
  30     23.16        6.3372        0.0001       10.7722       10.7723       4.435092       0.00359
  29     28.12        6.3372        0.0001       10.7699       10.7700       4.432842       0.00383
  28     33.73        6.3372        0.0002       10.7671       10.7673       4.430065       0.00417
  27     40.54        6.3372        0.0002       10.7633       10.7635       4.426296       0.00468
  26     48.69        6.3373        0.0002       10.7583       10.7586       4.421269       0.00520
  25     57.69        6.3374        0.0003       10.7524       10.7527       4.415302       0.00559
  24     68.43        6.3375        0.0003       10.7450       10.7453       4.407814       0.00589
  23     81.20        6.3377        0.0004       10.7359       10.7363       4.398579       0.00610
  22     96.49        6.3380        0.0005       10.7249       10.7253       4.387322       0.00621
  21     114.6        6.3384        0.0006       10.7111       10.7116       4.373215       0.00659
  20     136.5        6.3390        0.0007       10.6945       10.6952       4.356179       0.00655
  19     162.9        6.3399        0.0008       10.6744       10.6751       4.335230       0.00670
  18     196.4        6.3414        0.0009       10.6467       10.6476       4.306212       0.00730
  17     218.7        6.3428        0.0011       10.6258       10.6268       4.284054       0.00841
  16     243.0        6.3447        0.0012       10.5983       10.5995       4.254770       0.01016
  15     269.0        6.3477        0.0013       10.5613       10.5626       4.214978       0.01291
  14     297.5        6.3520        0.0014       10.5122       10.5136       4.161646       0.01582
  13     328.5        6.3579        0.0016       10.4501       10.4517       4.093804       0.01845
  12     361.9        6.3656        0.0017       10.3704       10.3721       4.006502       0.02209
  11     398.1        6.3753        0.0019       10.2679       10.2698       3.894517       0.02609
  10     437.6        6.3877        0.0021       10.1391       10.1412       3.753457       0.03016
   9     480.5        6.4036        0.0022        9.9878        9.9900       3.586428       0.03280
   8     533.0        6.4280        0.0024        9.7937        9.7962       3.368147       0.03511
   7     589.8        6.4634        0.0027        9.5752        9.5779       3.114469       0.03765
   6     651.6        6.5204        0.0029        9.2958        9.2987       2.778317       0.04597
   5     718.7        6.6163        0.0031        8.9267        8.9298       2.313570       0.05841
   4     792.3        6.7966        0.0033        8.4542        8.4575       1.660880       0.07486
   3     825.4        3.7932        4.7303        0.0954        4.8256       1.032412       0.16041
   2     858.4        2.5183        3.3144        0.0011        3.3155       0.797246       0.06003
   1     891.5        1.4602        2.1449        0.0000        2.1449       0.684627       0.02876
   0    1013.0        1.5084        2.0663        0.0000        2.0663       0.557909       0.00880



 Wavenumbers:  4650. -  5150. cm-1, ATM      1
 LEVEL PRESSURE   UPWARD FLUX   DIFDOWN FLUX  DIRDOWN FLUX  DOWNWARD FLUX   NET FLUX    HEATING RATE
          mb          W/m2          W/m2          W/m2        W/m2          W/m2       degree/day
  51    .06700        4.5291        0.0000       10.2033       10.2033       5.674261       0.00000
  50    .07753        4.5291        0.0000       10.2031       10.2031       5.674025       0.18901
  49    .09103        4.5291        0.0000       10.2028       10.2028       5.673730       0.18428
  48    0.1069        4.5291        0.0000       10.2025       10.2025       5.673393       0.17931
  47    0.1255        4.5291        0.0000       10.2021       10.2021       5.673009       0.17426
  46    0.1487        4.5291        0.0000       10.2016       10.2016       5.672528       0.17536
  45    0.1794        4.5291        0.0000       10.2010       10.2010       5.671877       0.17850
  44    0.2165        4.5291        0.0000       10.2002       10.2002       5.671118       0.17277
  43    0.2613        4.5291        0.0000       10.1993       10.1993       5.670232       0.16690
  42    0.3336        4.5291        0.0000       10.1979       10.1979       5.668800       0.16702
  41    0.4307        4.5291        0.0000       10.1960       10.1960       5.666959       0.16002
  40    0.5894        4.5291        0.0000       10.1932       10.1932       5.664086       0.15283
  39     1.339        4.5291        0.0000       10.1816       10.1816       5.652493       0.13051
  38     1.782        4.5291        0.0000       10.1760       10.1760       5.646964       0.10527
  37     2.292        4.5291        0.0000       10.1706       10.1706       5.641507       0.09038
  36     5.035        4.5291        0.0000       10.1630       10.1630       5.633920       0.02334
  35     6.613        4.5291        0.0000       10.1533       10.1533       5.624211       0.05190
  34     8.786        4.5291        0.0000       10.1442       10.1442       5.615118       0.03532
  33     11.80        4.5291        0.0001       10.1340       10.1341       5.604970       0.02841
  32     15.07        4.5291        0.0001       10.1237       10.1238       5.594697       0.02652
  31     18.79        4.5292        0.0001       10.1115       10.1117       5.582494       0.02767
  30     23.16        4.5292        0.0002       10.0961       10.0963       5.567027       0.02991
  29     28.12        4.5293        0.0002       10.0769       10.0771       5.547748       0.03277
  28     33.73        4.5294        0.0002       10.0536       10.0539       5.524428       0.03506
  27     40.54        4.5296        0.0003       10.0235       10.0238       5.494223       0.03747
  26     48.69        4.5298        0.0003        9.9852        9.9855       5.455652       0.03992
  25     57.69        4.5301        0.0004        9.9414        9.9418       5.411636       0.04126
  24     68.43        4.5306        0.0005        9.8884        9.8889       5.358293       0.04193
  23     81.20        4.5312        0.0006        9.8258        9.8263       5.295126       0.04174
  22     96.49        4.5320        0.0007        9.7537        9.7544       5.222332       0.04018
  21     114.6        4.5332        0.0008        9.6735        9.6743       5.141060       0.03795
  20     136.5        4.5348        0.0009        9.5870        9.5879       5.053095       0.03382
  19     162.9        4.5371        0.0011        9.4949        9.4960       4.958923       0.03010
  18     196.4        4.5406        0.0013        9.3889        9.3902       4.849617       0.02751
  17     218.7        4.5433        0.0014        9.3234        9.3248       4.781538       0.02585
  16     243.0        4.5469        0.0016        9.2524        9.2540       4.707104       0.02582
  15     269.0        4.5516        0.0018        9.1720        9.1737       4.622109       0.02757
  14     297.5        4.5583        0.0019        9.0765        9.0785       4.520180       0.03023
  13     328.5        4.5670        0.0021        8.9652        8.9673       4.400320       0.03259
  12     361.9        4.5782        0.0023        8.8351        8.8374       4.259210       0.03570
  11     398.1        4.5928        0.0025        8.6822        8.6847       4.091904       0.03898
  10     437.6        4.6118        0.0027        8.5030        8.5057       3.893899       0.04233
   9     480.5        4.6365        0.0029        8.2950        8.2979       3.661404       0.04566
   8     533.0        4.6742        0.0032        8.0210        8.0242       3.349982       0.05010
   7     589.8        4.7267        0.0034        7.7064        7.7098       2.983136       0.05445
   6     651.6        4.8045        0.0036        7.3413        7.3450       2.540411       0.06054
   5     718.7        4.9225        0.0039        6.9387        6.9426       2.020075       0.06539
   4     792.3        5.1114        0.0041        6.5066        6.5107       1.399267       0.07120
   3     825.4        2.7203        3.4811        0.0726        3.5538       0.833481       0.14441
   2     858.4        1.7457        2.3445        0.0008        2.3453       0.599657       0.05969
   1     891.5        0.9823        1.4705        0.0000        1.4705       0.488202       0.02846
   0    1013.0        1.0242        1.4030        0.0000        1.4030       0.378818       0.00760



 Wavenumbers:  5150. -  6150. cm-1, ATM      1
 LEVEL PRESSURE   UPWARD FLUX   DIFDOWN FLUX  DIRDOWN FLUX  DOWNWARD FLUX   NET FLUX    HEATING RATE
          mb          W/m2          W/m2          W/m2        W/m2          W/m2       degree/day
  51    .06700       10.9876        0.0000       25.5798       25.5798      14.592224       0.00000
  50    .07753       10.9876        0.0000       25.5798       25.5798      14.592185       0.03162
  49    .09103       10.9876        0.0000       25.5797       25.5797      14.592133       0.03210
  48    0.1069       10.9876        0.0000       25.5797       25.5797      14.592072       0.03261
  47    0.1255       10.9876        0.0000       25.5796       25.5796      14.591999       0.03311
  46    0.1487       10.9876        0.0000       25.5795       25.5795      14.591903       0.03488
  45    0.1794       10.9876        0.0000       25.5794       25.5794      14.591768       0.03713
  44    0.2165       10.9876        0.0000       25.5792       25.5792      14.591602       0.03769
  43    0.2613       10.9876        0.0000       25.5790       25.5790      14.591399       0.03827
  42    0.3336       10.9876        0.0000       25.5786       25.5786      14.591052       0.04043
  41    0.4307       10.9876        0.0000       25.5782       25.5782      14.590581       0.04097
  40    0.5894       10.9876        0.0000       25.5774       25.5774      14.589792       0.04198
  39     1.339       10.9876        0.0000       25.5735       25.5736      14.585988       0.04283
  38     1.782       10.9876        0.0001       25.5713       25.5714      14.583773       0.04217
  37     2.292       10.9876        0.0001       25.5688       25.5688      14.581265       0.04153
  36     5.035       10.9876        0.0001       25.5647       25.5648      14.577165       0.01261
  35     6.613       10.9876        0.0002       25.5576       25.5578      14.570177       0.03736
  34     8.786       10.9876        0.0002       25.5485       25.5487      14.561120       0.03517
  33     11.80       10.9877        0.0003       25.5362       25.5365      14.548869       0.03430
  32     15.07       10.9877        0.0004       25.5239       25.5243      14.536583       0.03172
  31     18.79       10.9878        0.0005       25.5110       25.5115      14.523736       0.02913
  30     23.16       10.9878        0.0007       25.4971       25.4977      14.509897       0.02676
  29     28.12       10.9880        0.0008       25.4824       25.4833      14.495301       0.02481
  28     33.73       10.9881        0.0010       25.4676       25.4686      14.480504       0.02225
  27     40.54       10.9883        0.0012       25.4514       25.4526      14.464310       0.02009
  26     48.69       10.9886        0.0015       25.4341       25.4356      14.446951       0.01796
  25     57.69       10.9890        0.0018       25.4169       25.4187      14.429699       0.01617
  24     68.43       10.9895        0.0021       25.3983       25.4004      14.410952       0.01474
  23     81.20       10.9901        0.0025       25.3779       25.3804      14.390310       0.01364
  22     96.49       10.9909        0.0030       25.3550       25.3580      14.367112       0.01280
  21     114.6       10.9918        0.0036       25.3288       25.3323      14.340523       0.01242
  20     136.5       10.9930        0.0043       25.2983       25.3026      14.309609       0.01189
  19     162.9       10.9945        0.0051       25.2537       25.2588      14.264314       0.01448
  18     196.4       10.9965        0.0061       25.1601       25.1663      14.169776       0.02380
  17     218.7       10.9980        0.0068       25.0164       25.0232      14.025203       0.05489
  16     243.0       10.9998        0.0075       24.7092       24.7167      13.716970       0.10691
  15     269.0       11.0021        0.0082       24.1621       24.1703      13.168251       0.17800
  14     297.5       11.0052        0.0089       23.4546       23.4635      12.458316       0.21056
  13     328.5       11.0092        0.0096       22.7357       22.7452      11.736043       0.19638
  12     361.9       11.0145        0.0103       21.9226       21.9329      10.918391       0.20687
  11     398.1       11.0216        0.0110       20.9941       21.0051       9.983460       0.21782
  10     437.6       11.0314        0.0116       19.9835       19.9951       8.963727       0.21803
   9     480.5       11.0449        0.0123       18.9485       18.9608       7.915827       0.20580
   8     533.0       11.0677        0.0130       17.7798       17.7928       6.725044       0.19156
   7     589.8       11.1045        0.0138       16.6727       16.6865       5.581964       0.16967
   6     651.6       11.1716        0.0146       15.6344       15.6490       4.477357       0.15106
   5     718.7       11.2944        0.0154       14.7739       14.7893       3.494950       0.12346
   4     792.3       11.5392        0.0164       14.0292       14.0456       2.506440       0.11337
   3     825.4        6.7144        8.1813        0.1601        8.3414       1.626977       0.22448
   2     858.4        4.6212        5.9429        0.0019        5.9447       1.323529       0.07746
   1     891.5        2.7952        3.9895        0.0000        3.9895       1.194318       0.03299
   0    1013.0        2.8482        3.9017        0.0000        3.9017       1.053454       0.00978



 Wavenumbers:  6150. -  7700. cm-1, ATM      1
 LEVEL PRESSURE   UPWARD FLUX   DIFDOWN FLUX  DIRDOWN FLUX  DOWNWARD FLUX   NET FLUX    HEATING RATE
          mb          W/m2          W/m2          W/m2        W/m2          W/m2       degree/day
  51    .06700       17.3039        0.0000       47.3109       47.3109      30.006990       0.00000
  50    .07753       17.3039        0.0000       47.3108       47.3108      30.006933       0.04553
  49    .09103       17.3039        0.0000       47.3107       47.3107      30.006860       0.04583
  48    0.1069       17.3039        0.0000       47.3106       47.3106      30.006773       0.04614
  47    0.1255       17.3039        0.0000       47.3105       47.3105      30.006671       0.04645
  46    0.1487       17.3039        0.0000       47.3104       47.3104      30.006538       0.04852
  45    0.1794       17.3039        0.0000       47.3102       47.3102      30.006351       0.05127
  44    0.2165       17.3039        0.0000       47.3100       47.3100      30.006124       0.05167
  43    0.2613       17.3039        0.0000       47.3097       47.3097      30.005848       0.05210
  42    0.3336       17.3038        0.0000       47.3092       47.3092      30.005378       0.05471
  41    0.4307       17.3038        0.0000       47.3085       47.3086      30.004743       0.05521
  40    0.5894       17.3038        0.0001       47.3074       47.3075      30.003684       0.05633
  39     1.339       17.3038        0.0002       47.3022       47.3024      29.998592       0.05733
  38     1.782       17.3037        0.0002       47.2991       47.2994      29.995622       0.05655
  37     2.292       17.3037        0.0003       47.2956       47.2959      29.992246       0.05591
  36     5.035       17.3036        0.0004       47.2899       47.2903      29.986670       0.01715
  35     6.613       17.3035        0.0006       47.2800       47.2806      29.977095       0.05119
  34     8.786       17.3033        0.0009       47.2670       47.2679      29.964551       0.04872
  33     11.80       17.3031        0.0013       47.2491       47.2504      29.947314       0.04826
  32     15.07       17.3028        0.0017       47.2308       47.2325      29.929689       0.04550
  31     18.79       17.3026        0.0022       47.2112       47.2134      29.910854       0.04271
  30     23.16       17.3022        0.0028       47.1895       47.1923      29.890077       0.04018
  29     28.12       17.3018        0.0034       47.1661       47.1695      29.867674       0.03808
  28     33.73       17.3014        0.0042       47.1416       47.1457      29.844334       0.03509
  27     40.54       17.3009        0.0050       47.1141       47.1191      29.818243       0.03237
  26     48.69       17.3003        0.0061       47.0837       47.0898      29.789503       0.02974
  25     57.69       17.2996        0.0073       47.0527       47.0600      29.760407       0.02727
  24     68.43       17.2988        0.0087       47.0183       47.0269      29.728167       0.02535
  23     81.20       17.2978        0.0103       46.9796       46.9899      29.692140       0.02381
  22     96.49       17.2966        0.0123       46.9356       46.9479      29.651233       0.02258
  21     114.6       17.2953        0.0147       46.8846       46.8993      29.604001       0.02205
  20     136.5       17.2937        0.0175       46.8250       46.8424      29.548745       0.02125
  19     162.9       17.2918        0.0208       46.7403       46.7611      29.469327       0.02539
  18     196.4       17.2895        0.0251       46.5732       46.5983      29.308807       0.04040
  17     218.7       17.2882        0.0278       46.3491       46.3769      29.088776       0.08354
  16     243.0       17.2871        0.0307       45.9309       45.9616      28.674545       0.14367
  15     269.0       17.2866        0.0337       45.1716       45.2052      27.918581       0.24523
  14     297.5       17.2876        0.0365       44.0121       44.0486      26.761025       0.34332
  13     328.5       17.2903        0.0395       42.7247       42.7642      25.473806       0.34999
  12     361.9       17.2959        0.0425       41.3543       41.3968      24.100892       0.34736
  11     398.1       17.3058        0.0454       39.7956       39.8410      22.535251       0.36476
  10     437.6       17.3227        0.0482       37.9951       38.0433      20.720625       0.38798
   9     480.5       17.3498        0.0508       36.0650       36.1159      18.766077       0.38387
   8     533.0       17.4010        0.0537       33.7776       33.8313      16.430296       0.37575
   7     589.8       17.4905        0.0564       31.4085       31.4648      13.974360       0.36454
   6     651.6       17.6631        0.0586       28.8836       28.9422      11.279103       0.36858
   5     718.7       17.9923        0.0606       26.4106       26.4711       8.478853       0.35191
   4     792.3       18.6864        0.0622       24.0058       24.0680       5.381577       0.35522
   3     825.4       10.1114       12.7317        0.2601       12.9918       2.880478       0.63839
   2     858.4        6.6852        8.8010        0.0029        8.8039       2.118751       0.19444
   1     891.5        3.8890        5.6951        0.0000        5.6951       1.806105       0.07983
   0    1013.0        4.0075        5.4896        0.0000        5.4897       1.482208       0.02249



 Wavenumbers:  7700. -  8050. cm-1, ATM      1
 LEVEL PRESSURE   UPWARD FLUX   DIFDOWN FLUX  DIRDOWN FLUX  DOWNWARD FLUX   NET FLUX    HEATING RATE
          mb          W/m2          W/m2          W/m2        W/m2          W/m2       degree/day
  51    .06700        8.1488        0.0000       11.1810       11.1810       3.032168       0.00000
  50    .07753        8.1488        0.0000       11.1809       11.1809       3.032144       0.01877
  49    .09103        8.1488        0.0000       11.1809       11.1809       3.032115       0.01840
  48    0.1069        8.1488        0.0000       11.1809       11.1809       3.032081       0.01801
  47    0.1255        8.1488        0.0000       11.1809       11.1809       3.032042       0.01763
  46    0.1487        8.1488        0.0000       11.1808       11.1808       3.031993       0.01789
  45    0.1794        8.1489        0.0000       11.1808       11.1808       3.031926       0.01840
  44    0.2165        8.1489        0.0000       11.1807       11.1807       3.031847       0.01805
  43    0.2613        8.1489        0.0000       11.1806       11.1806       3.031753       0.01772
  42    0.3336        8.1489        0.0000       11.1805       11.1805       3.031597       0.01813
  41    0.4307        8.1490        0.0000       11.1803       11.1804       3.031391       0.01793
  40    0.5894        8.1491        0.0000       11.1801       11.1801       3.031054       0.01791
  39     1.339        8.1494        0.0001       11.1788       11.1789       3.029461       0.01794
  38     1.782        8.1496        0.0001       11.1781       11.1782       3.028525       0.01782
  37     2.292        8.1499        0.0001       11.1772       11.1773       3.027441       0.01795
  36     5.035        8.1503        0.0002       11.1757       11.1759       3.025561       0.00579
  35     6.613        8.1511        0.0003       11.1731       11.1733       3.022222       0.01785
  34     8.786        8.1522        0.0004       11.1695       11.1699       3.017723       0.01747
  33     11.80        8.1537        0.0006       11.1644       11.1650       3.011289       0.01801
  32     15.07        8.1553        0.0008       11.1589       11.1597       3.004386       0.01782
  31     18.79        8.1572        0.0010       11.1528       11.1538       2.996594       0.01767
  30     23.16        8.1594        0.0013       11.1456       11.1469       2.987501       0.01758
  29     28.12        8.1618        0.0016       11.1374       11.1390       2.977114       0.01766
  28     33.73        8.1646        0.0019       11.1282       11.1302       2.965509       0.01745
  27     40.54        8.1680        0.0023       11.1172       11.1196       2.951513       0.01736
  26     48.69        8.1722        0.0028       11.1040       11.1068       2.934678       0.01742
  25     57.69        8.1767        0.0034       11.0896       11.0929       2.916237       0.01729
  24     68.43        8.1822        0.0040       11.0725       11.0765       2.894343       0.01721
  23     81.20        8.1887        0.0048       11.0523       11.0571       2.868359       0.01717
  22     96.49        8.1966        0.0057       11.0284       11.0341       2.837541       0.01701
  21     114.6        8.2060        0.0068       11.0004       11.0072       2.801147       0.01699
  20     136.5        8.2173        0.0081       10.9676       10.9756       2.758280       0.01648
  19     162.9        8.2310        0.0096       10.9290       10.9386       2.707592       0.01620
  18     196.4        8.2491        0.0116       10.8799       10.8915       2.642396       0.01641
  17     218.7        8.2612        0.0129       10.8482       10.8610       2.599852       0.01615
  16     243.0        8.2745        0.0143       10.8140       10.8283       2.553783       0.01598
  15     269.0        8.2892        0.0158       10.7774       10.7932       2.503973       0.01616
  14     297.5        8.3055        0.0174       10.7382       10.7556       2.450130       0.01597
  13     328.5        8.3235        0.0192       10.6962       10.7154       2.391865       0.01584
  12     361.9        8.3435        0.0211       10.6512       10.6724       2.328867       0.01594
  11     398.1        8.3657        0.0232       10.6031       10.6263       2.260517       0.01592
  10     437.6        8.3907        0.0254       10.5513       10.5767       2.186043       0.01592
   9     480.5        8.4187        0.0278       10.4956       10.5234       2.104714       0.01597
   8     533.0        8.4552        0.0307       10.4264       10.4571       2.001890       0.01654
   7     589.8        8.4978        0.0338       10.3500       10.3838       1.885984       0.01720
   6     651.6        8.5489        0.0372       10.2633       10.3005       1.751611       0.01838
   5     718.7        8.6115        0.0407       10.1637       10.2044       1.592865       0.01995
   4     792.3        8.6912        0.0445       10.0457       10.0902       1.399016       0.02223
   3     825.4        5.2891        6.3494        0.1205        6.4699       1.180818       0.05569
   2     858.4        3.6725        4.7107        0.0014        4.7121       1.039649       0.03604
   1     891.5        2.2270        3.1731        0.0000        3.1732       0.946153       0.02387
   0    1013.0        2.2708        3.1106        0.0000        3.1106       0.839871       0.00738



 Wavenumbers:  8050. - 12850. cm-1, ATM      1
 LEVEL PRESSURE   UPWARD FLUX   DIFDOWN FLUX  DIRDOWN FLUX  DOWNWARD FLUX   NET FLUX    HEATING RATE
          mb          W/m2          W/m2          W/m2        W/m2          W/m2       degree/day
  51    .06700      105.1943        0.0000      156.5418      156.5418      51.347447       0.00000
  50    .07753      105.1943        0.0000      156.5417      156.5417      51.347447       0.00000
  49    .09103      105.1943        0.0001      156.5417      156.5417      51.347447      -0.00000
  48    0.1069      105.1943        0.0001      156.5416      156.5417      51.347447       0.00000
  47    0.1255      105.1942        0.0002      156.5415      156.5417      51.347447      -0.00000
  46    0.1487      105.1942        0.0002      156.5414      156.5417      51.347447      -0.00000
  45    0.1794      105.1942        0.0003      156.5413      156.5416      51.347447       0.00000
  44    0.2165      105.1942        0.0004      156.5412      156.5416      51.347447       0.00000
  43    0.2613      105.1941        0.0006      156.5410      156.5416      51.347447      -0.00000
  42    0.3336      105.1940        0.0008      156.5407      156.5415      51.347447       0.00000
  41    0.4307      105.1939        0.0011      156.5403      156.5414      51.347447       0.00000
  40    0.5894      105.1938        0.0015      156.5397      156.5412      51.347447      -0.00000
  39     1.339      105.1930        0.0037      156.5367      156.5405      51.347447       0.00000
  38     1.782      105.1926        0.0050      156.5350      156.5400      51.347447       0.00000
  37     2.292      105.1920        0.0065      156.5330      156.5395      51.347447       0.00000
  36     5.035      105.1912        0.0091      156.5295      156.5386      51.347447      -0.00000
  35     6.613      105.1896        0.0137      156.5233      156.5370      51.347447      -0.00000
  34     8.786      105.1874        0.0199      156.5149      156.5349      51.347447       0.00000
  33     11.80      105.1843        0.0288      156.5029      156.5318      51.347447       0.00000
  32     15.07      105.1810        0.0384      156.4901      156.5285      51.347447       0.00000
  31     18.79      105.1773        0.0492      156.4755      156.5247      51.347447      -0.00000
  30     23.16      105.1729        0.0619      156.4585      156.5204      51.347447       0.00000
  29     28.12      105.1679        0.0764      156.4390      156.5153      51.347447      -0.00000
  28     33.73      105.1623        0.0926      156.4171      156.5097      51.347447       0.00000
  27     40.54      105.1555        0.1122      156.3907      156.5029      51.347447       0.00000
  26     48.69      105.1473        0.1359      156.3588      156.4947      51.347447       0.00000
  25     57.69      105.1383        0.1620      156.3237      156.4857      51.347447       0.00000
  24     68.43      105.1275        0.1931      156.2818      156.4749      51.347447       0.00000
  23     81.20      105.1147        0.2302      156.2319      156.4621      51.347447       0.00000
  22     96.49      105.0993        0.2746      156.1722      156.4468      51.347447       0.00000
  21     114.6      105.0813        0.3273      156.0952      156.4225      51.341182       0.00293
  20     136.5      105.0599        0.3899      156.0034      156.3933      51.333413       0.00299
  19     162.9      105.0344        0.4646      155.8903      156.3549      51.320531       0.00412
  18     196.4      105.0014        0.5618      155.7272      156.2890      51.287566       0.00830
  17     218.7      104.9801        0.6257      155.5805      156.2062      51.226121       0.02333
  16     243.0      104.9580        0.6951      155.3439      156.0391      51.081040       0.05032
  15     269.0      104.9366        0.7703      154.9586      155.7289      50.792306       0.09366
  14     297.5      104.9185        0.8512      154.3968      155.2480      50.329579       0.13724
  13     328.5      104.9051        0.9385      153.7223      154.6608      49.755636       0.15605
  12     361.9      104.9001        1.0321      152.9159      153.9480      49.047983       0.17904
  11     398.1      104.9090        1.1324      151.9057      153.0381      48.129117       0.21408
  10     437.6      104.9417        1.2390      150.6102      151.8492      46.907525       0.26118
   9     480.5      105.0101        1.3518      149.0084      150.3602      45.350060       0.30588
   8     533.0      105.1577        1.4882      146.7445      148.2327      43.075019       0.36598
   7     589.8      105.4347        1.6313      143.8798      145.5111      40.076349       0.44510
   6     651.6      105.9860        1.7781      140.1022      141.8802      35.894255       0.57191
   5     718.7      107.0249        1.9270      135.5343      137.4613      30.436434       0.68590
   4     792.3      109.0869        2.0745      130.0753      132.1498      23.062902       0.84566
   3     825.4       63.6329       77.7665        1.4930       79.2595      15.626646       1.89806
   2     858.4       43.4956       56.2142        0.0174       56.2316      12.736034       0.73788
   1     891.5       26.0421       37.4174        0.0002       37.4176      11.375529       0.34740
   0    1013.0       26.6144       36.4579        0.0002       36.4581       9.843684       0.10636



 Wavenumbers: 12850. - 16000. cm-1, ATM      1
 LEVEL PRESSURE   UPWARD FLUX   DIFDOWN FLUX  DIRDOWN FLUX  DOWNWARD FLUX   NET FLUX    HEATING RATE
          mb          W/m2          W/m2          W/m2        W/m2          W/m2       degree/day
  51    .06700       78.1006        0.0000       98.0872       98.0872      19.986689       0.00000
  50    .07753       78.1005        0.0001       98.0864       98.0864      19.985897       0.63477
  49    .09103       78.1005        0.0002       98.0853       98.0855      19.984902       0.62173
  48    0.1069       78.1006        0.0003       98.0841       98.0843      19.983759       0.60845
  47    0.1255       78.1006        0.0004       98.0826       98.0830      19.982445       0.59547
  46    0.1487       78.1006        0.0005       98.0809       98.0814      19.980787       0.60434
  45    0.1794       78.1006        0.0007       98.0784       98.0792      19.978532       0.61926
  44    0.2165       78.1007        0.0010       98.0756       98.0766      19.975878       0.60374
  43    0.2613       78.1008        0.0012       98.0723       98.0736      19.972756       0.58844
  42    0.3336       78.1011        0.0017       98.0670       98.0687      19.967659       0.59421
  41    0.4307       78.1015        0.0023       98.0602       98.0625      19.961066       0.57323
  40    0.5894       78.1023        0.0033       98.0496       98.0529      19.950673       0.55271
  39     1.339       78.1090        0.0081       98.0043       98.0125      19.903506       0.53102
  38     1.782       78.1151        0.0110       97.9793       97.9902      19.875143       0.53999
  37     2.292       78.1242        0.0142       97.9498       97.9640      19.839785       0.58562
  36     5.035       78.1485        0.0199       97.8891       97.9090      19.760516       0.24389
  35     6.613       78.1994        0.0299       97.7746       97.8045      19.605063       0.83105
  34     8.786       78.2658        0.0434       97.6278       97.6712      19.405395       0.77544
  33     11.80       78.3522        0.0626       97.4339       97.4965      19.144349       0.73085
  32     15.07       78.4350        0.0833       97.2433       97.3266      18.891606       0.65253
  31     18.79       78.5197        0.1067       97.0439       97.1505      18.630865       0.59118
  30     23.16       78.6083        0.1339       96.8292       96.9631      18.354838       0.53375
  29     28.12       78.6975        0.1650       96.6048       96.7698      18.072295       0.48030
  28     33.73       78.7803        0.1999       96.3831       96.5829      17.802676       0.40538
  27     40.54       78.8603        0.2419       96.1494       96.3913      17.530970       0.33708
  26     48.69       78.9375        0.2927       95.9016       96.1943      17.256825       0.28370
  25     57.69       79.0035        0.3484       95.6629       96.0113      17.007799       0.23343
  24     68.43       79.0620        0.4148       95.4149       95.8297      16.767738       0.18872
  23     81.20       79.1038        0.4940       95.1674       95.6614      16.557552       0.13889
  22     96.49       79.1281        0.5885       94.9172       95.5057      16.377620       0.09931
  21     114.6       79.1559        0.7018       94.6421       95.3439      16.187985       0.08855
  20     136.5       79.1778        0.8361       94.3324       95.1684      15.990597       0.07590
  19     162.9       79.1938        0.9959       93.9750       94.9709      15.777074       0.06825
  18     196.4       79.1931        1.2032       93.5336       94.7369      15.543745       0.05873
  17     218.7       79.1851        1.3394       93.2498       94.5892      15.404102       0.05302
  16     243.0       79.1733        1.4874       92.9420       94.4294      15.256021       0.05136
  15     269.0       79.1579        1.6477       92.6087       94.2564      15.098442       0.05112
  14     297.5       79.1396        1.8210       92.2464       94.0674      14.927810       0.05061
  13     328.5       79.1206        2.0082       91.8517       93.8599      14.739371       0.05124
  12     361.9       79.1019        2.2097       91.4219       93.6316      14.529685       0.05305
  11     398.1       79.0855        2.4266       90.9524       93.3790      14.293533       0.05502
  10     437.6       79.0747        2.6593       90.4358       93.0951      14.020397       0.05840
   9     480.5       79.0733        2.9085       89.8659       92.7744      13.701163       0.06270
   8     533.0       79.0907        3.2149       89.1347       92.3496      13.258949       0.07114
   7     589.8       79.1448        3.5441       88.2943       91.8384      12.693556       0.08392
   6     651.6       79.2747        3.8956       87.2867       91.1823      11.907621       0.10748
   5     718.7       79.5106        4.2681       86.1028       90.3709      10.860267       0.13162
   4     792.3       79.9429        4.6576       84.6812       89.3388       9.395833       0.16795
   3     825.4       54.6837       61.3604        1.0081       62.3685       7.684821       0.43673
   2     858.4       44.1606       50.8754        0.0120       50.8875       6.726824       0.24455
   1     891.5       34.8098       40.9200        0.0001       40.9202       6.110330       0.15742
   0    1013.0       35.1573       40.4431        0.0001       40.4433       5.285935       0.05724



 Wavenumbers: 16000. - 22650. cm-1, ATM      1
 LEVEL PRESSURE   UPWARD FLUX   DIFDOWN FLUX  DIRDOWN FLUX  DOWNWARD FLUX   NET FLUX    HEATING RATE
          mb          W/m2          W/m2          W/m2        W/m2          W/m2       degree/day
  51    .06700      139.9413        0.0000      156.3892      156.3892      16.447906       0.00000
  50    .07753      139.9413        0.0004      156.3887      156.3891      16.447759       0.11790
  49    .09103      139.9413        0.0009      156.3879      156.3888      16.447545       0.13372
  48    0.1069      139.9413        0.0015      156.3871      156.3885      16.447258       0.15249
  47    0.1255      139.9413        0.0021      156.3861      156.3882      16.446875       0.17382
  46    0.1487      139.9414        0.0029      156.3847      156.3877      16.446310       0.20597
  45    0.1794      139.9415        0.0041      156.3828      156.3869      16.445426       0.24252
  44    0.2165      139.9417        0.0054      156.3805      156.3859      16.444228       0.27256
  43    0.2613      139.9420        0.0070      156.3776      156.3846      16.442603       0.30642
  42    0.3336      139.9428        0.0096      156.3726      156.3823      16.439512       0.36035
  41    0.4307      139.9440        0.0131      156.3657      156.3788      16.434853       0.40507
  40    0.5894      139.9465        0.0188      156.3537      156.3725      16.425968       0.47249
  39     1.339      139.9688        0.0457      156.2834      156.3291      16.360324       0.73903
  38     1.782      139.9895        0.0615      156.2324      156.2939      16.304404       1.06463
  37     2.292      140.0204        0.0798      156.1641      156.2439      16.223459       1.34066
  36     5.035      140.1037        0.1115      156.0076      156.1191      16.015351       0.64029
  35     6.613      140.2790        0.1677      155.6950      155.8627      15.583723       2.30748
  34     8.786      140.5073        0.2434      155.2860      155.5294      15.022089       2.18118
  33     11.80      140.8044        0.3515      154.7422      155.0937      14.289322       2.05152
  32     15.07      141.0889        0.4674      154.2059      154.6733      13.584445       1.81986
  31     18.79      141.3793        0.5981      153.6432      154.2413      12.862033       1.63793
  30     23.16      141.6826        0.7505      153.0352      153.7856      12.102989       1.46775
  29     28.12      141.9878        0.9245      152.3965      153.3210      11.333218       1.30856
  28     33.73      142.2692        1.1189      151.7604      152.8794      10.610197       1.08708
  27     40.54      142.5396        1.3537      151.0815      152.4352       9.895617       0.88652
  26     48.69      142.7982        1.6364      150.3500      151.9864       9.188198       0.73207
  25     57.69      143.0169        1.9465      149.6296      151.5761       8.559253       0.58954
  24     68.43      143.2069        2.3154      148.8604      151.1758       7.968860       0.46413
  23     81.20      143.3368        2.7546      148.0628      150.8173       7.480485       0.32271
  22     96.49      143.4021        3.2773      147.2220      150.4993       7.097247       0.21152
  21     114.6      143.4336        3.8962      146.2838      150.1800       6.746360       0.16384
  20     136.5      143.4399        4.6269      145.2142      149.8411       6.401190       0.13273
  19     162.9      143.4191        5.4930      143.9816      149.4745       6.055442       0.11051
  18     196.4      143.3310        6.6104      142.4652      149.0755       5.744491       0.07827
  17     218.7      143.2509        7.3405      141.5017      148.8422       5.591304       0.05816
  16     243.0      143.1535        8.1308      140.4717      148.6025       5.449022       0.04935
  15     269.0      143.0372        8.9833      139.3740      148.3573       5.320043       0.04184
  14     297.5      142.9016        9.9001      138.2062      148.1063       5.204730       0.03420
  13     328.5      142.7504       10.8854      136.9574      147.8429       5.092471       0.03052
  12     361.9      142.5834       11.9403      135.6265      147.5668       4.983394       0.02760
  11     398.1      142.4003       13.0687      134.2081      147.2768       4.876587       0.02488
  10     437.6      142.2018       14.2726      132.6981      146.9707       4.768881       0.02303
   9     480.5      141.9877       15.5541      131.0935      146.6476       4.659951       0.02139
   8     533.0      141.7244       17.1192      129.1351      146.2543       4.529900       0.02092
   7     589.8      141.4449       18.7913      127.0392      145.8305       4.385605       0.02142
   6     651.6      141.1558       20.5721      124.7944      145.3665       4.210652       0.02393
   5     718.7      140.8636       22.4631      122.3908      144.8539       3.990254       0.02770
   4     792.3      140.5859       24.4623      119.8121      144.2744       3.688526       0.03460
   3     825.4      116.6899      118.5282        1.4206      119.9488       3.258901       0.10966
   2     858.4      111.9732      114.8773        0.0168      114.8941       2.920928       0.08627
   1     891.5      107.9288      110.5563        0.0002      110.5565       2.627705       0.07487
   0    1013.0      108.1121      110.3070        0.0002      110.3072       2.195114       0.03004



 Wavenumbers: 22650. - 29000. cm-1, ATM      1
 LEVEL PRESSURE   UPWARD FLUX   DIFDOWN FLUX  DIRDOWN FLUX  DOWNWARD FLUX   NET FLUX    HEATING RATE
          mb          W/m2          W/m2          W/m2        W/m2          W/m2       degree/day
  51    .06700       58.1143        0.0000       59.0156       59.0156       0.901342       0.00000
  50    .07753       58.1142        0.0005       59.0151       59.0155       0.901342       0.00000
  49    .09103       58.1141        0.0010       59.0144       59.0154       0.901342      -0.00000
  48    0.1069       58.1139        0.0017       59.0136       59.0153       0.901342       0.00000
  47    0.1255       58.1138        0.0025       59.0127       59.0151       0.901342       0.00000
  46    0.1487       58.1136        0.0034       59.0115       59.0149       0.901342       0.00000
  45    0.1794       58.1133        0.0048       59.0099       59.0147       0.901342       0.00000
  44    0.2165       58.1130        0.0063       59.0080       59.0144       0.901342      -0.00000
  43    0.2613       58.1127        0.0082       59.0058       59.0140       0.901342       0.00000
  42    0.3336       58.1121        0.0112       59.0022       59.0134       0.901342       0.00000
  41    0.4307       58.1113        0.0153       58.9973       59.0126       0.901342      -0.00000
  40    0.5894       58.1099        0.0219       58.9894       59.0113       0.901342       0.00000
  39     1.339       58.1038        0.0533       58.9518       59.0051       0.901342       0.00000
  38     1.782       58.1001        0.0718       58.9297       59.0015       0.901342      -0.00000
  37     2.292       58.0959        0.0931       58.9042       58.9973       0.901342       0.00000
  36     5.035       58.0886        0.1301       58.8599       58.9900       0.901342       0.00000
  35     6.613       58.0757        0.1958       58.7812       58.9770       0.901342      -0.00000
  34     8.786       58.0582        0.2842       58.6754       58.9596       0.901342       0.00000
  33     11.80       58.0333        0.4105       58.5242       58.9347       0.901342      -0.00000
  32     15.07       58.0066        0.5459       58.3621       58.9080       0.901342       0.00000
  31     18.79       57.9765        0.6985       58.1794       58.8778       0.901342       0.00000
  30     23.16       57.9414        0.8763       57.9665       58.8428       0.901342       0.00000
  29     28.12       57.9014        1.0790       57.7237       58.8027       0.901342      -0.00000
  28     33.73       57.8568        1.3052       57.4530       58.7581       0.901342       0.00000
  27     40.54       57.8031        1.5772       57.1272       58.7044       0.901342      -0.00000
  26     48.69       57.7386        1.9034       56.7366       58.6400       0.901342       0.00000
  25     57.69       57.6683        2.2596       56.3100       58.5696       0.901342      -0.00000
  24     68.43       57.5851        2.6807       55.8057       58.4864       0.901342       0.00000
  23     81.20       57.4867        3.1781       55.2100       58.3881       0.901342       0.00000
  22     96.49       57.3708        3.7644       54.5077       58.2721       0.901342       0.00000
  21     114.6       57.2348        4.4516       53.6845       58.1361       0.901342      -0.00000
  20     136.5       57.0759        5.2536       52.7236       57.9772       0.901342       0.00000
  19     162.9       56.8900        6.1911       51.6003       57.7914       0.901342      -0.00000
  18     196.4       56.6543        7.3786       50.1770       57.5557       0.901342      -0.00000
  17     218.7       56.5027        8.1417       49.2623       57.4040       0.901342       0.00000
  16     243.0       56.3407        8.9563       48.2857       57.2420       0.901342       0.00000
  15     269.0       56.1683        9.8220       47.2476       57.0696       0.901342      -0.00000
  14     297.5       55.9857       10.7380       46.1491       56.8871       0.901342      -0.00000
  13     328.5       55.7926       11.7055       44.9884       56.6939       0.901342      -0.00000
  12     361.9       55.5894       12.7220       43.7687       56.4907       0.901342       0.00000
  11     398.1       55.3760       13.7876       42.4898       56.2774       0.901342       0.00000
  10     437.6       55.1529       14.9001       41.1542       56.0542       0.901342      -0.00000
   9     480.5       54.9204       16.0570       39.7647       55.8217       0.901342      -0.00000
   8     533.0       54.6432       17.4328       38.1118       55.5446       0.901342       0.00000
   7     589.8       54.3552       18.8587       36.3978       55.2565       0.901342      -0.00000
   6     651.6       54.0575       20.3274       34.6314       54.9588       0.901342       0.00000
   5     718.7       53.7511       21.8333       32.8192       54.6524       0.901342      -0.00000
   4     792.3       53.4376       23.3674       30.9715       54.3390       0.901342      -0.00000
   3     825.4       47.1760       47.7275        0.3494       48.0770       0.900945       0.00010
   2     858.4       45.7443       46.6409        0.0039       46.6449       0.900569       0.00010
   1     891.5       44.3676       45.2678        0.0000       45.2678       0.900205       0.00009
   0    1013.0       44.3362       45.2364        0.0000       45.2365       0.900205      -0.00000



 Wavenumbers: 29000. - 38000. cm-1, ATM      1
 LEVEL PRESSURE   UPWARD FLUX   DIFDOWN FLUX  DIRDOWN FLUX  DOWNWARD FLUX   NET FLUX    HEATING RATE
          mb          W/m2          W/m2          W/m2        W/m2          W/m2       degree/day
  51    .06700        8.7627        0.0000       20.8114       20.8114      12.048654       0.00000
  50    .07753        8.7625        0.0003       20.8070       20.8074      12.044846       3.05173
  49    .09103        8.7623        0.0007       20.8009       20.8016      12.039309       3.46106
  48    0.1069        8.7620        0.0012       20.7928       20.7939      12.031899       3.94453
  47    0.1255        8.7618        0.0017       20.7820       20.7837      12.021993       4.49061
  46    0.1487        8.7614        0.0024       20.7665       20.7688      12.007429       5.30877
  45    0.1794        8.7610        0.0033       20.7424       20.7457      11.984763       6.22243
  44    0.2165        8.7604        0.0044       20.7103       20.7147      11.954238       6.94384
  43    0.2613        8.7599        0.0056       20.6675       20.6731      11.913241       7.72783
  42    0.3336        8.7590        0.0077       20.5880       20.5957      11.836675       8.92685
  41    0.4307        8.7579        0.0104       20.4722       20.4826      11.724714       9.73471
  40    0.5894        8.7564        0.0147       20.2637       20.2784      11.522016      10.77927
  39     1.339        8.7531        0.0331       19.0984       19.1315      10.378426      12.87474
  38     1.782        8.7537        0.0427       18.4394       18.4821       9.728410      12.37526
  37     2.292        8.7565        0.0530       17.7714       17.8244       9.067942      10.93908
  36     5.035        8.7692        0.0692       16.7265       16.7956       8.026404       3.20454
  35     6.613        8.7992        0.0963       15.5186       15.6149       6.815712       6.47236
  34     8.786        8.8393        0.1316       14.5590       14.6906       5.851338       3.74528
  33     11.80        8.8919        0.1804       13.7000       13.8804       4.988530       2.41559
  32     15.07        8.9427        0.2305       13.0749       13.3054       4.362703       1.61576
  31     18.79        8.9954        0.2858       12.5486       12.8344       3.838977       1.18745
  30     23.16        9.0515        0.3485       12.0732       12.4217       3.370248       0.90637
  29     28.12        9.1090        0.4186       11.6423       12.0609       2.951947       0.71108
  28     33.73        9.1620        0.4956       11.2628       11.7584       2.596401       0.53457
  27     40.54        9.2123        0.5875       10.8969       11.4844       2.272076       0.40236
  26     48.69        9.2597        0.6964       10.5353       11.2317       1.971987       0.31054
  25     57.69        9.2985        0.8142       10.2040       11.0182       1.719713       0.23647
  24     68.43        9.3297        0.9522        9.8713       10.8235       1.493847       0.17756
  23     81.20        9.3441        1.1151        9.5431       10.6582       1.314111       0.11877
  22     96.49        9.3397        1.3064        9.2107       10.5172       1.177509       0.07539
  21     114.6        9.3247        1.5274        8.8533       10.3807       1.056079       0.05670
  20     136.5        9.3020        1.7800        8.4618       10.2418       0.939721       0.04474
  19     162.9        9.2719        2.0676        8.0302       10.0978       0.825937       0.03637
  18     196.4        9.2219        2.4238        7.5240        9.9478       0.725923       0.02517
  17     218.7        9.1860        2.6477        7.2154        9.8632       0.677202       0.01850
  16     243.0        9.1466        2.8817        6.8972        9.7789       0.632254       0.01559
  15     269.0        9.1037        3.1249        6.5707        9.6956       0.591929       0.01308
  14     297.5        9.0571        3.3762        6.2374        9.6136       0.556415       0.01053
  13     328.5        9.0085        3.6346        5.8964        9.5309       0.522445       0.00924
  12     361.9        8.9582        3.8975        5.5509        9.4484       0.490169       0.00817
  11     398.1        8.9063        4.1644        5.2016        9.3660       0.459613       0.00712
  10     437.6        8.8535        4.4337        4.8500        9.2837       0.430189       0.00629
   9     480.5        8.7999        4.7032        4.4990        9.2022       0.402289       0.00548
   8     533.0        8.7382        5.0103        4.0999        9.1101       0.371912       0.00489
   7     589.8        8.6771        5.3126        3.7070        9.0196       0.342541       0.00436
   6     651.6        8.6174        5.6065        3.3248        8.9312       0.313846       0.00392
   5     718.7        8.5596        5.8903        2.9551        8.8454       0.285784       0.00353
   4     792.3        8.5046        6.1606        2.6023        8.7629       0.258358       0.00315
   3     825.4        7.7302        7.9307        0.0267        7.9574       0.227240       0.00794
   2     858.4        7.4070        7.6059        0.0003        7.6062       0.199141       0.00717
   1     891.5        7.1296        7.3026        0.0000        7.3026       0.173020       0.00667
   0    1013.0        7.1319        7.2767        0.0000        7.2767       0.144807       0.00196



 Wavenumbers: 38000. - 50000. cm-1, ATM      1
 LEVEL PRESSURE   UPWARD FLUX   DIFDOWN FLUX  DIRDOWN FLUX  DOWNWARD FLUX   NET FLUX    HEATING RATE
          mb          W/m2          W/m2          W/m2        W/m2          W/m2       degree/day
  51    .06700        0.0061        0.0000        1.2836        1.2836       1.277566       0.00000
  50    .07753        0.0060        0.0001        1.2812        1.2812       1.275231       1.87147
  49    .09103        0.0059        0.0002        1.2777        1.2778       1.271899       2.08243
  48    0.1069        0.0058        0.0002        1.2731        1.2734       1.267521       2.33056
  47    0.1255        0.0058        0.0004        1.2672        1.2675       1.261766       2.60905
  46    0.1487        0.0056        0.0005        1.2586        1.2591       1.253440       3.03495
  45    0.1794        0.0055        0.0007        1.2455        1.2462       1.240672       3.50516
  44    0.2165        0.0053        0.0009        1.2282        1.2291       1.223746       3.85033
  43    0.2613        0.0051        0.0011        1.2054        1.2065       1.201398       4.21256
  42    0.3336        0.0048        0.0015        1.1639        1.1654       1.160574       4.75965
  41    0.4307        0.0044        0.0020        1.1051        1.1070       1.102615       5.03937
  40    0.5894        0.0039        0.0026        1.0039        1.0064       1.002575       5.32000
  39     1.339        0.0022        0.0035        0.5438        0.5473       0.545166       5.14960
  38     1.782        0.0016        0.0032        0.3635        0.3666       0.365077       3.42860
  37     2.292        0.0011        0.0027        0.2356        0.2383       0.237147       2.11885
  36     5.035        0.0007        0.0019        0.1180        0.1199       0.119172       0.36298
  35     6.613        0.0004        0.0013        0.0504        0.0516       0.051220       0.36327
  34     8.786        0.0002        0.0009        0.0239        0.0248       0.024556       0.10355
  33     11.80        0.0001        0.0006        0.0105        0.0110       0.010913       0.03820
  32     15.07        0.0001        0.0004        0.0048        0.0052       0.005151       0.01488
  31     18.79        0.0000        0.0002        0.0022        0.0024       0.002406       0.00622
  30     23.16        0.0000        0.0001        0.0010        0.0011       0.001079       0.00257
  29     28.12        0.0000        0.0001        0.0004        0.0005       0.000469       0.00104
  28     33.73        0.0000        0.0000        0.0002        0.0002       0.000205       0.00040
  27     40.54        0.0000        0.0000        0.0001        0.0001       0.000083       0.00015
  26     48.69        0.0000        0.0000        0.0000        0.0000       0.000031       0.00005
  25     57.69        0.0000        0.0000        0.0000        0.0000       0.000011       0.00002
  24     68.43        0.0000        0.0000        0.0000        0.0000       0.000004       0.00001
  23     81.20        0.0000        0.0000        0.0000        0.0000       0.000001       0.00000
  22     96.49        0.0000        0.0000        0.0000        0.0000       0.000000       0.00000
  21     114.6        0.0000        0.0000        0.0000        0.0000       0.000000       0.00000
  20     136.5        0.0000        0.0000        0.0000        0.0000       0.000000       0.00000
  19     162.9        0.0000        0.0000        0.0000        0.0000       0.000000       0.00000
  18     196.4        0.0000        0.0000        0.0000        0.0000       0.000000       0.00000
  17     218.7        0.0000        0.0000        0.0000        0.0000       0.000000       0.00000
  16     243.0        0.0000        0.0000        0.0000        0.0000       0.000000       0.00000
  15     269.0        0.0000        0.0000        0.0000        0.0000       0.000000       0.00000
  14     297.5        0.0000        0.0000        0.0000        0.0000       0.000000       0.00000
  13     328.5        0.0000        0.0000        0.0000        0.0000       0.000000       0.00000
  12     361.9        0.0000        0.0000        0.0000        0.0000       0.000000       0.00000
  11     398.1        0.0000        0.0000        0.0000        0.0000       0.000000       0.00000
  10     437.6        0.0000        0.0000        0.0000        0.0000       0.000000       0.00000
   9     480.5        0.0000        0.0000        0.0000        0.0000       0.000000       0.00000
   8     533.0        0.0000        0.0000        0.0000        0.0000       0.000000       0.00000
   7     589.8        0.0000        0.0000        0.0000        0.0000       0.000000       0.00000
   6     651.6        0.0000        0.0000        0.0000        0.0000       0.000000       0.00000
   5     718.7        0.0000        0.0000        0.0000        0.0000       0.000000       0.00000
   4     792.3        0.0000        0.0000        0.0000        0.0000       0.000000       0.00000
   3     825.4        0.0000        0.0000        0.0000        0.0000       0.000000       0.00000
   2     858.4        0.0000        0.0000        0.0000        0.0000       0.000000       0.00000
   1     891.5        0.0000        0.0000        0.0000        0.0000       0.000000       0.00000
   0    1013.0        0.0000        0.0000        0.0000        0.0000       0.000000       0.00000



 Wavenumbers:   820. -  2600. cm-1, ATM      1
 LEVEL PRESSURE   UPWARD FLUX   DIFDOWN FLUX  DIRDOWN FLUX  DOWNWARD FLUX   NET FLUX    HEATING RATE
          mb          W/m2          W/m2          W/m2        W/m2          W/m2       degree/day
  51    .06700        1.4252        0.0000        6.0047        6.0047       4.579423       0.00000
  50    .07753        1.4252        0.0000        6.0008        6.0008       4.575570       3.08824
  49    .09103        1.4252        0.0000        5.9999        5.9999       4.574684       0.55361
  48    0.1069        1.4252        0.0000        5.9989        5.9989       4.573695       0.52655
  47    0.1255        1.4252        0.0000        5.9978        5.9978       4.572578       0.50653
  46    0.1487        1.4252        0.0000        5.9964        5.9964       4.571221       0.49460
  45    0.1794        1.4252        0.0000        5.9947        5.9947       4.569501       0.47203
  44    0.2165        1.4252        0.0000        5.9929        5.9929       4.567659       0.41914
  43    0.2613        1.4252        0.0000        5.9909        5.9909       4.565699       0.36936
  42    0.3336        1.4252        0.0000        5.9880        5.9880       4.562821       0.33560
  41    0.4307        1.4252        0.0000        5.9846        5.9846       4.559351       0.30169
  40    0.5894        1.4252        0.0000        5.9791        5.9791       4.553845       0.29280
  39     1.339        1.4252        0.0000        5.9536        5.9536       4.528354       0.28698
  38     1.782        1.4252        0.0000        5.9395        5.9395       4.514213       0.26921
  37     2.292        1.4252        0.0000        5.9237        5.9237       4.498460       0.26092
  36     5.035        1.4253        0.0000        5.8954        5.8954       4.470187       0.08699
  35     6.613        1.4253        0.0000        5.8469        5.8469       4.421680       0.25932
  34     8.786        1.4253        0.0000        5.7915        5.7915       4.366236       0.21533
  33     11.80        1.4253        0.0000        5.7245        5.7245       4.299163       0.18778
  32     15.07        1.4253        0.0000        5.6684        5.6684       4.243114       0.14471
  31     18.79        1.4254        0.0000        5.6231        5.6231       4.197695       0.10298
  30     23.16        1.4254        0.0000        5.5871        5.5871       4.161700       0.06960
  29     28.12        1.4254        0.0000        5.5583        5.5583       4.132859       0.04903
  28     33.73        1.4255        0.0000        5.5327        5.5328       4.107269       0.03848
  27     40.54        1.4255        0.0000        5.5051        5.5051       4.079534       0.03441
  26     48.69        1.4256        0.0000        5.4733        5.4733       4.047739       0.03290
  25     57.69        1.4257        0.0000        5.4393        5.4394       4.013685       0.03192
  24     68.43        1.4258        0.0000        5.3998        5.3999       3.974099       0.03112
  23     81.20        1.4259        0.0000        5.3545        5.3546       3.928703       0.03000
  22     96.49        1.4260        0.0000        5.3027        5.3028       3.876767       0.02866
  21     114.6        1.4261        0.0000        5.2431        5.2431       3.816954       0.02793
  20     136.5        1.4263        0.0000        5.1754        5.1755       3.749127       0.02608
  19     162.9        1.4266        0.0000        5.0924        5.0924       3.665772       0.02664
  18     196.4        1.4271        0.0000        4.9695        4.9695       3.542427       0.03105
  17     218.7        1.4276        0.0000        4.8606        4.8606       3.433059       0.04152
  16     243.0        1.4283        0.0000        4.7093        4.7093       3.281022       0.05273
  15     269.0        1.4294        0.0000        4.5352        4.5352       3.105749       0.05686
  14     297.5        1.4312        0.0000        4.3425        4.3426       2.911340       0.05766
  13     328.5        1.4337        0.0000        4.1286        4.1286       2.694991       0.05882
  12     361.9        1.4369        0.0000        3.8790        3.8791       2.442218       0.06395
  11     398.1        1.4410        0.0000        3.6162        3.6163       2.175233       0.06220
  10     437.6        1.4464        0.0000        3.3761        3.3761       1.929693       0.05250
   9     480.5        1.4530        0.0000        3.1959        3.1960       1.742919       0.03668
   8     533.0        1.4631        0.0000        3.0468        3.0468       1.583747       0.02561
   7     589.8        1.4780        0.0000        2.9024        2.9024       1.424485       0.02364
   6     651.6        1.5038        0.0001        2.7184        2.7185       1.214621       0.02870
   5     718.7        1.5486        0.0001        2.5059        2.5059       0.957321       0.03234
   4     792.3        1.6344        0.0001        2.2757        2.2757       0.641353       0.03624
   3     825.4        0.7205        1.0251        0.0240        1.0491       0.328692       0.07981
   2     858.4        0.3810        0.5812        0.0003        0.5815       0.200517       0.03272
   1     891.5        0.1554        0.2943        0.0000        0.2943       0.138869       0.01574
   0    1013.0        0.1820        0.2493        0.0000        0.2493       0.067301       0.00497

  Modules and versions used in this calculation:

       rrtmg_sw.1col.f90:  $Revision$                    rrtmg_sw_init.f90:  $Revision$        
     rrtmgsw_cldprop.f90:  $Revision$                  rrtmgsw_cldprmc.f90:  NOT USED          
     rrtmg_sw_reftra.f90:  $Revision$                  rrtmg_sw_spcvrt.f90:  NOT USED          
     rrtmg_sw_spcvmc.f90:  NOT USED                    rrtmgsw_setcoef.f90:  NOT USED          
     rrtmg_sw_taumol.f90:  $Revision$                  rrtmg_sw_vrtqdr.f90:  NOT USED          
                rrtatm.f:  NOT USED                             util_xxx.f:  NOT USED          
                 extra.f:  NOT USED                       rrtmg_sw_k_g.f90:  $Revision$        

