

 Wavenumbers:   820. - 50000. cm-1, ATM      1
 LEVEL PRESSURE   UPWARD FLUX   DIFDOWN FLUX  DIRDOWN FLUX  DOWNWARD FLUX   NET FLUX    HEATING RATE
          mb          W/m2          W/m2          W/m2        W/m2          W/m2       degree/day
  51    .06700      457.0795        0.0000      617.8126      617.8126     160.733110       0.00000
  50    .07753      457.0791        0.0014      617.7947      617.7961     160.716966      12.93944
  49    .09103      457.0787        0.0030      617.7778      617.7808     160.702151       9.25953
  48    0.1069      457.0782        0.0050      617.7581      617.7631     160.684884       9.19157
  47    0.1255      457.0777        0.0072      617.7340      617.7412     160.663532       9.68008
  46    0.1487      457.0771        0.0101      617.7009      617.7109     160.633835      10.82455
  45    0.1794      457.0764        0.0139      617.6521      617.6660     160.589589      12.14671
  44    0.2165      457.0757        0.0185      617.5895      617.6080     160.532248      13.04418
  43    0.2613      457.0750        0.0238      617.5089      617.5327     160.457708      14.05029
  42    0.3336      457.0742        0.0327      617.3641      617.3968     160.322575      15.75520
  41    0.4307      457.0736        0.0443      617.1591      617.2035     160.129881      16.75430
  40    0.5894      457.0736        0.0631      616.8005      616.8636     159.790060      18.07128
  39     1.339      457.0918        0.1482      614.9443      615.0924     158.000559      20.14653
  38     1.782      457.1154        0.1960      613.9670      614.1630     157.047585      18.14309
  37     2.292      457.1543        0.2504      613.0059      613.2563     156.101977      15.66174
  36     5.035      457.2688        0.3432      611.5124      611.8557     154.586835       4.66169
  35     6.613      457.5158        0.5070      609.6144      610.1215     152.605684      10.59124
  34     8.786      457.8381        0.7269      607.8253      608.5522     150.714064       7.34637
  33     11.80      458.2560        1.0394      605.8783      606.9177     148.661753       5.74582
  32     15.07      458.6540        1.3725      604.1777      605.5502     146.896249       4.55819
  31     18.79      459.0583        1.7470      602.5196      604.2665     145.208270       3.82717
  30     23.16      459.4783        2.1819      600.8127      602.9945     143.516270       3.27178
  29     28.12      459.8973        2.6767      599.0712      601.7479     141.850560       2.83159
  28     33.73      460.2766        3.2282      597.3500      600.5782     140.301663       2.32881
  27     40.54      460.6303        3.8920      595.5035      599.3955     138.765219       1.90613
  26     48.69      460.9554        4.6883      593.4958      598.1841     137.228675       1.59008
  25     57.69      461.2144        5.5587      591.4872      597.0459     135.831532       1.30961
  24     68.43      461.4162        6.5897      589.2939      595.8836     134.467345       1.07243
  23     81.20      461.5085        7.8119      586.9289      594.7408     133.232319       0.81609
  22     96.49      461.4810        9.2589      584.3423      593.6012     132.120149       0.61384
  21     114.6      461.3925       10.9611      581.4033      592.3643     130.971834       0.53618
  20     136.5      461.2429       12.9541      578.0541      591.0082     129.765227       0.46397
  19     162.9      461.0272       15.2929      574.1654      589.4583     128.431054       0.42646
  18     196.4      460.6602       18.2753      569.1760      587.4513     126.791094       0.41280
  17     218.7      460.3915       20.2036      565.6314      585.8350     125.443496       0.51163
  16     243.0      460.0927       22.2718      561.3129      583.5848     123.492033       0.67683
  15     269.0      459.7660       24.4813      555.9478      580.4292     120.663195       0.91766
  14     297.5      459.4182       26.8328      549.5394      576.3722     116.954038       1.10010
  13     328.5      459.0603       29.3327      542.6225      571.9552     112.894928       1.10366
  12     361.9      458.7017       31.9773      535.1469      567.1242     108.422467       1.13158
  11     398.1      458.3559       34.7711      526.9326      561.7037     103.347752       1.18229
  10     437.6      458.0489       37.7127      517.8921      555.6048      97.555895       1.23834
   9     480.5      457.8088       40.8001      508.2121      549.0122      91.203351       1.24762
   8     533.0      457.6804       44.5119      496.3783      540.8902      83.209756       1.28592
   7     589.8      457.8480       48.4065      483.5433      531.9498      74.101812       1.35192
   6     651.6      458.6672       52.4709      469.1414      521.6123      62.945087       1.52571
   5     718.7      460.6481       56.6968      453.6623      510.3592      49.711085       1.66315
   4     792.3      465.1561       61.0620      436.9145      497.9765      32.820398       1.93717
   3     825.4      301.3928      321.1335        0.0028      321.1363      19.743597       3.33778
   2     858.4      233.6571      249.4491        0.0000      249.4491      15.792011       1.00871
   1     891.5      175.2341      189.4203        0.0000      189.4203      14.186213       0.41003
   0    1013.0      175.8062      188.4771        0.0000      188.4771      12.670827       0.10522



 Wavenumbers:  2600. -  3250. cm-1, ATM      1
 LEVEL PRESSURE   UPWARD FLUX   DIFDOWN FLUX  DIRDOWN FLUX  DOWNWARD FLUX   NET FLUX    HEATING RATE
          mb          W/m2          W/m2          W/m2        W/m2          W/m2       degree/day
  51    .06700        2.0903        0.0000        5.4450        5.4450       3.354738       0.00000
  50    .07753        2.0903        0.0000        5.4450        5.4450       3.354730       0.00640
  49    .09103        2.0903        0.0000        5.4450        5.4450       3.354720       0.00627
  48    0.1069        2.0903        0.0000        5.4450        5.4450       3.354709       0.00613
  47    0.1255        2.0903        0.0000        5.4450        5.4450       3.354696       0.00599
  46    0.1487        2.0903        0.0000        5.4450        5.4450       3.354679       0.00608
  45    0.1794        2.0903        0.0000        5.4450        5.4450       3.354656       0.00625
  44    0.2165        2.0903        0.0000        5.4449        5.4449       3.354629       0.00612
  43    0.2613        2.0903        0.0000        5.4449        5.4449       3.354597       0.00600
  42    0.3336        2.0903        0.0000        5.4448        5.4448       3.354545       0.00617
  41    0.4307        2.0903        0.0000        5.4448        5.4448       3.354473       0.00620
  40    0.5894        2.0903        0.0000        5.4446        5.4446       3.354354       0.00637
  39     1.339        2.0903        0.0000        5.4439        5.4439       3.353646       0.00797
  38     1.782        2.0903        0.0000        5.4434        5.4434       3.353103       0.01034
  37     2.292        2.0903        0.0000        5.4427        5.4427       3.352387       0.01186
  36     5.035        2.0903        0.0000        5.4412        5.4412       3.350860       0.00470
  35     6.613        2.0903        0.0000        5.4381        5.4381       3.347783       0.01645
  34     8.786        2.0903        0.0000        5.4341        5.4341       3.343775       0.01556
  33     11.80        2.0903        0.0000        5.4288        5.4288       3.338528       0.01469
  32     15.07        2.0903        0.0000        5.4239        5.4239       3.333600       0.01272
  31     18.79        2.0903        0.0000        5.4191        5.4192       3.328854       0.01076
  30     23.16        2.0903        0.0000        5.4144        5.4144       3.324102       0.00919
  29     28.12        2.0903        0.0000        5.4096        5.4096       3.319264       0.00822
  28     33.73        2.0903        0.0000        5.4042        5.4042       3.313894       0.00807
  27     40.54        2.0904        0.0000        5.3972        5.3972       3.306859       0.00873
  26     48.69        2.0904        0.0000        5.3877        5.3877       3.297310       0.00988
  25     57.69        2.0904        0.0000        5.3759        5.3759       3.285457       0.01111
  24     68.43        2.0905        0.0000        5.3604        5.3604       3.269882       0.01224
  23     81.20        2.0906        0.0000        5.3405        5.3405       3.249930       0.01318
  22     96.49        2.0907        0.0000        5.3159        5.3159       3.225201       0.01365
  21     114.6        2.0909        0.0001        5.2857        5.2857       3.194786       0.01420
  20     136.5        2.0912        0.0001        5.2507        5.2508       3.159584       0.01354
  19     162.9        2.0916        0.0001        5.2113        5.2114       3.119833       0.01271
  18     196.4        2.0922        0.0001        5.1642        5.1643       3.072092       0.01202
  17     218.7        2.0929        0.0001        5.1333        5.1334       3.040504       0.01199
  16     243.0        2.0939        0.0001        5.0963        5.0964       3.002527       0.01317
  15     269.0        2.0956        0.0001        5.0512        5.0513       2.955742       0.01518
  14     297.5        2.0980        0.0001        4.9957        4.9958       2.897752       0.01720
  13     328.5        2.1015        0.0001        4.9304        4.9306       2.829030       0.01869
  12     361.9        2.1063        0.0002        4.8511        4.8513       2.744961       0.02127
  11     398.1        2.1130        0.0002        4.7507        4.7509       2.637910       0.02494
  10     437.6        2.1222        0.0002        4.6221        4.6222       2.500018       0.02948
   9     480.5        2.1351        0.0002        4.4625        4.4627       2.327592       0.03386
   8     533.0        2.1562        0.0002        4.2461        4.2463       2.090090       0.03821
   7     589.8        2.1885        0.0002        3.9954        3.9956       1.807125       0.04200
   6     651.6        2.2423        0.0002        3.7089        3.7091       1.466773       0.04654
   5     718.7        2.3323        0.0002        3.4018        3.4021       1.069790       0.04989
   4     792.3        2.4985        0.0002        3.0564        3.0567       0.558133       0.05868
   3     825.4        0.8766        1.0619        0.0000        1.0619       0.185302       0.09516
   2     858.4        0.3971        0.4904        0.0000        0.4904       0.093227       0.02350
   1     891.5        0.1091        0.1732        0.0000        0.1732       0.064116       0.00743
   0    1013.0        0.1171        0.1604        0.0000        0.1604       0.043321       0.00144



 Wavenumbers:  3250. -  4000. cm-1, ATM      1
 LEVEL PRESSURE   UPWARD FLUX   DIFDOWN FLUX  DIRDOWN FLUX  DOWNWARD FLUX   NET FLUX    HEATING RATE
          mb          W/m2          W/m2          W/m2        W/m2          W/m2       degree/day
  51    .06700        0.0701        0.0000        9.1795        9.1795       9.109400       0.00000
  50    .07753        0.0701        0.0000        9.1747        9.1747       9.104557       3.88162
  49    .09103        0.0701        0.0000        9.1713        9.1713       9.101169       2.11758
  48    0.1069        0.0701        0.0000        9.1688        9.1688       9.098644       1.34411
  47    0.1255        0.0701        0.0000        9.1665        9.1665       9.096385       1.02430
  46    0.1487        0.0701        0.0000        9.1641        9.1641       9.093943       0.88998
  45    0.1794        0.0701        0.0000        9.1612        9.1612       9.091065       0.79014
  44    0.2165        0.0701        0.0000        9.1583        9.1583       9.088145       0.66436
  43    0.2613        0.0701        0.0000        9.1553        9.1553       9.085171       0.56046
  42    0.3336        0.0701        0.0000        9.1511        9.1511       9.080992       0.48727
  41    0.4307        0.0701        0.0000        9.1464        9.1464       9.076223       0.41463
  40    0.5894        0.0701        0.0000        9.1393        9.1393       9.069217       0.37258
  39     1.339        0.0701        0.0000        9.1127        9.1127       9.042601       0.29965
  38     1.782        0.0701        0.0000        9.1011        9.1011       9.031012       0.22064
  37     2.292        0.0701        0.0000        9.0901        9.0901       9.019945       0.18331
  36     5.035        0.0701        0.0000        9.0731        9.0731       9.003012       0.05210
  35     6.613        0.0701        0.0000        9.0438        9.0439       8.973732       0.15653
  34     8.786        0.0701        0.0000        9.0058        9.0058       8.935646       0.14791
  33     11.80        0.0701        0.0000        8.9509        8.9509       8.880775       0.15362
  32     15.07        0.0701        0.0000        8.8914        8.8914       8.821296       0.15356
  31     18.79        0.0701        0.0000        8.8241        8.8242       8.754061       0.15244
  30     23.16        0.0701        0.0000        8.7473        8.7474       8.677249       0.14853
  29     28.12        0.0701        0.0000        8.6639        8.6640       8.593867       0.14174
  28     33.73        0.0701        0.0000        8.5784        8.5784       8.508357       0.12857
  27     40.54        0.0701        0.0001        8.4859        8.4860       8.415884       0.11472
  26     48.69        0.0701        0.0001        8.3873        8.3873       8.317260       0.10206
  25     57.69        0.0701        0.0001        8.2887        8.2888       8.218710       0.09238
  24     68.43        0.0700        0.0001        8.1771        8.1772       8.107193       0.08767
  23     81.20        0.0700        0.0001        8.0474        8.0475       7.977472       0.08572
  22     96.49        0.0700        0.0001        7.8963        7.8965       7.826459       0.08335
  21     114.6        0.0700        0.0001        7.7173        7.7174       7.647449       0.08359
  20     136.5        0.0700        0.0002        7.5201        7.5203       7.450333       0.07580
  19     162.9        0.0699        0.0002        7.2919        7.2921       7.222201       0.07292
  18     196.4        0.0699        0.0002        6.9664        6.9666       6.896687       0.08194
  17     218.7        0.0699        0.0002        6.6650        6.6652       6.595329       0.11441
  16     243.0        0.0699        0.0002        6.2620        6.2622       6.192339       0.13977
  15     269.0        0.0700        0.0003        5.7575        5.7578       5.687821       0.16366
  14     297.5        0.0701        0.0003        5.1717        5.1720       5.101870       0.17379
  13     328.5        0.0703        0.0002        4.5755        4.5757       4.505372       0.16219
  12     361.9        0.0708        0.0002        3.9992        3.9995       3.928699       0.14590
  11     398.1        0.0715        0.0002        3.4651        3.4653       3.393877       0.12460
  10     437.6        0.0726        0.0002        2.9736        2.9739       2.901202       0.10534
   9     480.5        0.0746        0.0002        2.5303        2.5305       2.455880       0.08746
   8     533.0        0.0783        0.0002        2.0610        2.0612       1.982850       0.07610
   7     589.8        0.0852        0.0002        1.6146        1.6148       1.529606       0.06728
   6     651.6        0.0995        0.0001        1.1562        1.1563       1.056801       0.06466
   5     718.7        0.1311        0.0001        0.7388        0.7389       0.607785       0.05643
   4     792.3        0.2157        0.0001        0.3984        0.3984       0.182693       0.04875
   3     825.4        0.0066        0.0137        0.0000        0.0137       0.007130       0.04481
   2     858.4        0.0003        0.0006        0.0000        0.0006       0.000296       0.00174
   1     891.5        0.0000        0.0000        0.0000        0.0000       0.000017       0.00007
   0    1013.0        0.0000        0.0000        0.0000        0.0000       0.000000       0.00000



 Wavenumbers:  4000. -  4650. cm-1, ATM      1
 LEVEL PRESSURE   UPWARD FLUX   DIFDOWN FLUX  DIRDOWN FLUX  DOWNWARD FLUX   NET FLUX    HEATING RATE
          mb          W/m2          W/m2          W/m2        W/m2          W/m2       degree/day
  51    .06700        6.8736        0.0000       10.7795       10.7795       3.905921       0.00000
  50    .07753        6.8736        0.0000       10.7795       10.7795       3.905920       0.00080
  49    .09103        6.8736        0.0000       10.7795       10.7795       3.905919       0.00078
  48    0.1069        6.8736        0.0000       10.7795       10.7795       3.905917       0.00077
  47    0.1255        6.8736        0.0000       10.7795       10.7795       3.905915       0.00075
  46    0.1487        6.8736        0.0000       10.7795       10.7795       3.905913       0.00076
  45    0.1794        6.8736        0.0000       10.7795       10.7795       3.905911       0.00078
  44    0.2165        6.8736        0.0000       10.7795       10.7795       3.905907       0.00076
  43    0.2613        6.8736        0.0000       10.7795       10.7795       3.905903       0.00075
  42    0.3336        6.8736        0.0000       10.7795       10.7795       3.905897       0.00077
  41    0.4307        6.8736        0.0000       10.7795       10.7795       3.905888       0.00078
  40    0.5894        6.8736        0.0000       10.7795       10.7795       3.905873       0.00080
  39     1.339        6.8736        0.0000       10.7794       10.7794       3.905783       0.00101
  38     1.782        6.8736        0.0000       10.7793       10.7793       3.905713       0.00133
  37     2.292        6.8736        0.0000       10.7792       10.7792       3.905619       0.00156
  36     5.035        6.8736        0.0000       10.7790       10.7790       3.905410       0.00064
  35     6.613        6.8736        0.0000       10.7785       10.7786       3.904956       0.00243
  34     8.786        6.8736        0.0000       10.7779       10.7779       3.904286       0.00260
  33     11.80        6.8736        0.0001       10.7768       10.7768       3.903232       0.00295
  32     15.07        6.8736        0.0001       10.7755       10.7756       3.901994       0.00319
  31     18.79        6.8736        0.0001       10.7740       10.7741       3.900496       0.00340
  30     23.16        6.8736        0.0001       10.7722       10.7723       3.898636       0.00360
  29     28.12        6.8737        0.0001       10.7699       10.7700       3.896381       0.00383
  28     33.73        6.8737        0.0002       10.7671       10.7673       3.893597       0.00418
  27     40.54        6.8737        0.0002       10.7633       10.7635       3.889818       0.00469
  26     48.69        6.8738        0.0002       10.7583       10.7586       3.884774       0.00522
  25     57.69        6.8739        0.0003       10.7524       10.7527       3.878786       0.00561
  24     68.43        6.8741        0.0003       10.7450       10.7453       3.871267       0.00591
  23     81.20        6.8743        0.0004       10.7359       10.7363       3.861989       0.00613
  22     96.49        6.8747        0.0005       10.7249       10.7253       3.850671       0.00625
  21     114.6        6.8752        0.0006       10.7111       10.7117       3.836477       0.00663
  20     136.5        6.8759        0.0007       10.6945       10.6952       3.819322       0.00660
  19     162.9        6.8770        0.0008       10.6744       10.6752       3.798205       0.00675
  18     196.4        6.8787        0.0010       10.6467       10.6476       3.768917       0.00737
  17     218.7        6.8803        0.0011       10.6258       10.6268       3.746529       0.00850
  16     243.0        6.8826        0.0012       10.5983       10.5995       3.716925       0.01027
  15     269.0        6.8860        0.0013       10.5613       10.5627       3.676672       0.01306
  14     297.5        6.8910        0.0015       10.5122       10.5136       3.622680       0.01601
  13     328.5        6.8978        0.0016       10.4501       10.4517       3.553941       0.01869
  12     361.9        6.9067        0.0018       10.3704       10.3721       3.465462       0.02239
  11     398.1        6.9179        0.0019       10.2679       10.2699       3.351973       0.02644
  10     437.6        6.9323        0.0021       10.1391       10.1412       3.208939       0.03058
   9     480.5        6.9508        0.0023        9.9878        9.9901       3.039288       0.03332
   8     533.0        6.9794        0.0025        9.7937        9.7962       2.816806       0.03579
   7     589.8        7.0212        0.0027        9.5752        9.5779       2.556750       0.03860
   6     651.6        7.0892        0.0030        9.2958        9.2988       2.209621       0.04747
   5     718.7        7.2051        0.0032        8.9267        8.9299       1.724850       0.06092
   4     792.3        7.4277        0.0034        8.4542        8.4576       1.029865       0.07971
   3     825.4        3.5068        4.0055        0.0001        4.0055       0.498685       0.13558
   2     858.4        1.9310        2.2826        0.0000        2.2826       0.351559       0.03756
   1     891.5        0.6805        0.9798        0.0000        0.9798       0.299258       0.01335
   0    1013.0        0.6968        0.9546        0.0000        0.9546       0.257739       0.00288



 Wavenumbers:  4650. -  5150. cm-1, ATM      1
 LEVEL PRESSURE   UPWARD FLUX   DIFDOWN FLUX  DIRDOWN FLUX  DOWNWARD FLUX   NET FLUX    HEATING RATE
          mb          W/m2          W/m2          W/m2        W/m2          W/m2       degree/day
  51    .06700        4.9419        0.0000       10.2033       10.2033       5.261454       0.00000
  50    .07753        4.9419        0.0000       10.2031       10.2031       5.261218       0.18901
  49    .09103        4.9419        0.0000       10.2028       10.2028       5.260923       0.18428
  48    0.1069        4.9419        0.0000       10.2025       10.2025       5.260586       0.17931
  47    0.1255        4.9419        0.0000       10.2021       10.2021       5.260202       0.17426
  46    0.1487        4.9419        0.0000       10.2016       10.2016       5.259721       0.17536
  45    0.1794        4.9419        0.0000       10.2010       10.2010       5.259071       0.17850
  44    0.2165        4.9419        0.0000       10.2002       10.2002       5.258311       0.17277
  43    0.2613        4.9419        0.0000       10.1993       10.1993       5.257426       0.16690
  42    0.3336        4.9419        0.0000       10.1979       10.1979       5.255993       0.16702
  41    0.4307        4.9419        0.0000       10.1960       10.1960       5.254153       0.16002
  40    0.5894        4.9419        0.0000       10.1932       10.1932       5.251279       0.15283
  39     1.339        4.9419        0.0000       10.1816       10.1816       5.239687       0.13051
  38     1.782        4.9419        0.0000       10.1760       10.1760       5.234157       0.10527
  37     2.292        4.9419        0.0000       10.1706       10.1706       5.228700       0.09039
  36     5.035        4.9419        0.0000       10.1630       10.1630       5.221112       0.02334
  35     6.613        4.9419        0.0000       10.1533       10.1533       5.211402       0.05191
  34     8.786        4.9419        0.0000       10.1442       10.1442       5.202305       0.03533
  33     11.80        4.9419        0.0001       10.1340       10.1341       5.192153       0.02842
  32     15.07        4.9420        0.0001       10.1237       10.1238       5.181873       0.02654
  31     18.79        4.9420        0.0001       10.1115       10.1117       5.169660       0.02769
  30     23.16        4.9421        0.0002       10.0961       10.0963       5.154179       0.02993
  29     28.12        4.9422        0.0002       10.0769       10.0771       5.134882       0.03281
  28     33.73        4.9423        0.0002       10.0536       10.0539       5.111537       0.03510
  27     40.54        4.9425        0.0003       10.0235       10.0238       5.081297       0.03752
  26     48.69        4.9428        0.0003        9.9852        9.9855       5.042676       0.03997
  25     57.69        4.9432        0.0004        9.9414        9.9418       4.998598       0.04132
  24     68.43        4.9437        0.0005        9.8884        9.8889       4.945168       0.04200
  23     81.20        4.9444        0.0006        9.8258        9.8263       4.881882       0.04182
  22     96.49        4.9455        0.0007        9.7537        9.7544       4.808924       0.04027
  21     114.6        4.9469        0.0008        9.6735        9.6743       4.727428       0.03805
  20     136.5        4.9488        0.0009        9.5870        9.5879       4.639156       0.03394
  19     162.9        4.9515        0.0011        9.4949        9.4960       4.544560       0.03024
  18     196.4        4.9556        0.0013        9.3889        9.3902       4.434605       0.02768
  17     218.7        4.9589        0.0015        9.3234        9.3249       4.366022       0.02604
  16     243.0        4.9631        0.0016        9.2524        9.2540       4.290945       0.02604
  15     269.0        4.9687        0.0018        9.1720        9.1738       4.205099       0.02785
  14     297.5        4.9765        0.0020        9.0765        9.0785       4.102003       0.03058
  13     328.5        4.9867        0.0022        8.9652        8.9674       3.980631       0.03300
  12     361.9        4.9999        0.0024        8.8351        8.8375       3.837573       0.03619
  11     398.1        5.0170        0.0026        8.6822        8.6848       3.667734       0.03957
  10     437.6        5.0393        0.0028        8.5030        8.5058       3.466425       0.04304
   9     480.5        5.0684        0.0030        8.2950        8.2980       3.229606       0.04651
   8     533.0        5.1127        0.0033        8.0210        8.0243       2.911526       0.05117
   7     589.8        5.1746        0.0035        7.7064        7.7099       2.535303       0.05584
   6     651.6        5.2666        0.0037        7.3413        7.3451       2.078420       0.06248
   5     718.7        5.4068        0.0040        6.9387        6.9427       1.535906       0.06818
   4     792.3        5.6335        0.0042        6.5066        6.5108       0.877300       0.07553
   3     825.4        2.4654        2.8606        0.0000        2.8606       0.395195       0.12305
   2     858.4        1.2931        1.5441        0.0000        1.5441       0.250990       0.03681
   1     891.5        0.4356        0.6369        0.0000        0.6369       0.201280       0.01269
   0    1013.0        0.4495        0.6157        0.0000        0.6157       0.166238       0.00243



 Wavenumbers:  5150. -  6150. cm-1, ATM      1
 LEVEL PRESSURE   UPWARD FLUX   DIFDOWN FLUX  DIRDOWN FLUX  DOWNWARD FLUX   NET FLUX    HEATING RATE
          mb          W/m2          W/m2          W/m2        W/m2          W/m2       degree/day
  51    .06700       11.8392        0.0000       25.5798       25.5798      13.740637       0.00000
  50    .07753       11.8392        0.0000       25.5798       25.5798      13.740598       0.03163
  49    .09103       11.8392        0.0000       25.5797       25.5797      13.740547       0.03211
  48    0.1069       11.8392        0.0000       25.5797       25.5797      13.740485       0.03262
  47    0.1255       11.8392        0.0000       25.5796       25.5796      13.740412       0.03312
  46    0.1487       11.8392        0.0000       25.5795       25.5795      13.740317       0.03489
  45    0.1794       11.8392        0.0000       25.5794       25.5794      13.740181       0.03714
  44    0.2165       11.8392        0.0000       25.5792       25.5792      13.740016       0.03770
  43    0.2613       11.8392        0.0000       25.5790       25.5790      13.739812       0.03828
  42    0.3336       11.8392        0.0000       25.5786       25.5786      13.739466       0.04044
  41    0.4307       11.8392        0.0000       25.5782       25.5782      13.738994       0.04098
  40    0.5894       11.8392        0.0000       25.5774       25.5774      13.738205       0.04199
  39     1.339       11.8392        0.0000       25.5735       25.5736      13.734400       0.04284
  38     1.782       11.8392        0.0001       25.5713       25.5714      13.732184       0.04219
  37     2.292       11.8392        0.0001       25.5688       25.5688      13.729675       0.04155
  36     5.035       11.8392        0.0001       25.5647       25.5648      13.725573       0.01262
  35     6.613       11.8392        0.0002       25.5576       25.5578      13.718579       0.03739
  34     8.786       11.8392        0.0002       25.5485       25.5487      13.709515       0.03520
  33     11.80       11.8393        0.0003       25.5362       25.5365      13.697253       0.03433
  32     15.07       11.8393        0.0004       25.5239       25.5243      13.684953       0.03176
  31     18.79       11.8394        0.0006       25.5110       25.5115      13.672089       0.02916
  30     23.16       11.8395        0.0007       25.4971       25.4978      13.658229       0.02680
  29     28.12       11.8397        0.0009       25.4824       25.4833      13.643608       0.02485
  28     33.73       11.8398        0.0010       25.4676       25.4686      13.628779       0.02230
  27     40.54       11.8401        0.0013       25.4514       25.4526      13.612542       0.02014
  26     48.69       11.8405        0.0015       25.4341       25.4356      13.595124       0.01802
  25     57.69       11.8409        0.0018       25.4169       25.4187      13.577803       0.01624
  24     68.43       11.8415        0.0022       25.3983       25.4005      13.558966       0.01481
  23     81.20       11.8422        0.0026       25.3779       25.3804      13.538214       0.01371
  22     96.49       11.8431        0.0031       25.3550       25.3580      13.514878       0.01288
  21     114.6       11.8443        0.0037       25.3288       25.3324      13.488121       0.01249
  20     136.5       11.8457        0.0043       25.2983       25.3027      13.457001       0.01197
  19     162.9       11.8474        0.0052       25.2537       25.2589      13.411451       0.01456
  18     196.4       11.8498        0.0062       25.1601       25.1664      13.316566       0.02388
  17     218.7       11.8515        0.0069       25.0164       25.0233      13.171742       0.05498
  16     243.0       11.8537        0.0076       24.7092       24.7169      12.863201       0.10701
  15     269.0       11.8564        0.0083       24.1621       24.1705      12.314085       0.17813
  14     297.5       11.8600        0.0090       23.4546       23.4636      11.603606       0.21072
  13     328.5       11.8648        0.0098       22.7357       22.7454      10.880610       0.19658
  12     361.9       11.8711        0.0105       21.9226       21.9331      10.061986       0.20712
  11     398.1       11.8796        0.0112       20.9941       21.0053       9.125718       0.21813
  10     437.6       11.8913        0.0119       19.9835       19.9954       8.104080       0.21843
   9     480.5       11.9075        0.0126       18.9485       18.9610       7.053477       0.20633
   8     533.0       11.9351        0.0133       17.7798       17.7931       5.857983       0.19232
   7     589.8       11.9798        0.0141       16.6727       16.6868       4.707062       0.17083
   6     651.6       12.0617        0.0149       15.6344       15.6494       3.587693       0.15308
   5     718.7       12.2124        0.0158       14.7739       14.7897       2.577334       0.12697
   4     792.3       12.5168        0.0168       14.0292       14.0460       1.529203       0.12021
   3     825.4        6.3148        7.1081        0.0001        7.1082       0.793418       0.18780
   2     858.4        3.6496        4.2680        0.0000        4.2680       0.618461       0.04466
   1     891.5        1.3558        1.9161        0.0000        1.9161       0.560277       0.01486
   0    1013.0        1.3763        1.8854        0.0000        1.8854       0.509049       0.00356



 Wavenumbers:  6150. -  7700. cm-1, ATM      1
 LEVEL PRESSURE   UPWARD FLUX   DIFDOWN FLUX  DIRDOWN FLUX  DOWNWARD FLUX   NET FLUX    HEATING RATE
          mb          W/m2          W/m2          W/m2        W/m2          W/m2       degree/day
  51    .06700       18.8795        0.0000       47.3109       47.3109      28.431395       0.00000
  50    .07753       18.8795        0.0000       47.3108       47.3108      28.431339       0.04553
  49    .09103       18.8795        0.0000       47.3107       47.3107      28.431265       0.04583
  48    0.1069       18.8795        0.0000       47.3106       47.3106      28.431179       0.04614
  47    0.1255       18.8795        0.0000       47.3105       47.3105      28.431076       0.04645
  46    0.1487       18.8795        0.0000       47.3104       47.3104      28.430943       0.04852
  45    0.1794       18.8795        0.0000       47.3102       47.3102      28.430756       0.05127
  44    0.2165       18.8795        0.0000       47.3100       47.3100      28.430529       0.05167
  43    0.2613       18.8794        0.0000       47.3097       47.3097      28.430253       0.05210
  42    0.3336       18.8794        0.0000       47.3092       47.3092      28.429783       0.05471
  41    0.4307       18.8794        0.0000       47.3085       47.3086      28.429148       0.05521
  40    0.5894       18.8794        0.0001       47.3074       47.3075      28.428089       0.05634
  39     1.339       18.8794        0.0002       47.3022       47.3024      28.422997       0.05733
  38     1.782       18.8793        0.0002       47.2991       47.2994      28.420027       0.05655
  37     2.292       18.8793        0.0003       47.2956       47.2959      28.416651       0.05591
  36     5.035       18.8792        0.0004       47.2899       47.2903      28.411075       0.01715
  35     6.613       18.8791        0.0006       47.2800       47.2806      28.401500       0.05119
  34     8.786       18.8789        0.0009       47.2670       47.2679      28.388956       0.04872
  33     11.80       18.8787        0.0013       47.2491       47.2504      28.371719       0.04826
  32     15.07       18.8785        0.0018       47.2308       47.2326      28.354094       0.04550
  31     18.79       18.8782        0.0023       47.2112       47.2135      28.335258       0.04271
  30     23.16       18.8779        0.0028       47.1895       47.1924      28.314480       0.04018
  29     28.12       18.8775        0.0035       47.1661       47.1696      28.292076       0.03809
  28     33.73       18.8771        0.0042       47.1416       47.1458      28.268736       0.03509
  27     40.54       18.8766        0.0051       47.1141       47.1192      28.242643       0.03237
  26     48.69       18.8760        0.0062       47.0837       47.0899      28.213902       0.02974
  25     57.69       18.8753        0.0074       47.0527       47.0601      28.184804       0.02728
  24     68.43       18.8745        0.0088       47.0183       47.0271      28.152560       0.02535
  23     81.20       18.8736        0.0105       46.9796       46.9901      28.116530       0.02381
  22     96.49       18.8725        0.0125       46.9356       46.9481      28.075618       0.02258
  21     114.6       18.8712        0.0149       46.8846       46.8995      28.028377       0.02206
  20     136.5       18.8696        0.0178       46.8250       46.8427      27.973109       0.02125
  19     162.9       18.8678        0.0212       46.7403       46.7615      27.893669       0.02539
  18     196.4       18.8657        0.0255       46.5732       46.5988      27.733095       0.04042
  17     218.7       18.8645        0.0283       46.3491       46.3775      27.512992       0.08356
  16     243.0       18.8636        0.0313       45.9309       45.9622      27.098615       0.14372
  15     269.0       18.8635        0.0343       45.1716       45.2059      26.342341       0.24533
  14     297.5       18.8652        0.0372       44.0121       44.0493      25.184154       0.34351
  13     328.5       18.8691        0.0402       42.7247       42.7649      23.895873       0.35028
  12     361.9       18.8764        0.0433       41.3543       41.3976      22.521248       0.34779
  11     398.1       18.8891        0.0463       39.7956       39.8420      20.952880       0.36539
  10     437.6       18.9104        0.0492       37.9951       38.0443      19.133875       0.38891
   9     480.5       18.9445        0.0520       36.0650       36.1170      17.172494       0.38521
   8     533.0       19.0085        0.0550       33.7776       33.8325      14.824040       0.37779
   7     589.8       19.1201        0.0577       31.4085       31.4662      12.346089       0.36781
   6     651.6       19.3358        0.0601       28.8836       28.9437       9.607849       0.37446
   5     718.7       19.7504        0.0622       26.4106       26.4727       6.722298       0.36263
   4     792.3       20.6419        0.0639       24.0058       24.0697       3.427880       0.37783
   3     825.4        9.3494       10.7036        0.0001       10.7037       1.354295       0.52927
   2     858.4        5.1713        6.0970        0.0000        6.0970       0.925740       0.10940
   1     891.5        1.8585        2.6552        0.0000        2.6552       0.796721       0.03294
   0    1013.0        1.8952        2.5961        0.0000        2.5961       0.700957       0.00665



 Wavenumbers:  7700. -  8050. cm-1, ATM      1
 LEVEL PRESSURE   UPWARD FLUX   DIFDOWN FLUX  DIRDOWN FLUX  DOWNWARD FLUX   NET FLUX    HEATING RATE
          mb          W/m2          W/m2          W/m2        W/m2          W/m2       degree/day
  51    .06700        8.6935        0.0000       11.1810       11.1810       2.487435       0.00000
  50    .07753        8.6935        0.0000       11.1809       11.1809       2.487411       0.01914
  49    .09103        8.6935        0.0000       11.1809       11.1809       2.487381       0.01876
  48    0.1069        8.6935        0.0000       11.1809       11.1809       2.487347       0.01836
  47    0.1255        8.6936        0.0000       11.1809       11.1809       2.487307       0.01797
  46    0.1487        8.6936        0.0000       11.1808       11.1808       2.487257       0.01823
  45    0.1794        8.6936        0.0000       11.1808       11.1808       2.487189       0.01876
  44    0.2165        8.6936        0.0000       11.1807       11.1807       2.487108       0.01841
  43    0.2613        8.6936        0.0000       11.1806       11.1806       2.487012       0.01806
  42    0.3336        8.6937        0.0000       11.1805       11.1805       2.486854       0.01848
  41    0.4307        8.6937        0.0000       11.1803       11.1804       2.486643       0.01828
  40    0.5894        8.6938        0.0000       11.1801       11.1801       2.486300       0.01826
  39     1.339        8.6942        0.0001       11.1788       11.1789       2.484675       0.01829
  38     1.782        8.6945        0.0001       11.1781       11.1782       2.483721       0.01817
  37     2.292        8.6947        0.0001       11.1772       11.1773       2.482616       0.01830
  36     5.035        8.6952        0.0002       11.1757       11.1759       2.480699       0.00590
  35     6.613        8.6961        0.0003       11.1731       11.1734       2.477295       0.01820
  34     8.786        8.6972        0.0004       11.1695       11.1699       2.472707       0.01782
  33     11.80        8.6989        0.0006       11.1644       11.1650       2.466147       0.01837
  32     15.07        8.7006        0.0008       11.1589       11.1597       2.459107       0.01818
  31     18.79        8.7026        0.0010       11.1528       11.1538       2.451160       0.01802
  30     23.16        8.7050        0.0013       11.1456       11.1469       2.441885       0.01793
  29     28.12        8.7077        0.0016       11.1374       11.1390       2.431291       0.01801
  28     33.73        8.7107        0.0020       11.1282       11.1302       2.419451       0.01780
  27     40.54        8.7144        0.0024       11.1172       11.1196       2.405171       0.01772
  26     48.69        8.7189        0.0029       11.1040       11.1069       2.387991       0.01778
  25     57.69        8.7238        0.0034       11.0896       11.0930       2.369168       0.01764
  24     68.43        8.7298        0.0041       11.0725       11.0766       2.346816       0.01757
  23     81.20        8.7369        0.0049       11.0523       11.0572       2.320283       0.01753
  22     96.49        8.7454        0.0058       11.0284       11.0342       2.288802       0.01738
  21     114.6        8.7557        0.0069       11.0004       11.0073       2.251612       0.01736
  20     136.5        8.7680        0.0082       10.9676       10.9758       2.207788       0.01685
  19     162.9        8.7829        0.0098       10.9290       10.9388       2.155941       0.01657
  18     196.4        8.8025        0.0118       10.8799       10.8917       2.089210       0.01680
  17     218.7        8.8157        0.0131       10.8482       10.8613       2.045638       0.01654
  16     243.0        8.8302        0.0146       10.8140       10.8286       1.998431       0.01637
  15     269.0        8.8462        0.0161       10.7774       10.7936       1.947362       0.01657
  14     297.5        8.8639        0.0178       10.7382       10.7560       1.892126       0.01638
  13     328.5        8.8835        0.0197       10.6962       10.7158       1.832313       0.01626
  12     361.9        8.9052        0.0216       10.6512       10.6728       1.767597       0.01637
  11     398.1        8.9295        0.0237       10.6031       10.6268       1.697331       0.01637
  10     437.6        8.9566        0.0260       10.5513       10.5773       1.620707       0.01638
   9     480.5        8.9871        0.0284       10.4956       10.5240       1.536960       0.01645
   8     533.0        9.0268        0.0314       10.4264       10.4578       1.430976       0.01705
   7     589.8        9.0732        0.0346       10.3500       10.3846       1.311374       0.01775
   6     651.6        9.1288        0.0380       10.2633       10.3014       1.172543       0.01899
   5     718.7        9.1971        0.0417       10.1637       10.2054       1.008288       0.02064
   4     792.3        9.2840        0.0456       10.0457       10.0913       0.807330       0.02305
   3     825.4        4.9595        5.5664        0.0001        5.5665       0.606965       0.05114
   2     858.4        2.8439        3.3384        0.0000        3.3384       0.494501       0.02871
   1     891.5        1.0339        1.4716        0.0000        1.4716       0.437705       0.01450
   0    1013.0        1.0538        1.4435        0.0000        1.4435       0.389749       0.00333



 Wavenumbers:  8050. - 12850. cm-1, ATM      1
 LEVEL PRESSURE   UPWARD FLUX   DIFDOWN FLUX  DIRDOWN FLUX  DOWNWARD FLUX   NET FLUX    HEATING RATE
          mb          W/m2          W/m2          W/m2        W/m2          W/m2       degree/day
  51    .06700      113.3045        0.0000      156.5418      156.5418      43.237298       0.00000
  50    .07753      113.3044        0.0000      156.5417      156.5417      43.237298      -0.00000
  49    .09103      113.3044        0.0001      156.5417      156.5417      43.237298       0.00000
  48    0.1069      113.3044        0.0001      156.5416      156.5417      43.237298      -0.00000
  47    0.1255      113.3044        0.0002      156.5415      156.5417      43.237298      -0.00000
  46    0.1487      113.3044        0.0002      156.5414      156.5417      43.237298       0.00000
  45    0.1794      113.3043        0.0003      156.5413      156.5416      43.237298       0.00000
  44    0.2165      113.3043        0.0005      156.5412      156.5416      43.237298       0.00000
  43    0.2613      113.3043        0.0006      156.5410      156.5416      43.237298      -0.00000
  42    0.3336      113.3042        0.0008      156.5407      156.5415      43.237298       0.00000
  41    0.4307      113.3041        0.0011      156.5403      156.5414      43.237298       0.00000
  40    0.5894      113.3040        0.0016      156.5397      156.5413      43.237298      -0.00000
  39     1.339      113.3033        0.0038      156.5367      156.5406      43.237298       0.00000
  38     1.782      113.3028        0.0051      156.5350      156.5401      43.237298       0.00000
  37     2.292      113.3024        0.0067      156.5330      156.5397      43.237298      -0.00000
  36     5.035      113.3015        0.0093      156.5295      156.5388      43.237298       0.00000
  35     6.613      113.3000        0.0141      156.5233      156.5373      43.237298       0.00000
  34     8.786      113.2980        0.0204      156.5149      156.5353      43.237298      -0.00000
  33     11.80      113.2952        0.0295      156.5029      156.5325      43.237298       0.00000
  32     15.07      113.2921        0.0393      156.4901      156.5294      43.237298       0.00000
  31     18.79      113.2886        0.0504      156.4755      156.5259      43.237298      -0.00000
  30     23.16      113.2845        0.0634      156.4585      156.5218      43.237298       0.00000
  29     28.12      113.2799        0.0782      156.4390      156.5172      43.237298      -0.00000
  28     33.73      113.2747        0.0948      156.4171      156.5120      43.237298       0.00000
  27     40.54      113.2683        0.1149      156.3907      156.5056      43.237298       0.00000
  26     48.69      113.2607        0.1392      156.3588      156.4980      43.237298      -0.00000
  25     57.69      113.2523        0.1659      156.3237      156.4896      43.237298       0.00000
  24     68.43      113.2423        0.1978      156.2818      156.4796      43.237298       0.00000
  23     81.20      113.2304        0.2358      156.2319      156.4677      43.237298       0.00000
  22     96.49      113.2161        0.2812      156.1722      156.4534      43.237298      -0.00000
  21     114.6      113.1994        0.3352      156.0952      156.4304      43.231008       0.00294
  20     136.5      113.1795        0.3993      156.0034      156.4027      43.223209       0.00300
  19     162.9      113.1559        0.4759      155.8903      156.3662      43.210285       0.00413
  18     196.4      113.1253        0.5754      155.7272      156.3026      43.177238       0.00832
  17     218.7      113.1057        0.6408      155.5805      156.2214      43.115654       0.02338
  16     243.0      113.0857        0.7120      155.3439      156.0559      42.970208       0.05045
  15     269.0      113.0670        0.7890      154.9586      155.7476      42.680579       0.09395
  14     297.5      113.0528        0.8719      154.3968      155.2687      42.215928       0.13781
  13     328.5      113.0449        0.9613      153.7223      154.6836      41.638689       0.15695
  12     361.9      113.0475        1.0573      152.9159      153.9732      40.925685       0.18040
  11     398.1      113.0675        1.1601      151.9057      153.0658      39.998268       0.21607
  10     437.6      113.1166        1.2694      150.6102      151.8796      38.762962       0.26412
   9     480.5      113.2093        1.3851      149.0084      150.3935      37.184201       0.31006
   8     533.0      113.3992        1.5251      146.7445      148.2696      34.870334       0.37223
   7     589.8      113.7458        1.6720      143.8798      145.5518      31.805935       0.45486
   6     651.6      114.4243        1.8227      140.1022      141.9249      27.500640       0.58876
   5     718.7      115.6974        1.9758      135.5343      137.5101      21.812714       0.71481
   4     792.3      118.2368        2.1274      130.0753      132.2027      13.965934       0.89994
   3     825.4       59.7325       67.3926        0.0008       67.3934       7.660939       1.60931
   2     858.4       34.2070       40.0830        0.0000       40.0830       5.875914       0.45566
   1     891.5       12.6060       17.8554        0.0000       17.8554       5.249394       0.15998
   0    1013.0       12.8037       17.5393        0.0000       17.5393       4.735609       0.03567



 Wavenumbers: 12850. - 16000. cm-1, ATM      1
 LEVEL PRESSURE   UPWARD FLUX   DIFDOWN FLUX  DIRDOWN FLUX  DOWNWARD FLUX   NET FLUX    HEATING RATE
          mb          W/m2          W/m2          W/m2        W/m2          W/m2       degree/day
  51    .06700       81.2553        0.0000       98.0872       98.0872      16.831929       0.00000
  50    .07753       81.2553        0.0001       98.0864       98.0864      16.831136       0.63558
  49    .09103       81.2553        0.0002       98.0853       98.0855      16.830140       0.62265
  48    0.1069       81.2553        0.0003       98.0841       98.0843      16.828995       0.60950
  47    0.1255       81.2553        0.0004       98.0826       98.0830      16.827679       0.59666
  46    0.1487       81.2554        0.0005       98.0809       98.0814      16.826017       0.60575
  45    0.1794       81.2554        0.0007       98.0784       98.0792      16.823755       0.62093
  44    0.2165       81.2555        0.0010       98.0756       98.0766      16.821093       0.60561
  43    0.2613       81.2556        0.0013       98.0723       98.0736      16.817960       0.59055
  42    0.3336       81.2559        0.0017       98.0670       98.0688      16.812842       0.59669
  41    0.4307       81.2563        0.0024       98.0602       98.0626      16.806217       0.57601
  40    0.5894       81.2572        0.0034       98.0496       98.0530      16.795763       0.55595
  39     1.339       81.2645        0.0083       98.0043       98.0126      16.748144       0.53610
  38     1.782       81.2710        0.0111       97.9793       97.9904      16.719396       0.54731
  37     2.292       81.2807        0.0144       97.9498       97.9642      16.683481       0.59484
  36     5.035       81.3065        0.0202       97.8891       97.9093      16.602780       0.24830
  35     6.613       81.3606        0.0303       97.7746       97.8049      16.444350       0.84697
  34     8.786       81.4310        0.0440       97.6278       97.6718      16.240796       0.79053
  33     11.80       81.5228        0.0636       97.4339       97.4975      15.974661       0.74509
  32     15.07       81.6109        0.0846       97.2433       97.3279      15.717000       0.66523
  31     18.79       81.7010        0.1083       97.0439       97.1522      15.451195       0.60266
  30     23.16       81.7953        0.1360       96.8292       96.9651      15.169820       0.54409
  29     28.12       81.8906        0.1676       96.6048       96.7724      14.881824       0.48957
  28     33.73       81.9790        0.2029       96.3831       96.5860      14.607051       0.41313
  27     40.54       82.0648        0.2457       96.1494       96.3950      14.330215       0.34345
  26     48.69       82.1479        0.2972       95.9016       96.1988      14.050949       0.28900
  25     57.69       82.2194        0.3538       95.6629       96.0167      13.797312       0.23775
  24     68.43       82.2833        0.4213       95.4149       95.8362      13.552854       0.19218
  23     81.20       82.3302        0.5017       95.1674       95.6691      13.338935       0.14135
  22     96.49       82.3590        0.5977       94.9172       95.5149      13.155935       0.10100
  21     114.6       82.3911        0.7128       94.6421       95.3549      12.963756       0.08973
  20     136.5       82.4178        0.8491       94.3324       95.1815      12.763691       0.07693
  19     162.9       82.4392        1.0115       93.9750       94.9865      12.547249       0.06918
  18     196.4       82.4450        1.2221       93.5336       94.7557      12.310765       0.05953
  17     218.7       82.4410        1.3604       93.2498       94.6102      12.169215       0.05374
  16     243.0       82.4337        1.5107       92.9420       94.4527      12.019044       0.05208
  15     269.0       82.4232        1.6736       92.6087       94.2823      11.859119       0.05188
  14     297.5       82.4104        1.8497       92.2464       94.0961      11.685745       0.05142
  13     328.5       82.3976        2.0399       91.8517       93.8916      11.493992       0.05214
  12     361.9       82.3862        2.2446       91.4219       93.6665      11.280230       0.05408
  11     398.1       82.3784        2.4649       90.9524       93.4173      11.038961       0.05621
  10     437.6       82.3780        2.7014       90.4358       93.1372      10.759199       0.05981
   9     480.5       82.3892        2.9546       89.8659       92.8205      10.431308       0.06440
   8     533.0       82.4249        3.2658       89.1347       92.4006       9.975639       0.07330
   7     589.8       82.5037        3.6002       88.2943       91.8945       9.390832       0.08680
   6     651.6       82.6695        3.9572       87.2867       91.2439       8.574412       0.11165
   5     718.7       82.9576        4.3355       86.1028       90.4383       7.480699       0.13745
   4     792.3       83.4714        4.7311       84.6812       89.4123       5.940871       0.17660
   3     825.4       50.1402       54.5734        0.0006       54.5740       4.433802       0.38467
   2     858.4       34.3022       38.0631        0.0000       38.0631       3.760875       0.17178
   1     891.5       20.2453       23.6729        0.0000       23.6729       3.427619       0.08510
   0    1013.0       20.3966       23.4633        0.0000       23.4633       3.066651       0.02506



 Wavenumbers: 16000. - 22650. cm-1, ATM      1
 LEVEL PRESSURE   UPWARD FLUX   DIFDOWN FLUX  DIRDOWN FLUX  DOWNWARD FLUX   NET FLUX    HEATING RATE
          mb          W/m2          W/m2          W/m2        W/m2          W/m2       degree/day
  51    .06700      140.5068        0.0000      156.3892      156.3892      15.882484       0.00000
  50    .07753      140.5067        0.0004      156.3887      156.3891      15.882336       0.11823
  49    .09103      140.5067        0.0009      156.3879      156.3888      15.882122       0.13409
  48    0.1069      140.5067        0.0015      156.3871      156.3885      15.881834       0.15291
  47    0.1255      140.5067        0.0021      156.3861      156.3882      15.881450       0.17430
  46    0.1487      140.5068        0.0029      156.3847      156.3877      15.880883       0.20654
  45    0.1794      140.5069        0.0041      156.3828      156.3869      15.879997       0.24319
  44    0.2165      140.5071        0.0054      156.3805      156.3859      15.878796       0.27331
  43    0.2613      140.5075        0.0070      156.3776      156.3846      15.877166       0.30727
  42    0.3336      140.5082        0.0096      156.3726      156.3823      15.874067       0.36135
  41    0.4307      140.5094        0.0131      156.3657      156.3788      15.869395       0.40619
  40    0.5894      140.5120        0.0188      156.3537      156.3725      15.860485       0.47380
  39     1.339      140.5345        0.0458      156.2834      156.3292      15.794660       0.74108
  38     1.782      140.5554        0.0616      156.2324      156.2939      15.738584       1.06759
  37     2.292      140.5866        0.0799      156.1641      156.2440      15.657414       1.34438
  36     5.035      140.6705        0.1116      156.0076      156.1192      15.448729       0.64207
  35     6.613      140.8471        0.1680      155.6950      155.8630      15.015899       2.31391
  34     8.786      141.0770        0.2437      155.2860      155.5297      14.452694       2.18728
  33     11.80      141.3763        0.3520      154.7422      155.0942      13.717868       2.05728
  32     15.07      141.6629        0.4680      154.2059      154.6739      13.010999       1.82500
  31     18.79      141.9555        0.5988      153.6432      154.2421      12.286534       1.64258
  30     23.16      142.2613        0.7514      153.0352      153.7866      11.525320       1.47194
  29     28.12      142.5688        0.9257      152.3965      153.3222      10.753334       1.31232
  28     33.73      142.8526        1.1204      151.7604      152.8808      10.028220       1.09023
  27     40.54      143.1255        1.3555      151.0815      152.4370       9.311559       0.88910
  26     48.69      143.3865        1.6385      150.3500      151.9885       8.602065       0.73421
  25     57.69      143.6074        1.9491      149.6296      151.5787       7.971266       0.59128
  24     68.43      143.7997        2.3185      148.8604      151.1789       7.379121       0.46550
  23     81.20      143.9317        2.7583      148.0628      150.8210       6.889288       0.32367
  22     96.49      143.9988        3.2817      147.2220      150.5037       6.504899       0.21216
  21     114.6      144.0322        3.9015      146.2838      150.1853       6.153089       0.16427
  20     136.5      144.0404        4.6332      145.2142      149.8474       5.807005       0.13308
  19     162.9      144.0217        5.5005      143.9816      149.4821       5.460337       0.11081
  18     196.4      143.9361        6.6195      142.4652      149.0847       5.148551       0.07848
  17     218.7      143.8574        7.3507      141.5017      148.8524       4.994947       0.05832
  16     243.0      143.7616        8.1421      140.4717      148.6138       4.852267       0.04949
  15     269.0      143.6470        8.9959      139.3740      148.3699       4.722902       0.04197
  14     297.5      143.5130        9.9140      138.2062      148.1202       4.607202       0.03432
  13     328.5      143.3638       10.9009      136.9574      147.8583       4.494521       0.03064
  12     361.9      143.1989       11.9574      135.6265      147.5839       4.384970       0.02772
  11     398.1      143.0180       13.0875      134.2081      147.2956       4.277613       0.02501
  10     437.6      142.8221       14.2932      132.6981      146.9913       4.169236       0.02317
   9     480.5      142.6108       15.5767      131.0935      146.6703       4.059472       0.02156
   8     533.0      142.3512       17.1443      129.1351      146.2794       3.928185       0.02112
   7     589.8      142.0762       18.8192      127.0392      145.8583       3.782167       0.02167
   6     651.6      141.7926       20.6028      124.7944      145.3972       3.604559       0.02429
   5     718.7      141.5077       22.4970      122.3908      144.8878       3.380122       0.02821
   4     792.3      141.2396       24.4995      119.8121      144.3116       3.072037       0.03533
   3     825.4      110.7197      113.3954        0.0008      113.3962       2.676528       0.10095
   2     858.4      100.7838      103.1787        0.0000      103.1787       2.394965       0.07187
   1     891.5       91.8072       93.9804        0.0000       93.9804       2.173131       0.05664
   0    1013.0       91.9341       93.8007        0.0000       93.8007       1.866634       0.02128



 Wavenumbers: 22650. - 29000. cm-1, ATM      1
 LEVEL PRESSURE   UPWARD FLUX   DIFDOWN FLUX  DIRDOWN FLUX  DOWNWARD FLUX   NET FLUX    HEATING RATE
          mb          W/m2          W/m2          W/m2        W/m2          W/m2       degree/day
  51    .06700       58.2207        0.0000       59.0156       59.0156       0.794950       0.00000
  50    .07753       58.2206        0.0005       59.0151       59.0155       0.794950      -0.00000
  49    .09103       58.2205        0.0010       59.0144       59.0154       0.794950       0.00000
  48    0.1069       58.2203        0.0017       59.0136       59.0153       0.794950       0.00000
  47    0.1255       58.2202        0.0025       59.0127       59.0151       0.794950       0.00000
  46    0.1487       58.2200        0.0034       59.0115       59.0149       0.794950      -0.00000
  45    0.1794       58.2197        0.0048       59.0099       59.0147       0.794950       0.00000
  44    0.2165       58.2194        0.0063       59.0080       59.0144       0.794950      -0.00000
  43    0.2613       58.2191        0.0082       59.0058       59.0140       0.794950       0.00000
  42    0.3336       58.2185        0.0112       59.0022       59.0134       0.794950       0.00000
  41    0.4307       58.2177        0.0153       58.9973       59.0126       0.794950       0.00000
  40    0.5894       58.2164        0.0219       58.9894       59.0113       0.794950      -0.00000
  39     1.339       58.2102        0.0534       58.9518       59.0051       0.794950       0.00000
  38     1.782       58.2066        0.0718       58.9297       59.0015       0.794950       0.00000
  37     2.292       58.2024        0.0932       58.9042       58.9973       0.794950       0.00000
  36     5.035       58.1951        0.1302       58.8599       58.9901       0.794950      -0.00000
  35     6.613       58.1822        0.1959       58.7812       58.9771       0.794950      -0.00000
  34     8.786       58.1648        0.2844       58.6754       58.9598       0.794950       0.00000
  33     11.80       58.1400        0.4108       58.5242       58.9350       0.794950      -0.00000
  32     15.07       58.1134        0.5463       58.3621       58.9084       0.794950       0.00000
  31     18.79       58.0834        0.6990       58.1794       58.8784       0.794950      -0.00000
  30     23.16       58.0485        0.8769       57.9665       58.8434       0.794950       0.00000
  29     28.12       58.0086        1.0799       57.7237       58.8035       0.794950       0.00000
  28     33.73       57.9641        1.3061       57.4530       58.7591       0.794950      -0.00000
  27     40.54       57.9106        1.5784       57.1272       58.7056       0.794950       0.00000
  26     48.69       57.8465        1.9049       56.7366       58.6414       0.794950       0.00000
  25     57.69       57.7764        2.2613       56.3100       58.5713       0.794950       0.00000
  24     68.43       57.6935        2.6828       55.8057       58.4884       0.794950      -0.00000
  23     81.20       57.5955        3.1805       55.2100       58.3905       0.794950       0.00000
  22     96.49       57.4800        3.7673       54.5077       58.2750       0.794950       0.00000
  21     114.6       57.3446        4.4550       53.6845       58.1395       0.794950       0.00000
  20     136.5       57.1864        5.2577       52.7236       57.9813       0.794950       0.00000
  19     162.9       57.0013        6.1960       51.6003       57.7963       0.794950       0.00000
  18     196.4       56.7666        7.3846       50.1770       57.5616       0.794950      -0.00000
  17     218.7       56.6157        8.1483       49.2623       57.4106       0.794950       0.00000
  16     243.0       56.4544        8.9637       48.2857       57.2493       0.794950       0.00000
  15     269.0       56.2828        9.8302       47.2476       57.0778       0.794950       0.00000
  14     297.5       56.1011       10.7470       46.1491       56.8961       0.794950       0.00000
  13     328.5       55.9089       11.7154       44.9884       56.7039       0.794950      -0.00000
  12     361.9       55.7067       12.7330       43.7687       56.5017       0.794950      -0.00000
  11     398.1       55.4945       13.7997       42.4898       56.2894       0.794950       0.00000
  10     437.6       55.2726       14.9133       41.1542       56.0675       0.794950       0.00000
   9     480.5       55.0413       16.0715       39.7647       55.8363       0.794950      -0.00000
   8     533.0       54.7658       17.4489       38.1118       55.5607       0.794950       0.00000
   7     589.8       54.4794       18.8765       36.3978       55.2744       0.794950      -0.00000
   6     651.6       54.1836       20.3471       34.6314       54.9785       0.794950       0.00000
   5     718.7       53.8793       21.8551       32.8192       54.6742       0.794950       0.00000
   4     792.3       53.5680       23.3914       30.9715       54.3630       0.794950      -0.00000
   3     825.4       45.3884       46.1821        0.0002       46.1823       0.793914       0.00026
   2     858.4       42.2123       43.0053        0.0000       43.0053       0.792977       0.00024
   1     891.5       39.0399       39.8320        0.0000       39.8320       0.792108       0.00022
   0    1013.0       39.0123       39.8044        0.0000       39.8044       0.792108       0.00000



 Wavenumbers: 29000. - 38000. cm-1, ATM      1
 LEVEL PRESSURE   UPWARD FLUX   DIFDOWN FLUX  DIRDOWN FLUX  DOWNWARD FLUX   NET FLUX    HEATING RATE
          mb          W/m2          W/m2          W/m2        W/m2          W/m2       degree/day
  51    .06700        8.7890        0.0000       20.8114       20.8114      12.022337       0.00000
  50    .07753        8.7888        0.0003       20.8070       20.8074      12.018529       3.05179
  49    .09103        8.7886        0.0007       20.8009       20.8016      12.012992       3.46112
  48    0.1069        8.7884        0.0012       20.7928       20.7939      12.005581       3.94460
  47    0.1255        8.7881        0.0017       20.7820       20.7837      11.995676       4.49070
  46    0.1487        8.7877        0.0024       20.7665       20.7688      11.981111       5.30887
  45    0.1794        8.7873        0.0033       20.7424       20.7457      11.958445       6.22256
  44    0.2165        8.7868        0.0044       20.7103       20.7147      11.927919       6.94399
  43    0.2613        8.7862        0.0056       20.6675       20.6731      11.886921       7.72799
  42    0.3336        8.7853        0.0077       20.5880       20.5957      11.810353       8.92705
  41    0.4307        8.7842        0.0104       20.4722       20.4826      11.698390       9.73493
  40    0.5894        8.7827        0.0147       20.2637       20.2784      11.495686      10.77954
  39     1.339        8.7795        0.0332       19.0984       19.1315      10.352059      12.87517
  38     1.782        8.7801        0.0427       18.4394       18.4821       9.702010      12.37588
  37     2.292        8.7829        0.0530       17.7714       17.8244       9.041495      10.93985
  36     5.035        8.7959        0.0692       16.7265       16.7957       7.999841       3.20490
  35     6.613        8.8261        0.0964       15.5186       15.6150       6.788907       6.47365
  34     8.786        8.8665        0.1317       14.5590       14.6907       5.824212       3.74653
  33     11.80        8.9196        0.1805       13.7000       13.8806       4.960968       2.41681
  32     15.07        8.9710        0.2307       13.0749       13.3057       4.334700       1.61690
  31     18.79        9.0242        0.2861       12.5486       12.8347       3.810497       1.18853
  30     23.16        9.0808        0.3489       12.0732       12.4221       3.341236       0.90740
  29     28.12        9.1390        0.4190       11.6423       12.0613       2.922357       0.71207
  28     33.73        9.1927        0.4961       11.2628       11.7589       2.566229       0.53545
  27     40.54        9.2438        0.5882       10.8969       11.4850       2.241286       0.40313
  26     48.69        9.2920        0.6972       10.5353       11.2325       1.940537       0.31123
  25     57.69        9.3315        0.8152       10.2040       11.0192       1.687631       0.23706
  24     68.43        9.3636        0.9534        9.8713       10.8247       1.461129       0.17806
  23     81.20        9.3788        1.1165        9.5431       10.6596       1.280829       0.11914
  22     96.49        9.3751        1.3082        9.2107       10.5189       1.143756       0.07565
  21     114.6        9.3610        1.5295        8.8533       10.3828       1.021869       0.05691
  20     136.5        9.3393        1.7825        8.4618       10.2443       0.905034       0.04493
  19     162.9        9.3102        2.0707        8.0302       10.1009       0.790738       0.03653
  18     196.4        9.2614        2.4276        7.5240        9.9516       0.690228       0.02530
  17     218.7        9.2262        2.6520        7.2154        9.8675       0.641246       0.01860
  16     243.0        9.1877        2.8866        6.8972        9.7837       0.596044       0.01568
  15     269.0        9.1456        3.1304        6.5707        9.7010       0.555478       0.01316
  14     297.5        9.0999        3.3823        6.2374        9.6196       0.519739       0.01060
  13     328.5        9.0522        3.6414        5.8964        9.5377       0.485542       0.00930
  12     361.9        9.0029        3.9050        5.5509        9.4559       0.453038       0.00822
  11     398.1        8.9521        4.1728        5.2016        9.3744       0.422253       0.00717
  10     437.6        8.9004        4.4430        4.8500        9.2930       0.392594       0.00634
   9     480.5        8.8480        4.7135        4.4990        9.2125       0.364458       0.00553
   8     533.0        8.7879        5.0218        4.0999        9.1217       0.333808       0.00493
   7     589.8        8.7284        5.3255        3.7070        9.0325       0.304152       0.00440
   6     651.6        8.6705        5.6209        3.3248        8.9456       0.275159       0.00396
   5     718.7        8.6146        5.9063        2.9551        8.8614       0.246783       0.00357
   4     792.3        8.5617        6.1784        2.6023        8.7807       0.219027       0.00318
   3     825.4        7.3246        7.5138        0.0000        7.5138       0.189217       0.00761
   2     858.4        6.6245        6.7891        0.0000        6.7891       0.164641       0.00627
   1     891.5        6.0140        6.1577        0.0000        6.1577       0.143730       0.00534
   0    1013.0        6.0150        6.1372        0.0000        6.1372       0.122130       0.00150



 Wavenumbers: 38000. - 50000. cm-1, ATM      1
 LEVEL PRESSURE   UPWARD FLUX   DIFDOWN FLUX  DIRDOWN FLUX  DOWNWARD FLUX   NET FLUX    HEATING RATE
          mb          W/m2          W/m2          W/m2        W/m2          W/m2       degree/day
  51    .06700        0.0061        0.0000        1.2836        1.2836       1.277566       0.00000
  50    .07753        0.0060        0.0001        1.2812        1.2812       1.275231       1.87147
  49    .09103        0.0059        0.0002        1.2777        1.2778       1.271899       2.08243
  48    0.1069        0.0058        0.0002        1.2731        1.2734       1.267521       2.33056
  47    0.1255        0.0058        0.0004        1.2672        1.2675       1.261766       2.60905
  46    0.1487        0.0056        0.0005        1.2586        1.2591       1.253440       3.03495
  45    0.1794        0.0055        0.0007        1.2455        1.2462       1.240672       3.50516
  44    0.2165        0.0053        0.0009        1.2282        1.2291       1.223746       3.85033
  43    0.2613        0.0051        0.0011        1.2054        1.2065       1.201398       4.21256
  42    0.3336        0.0048        0.0015        1.1639        1.1654       1.160574       4.75965
  41    0.4307        0.0044        0.0020        1.1051        1.1070       1.102615       5.03937
  40    0.5894        0.0039        0.0026        1.0039        1.0064       1.002575       5.32000
  39     1.339        0.0022        0.0035        0.5438        0.5473       0.545166       5.14960
  38     1.782        0.0016        0.0032        0.3635        0.3666       0.365077       3.42860
  37     2.292        0.0011        0.0027        0.2356        0.2383       0.237147       2.11885
  36     5.035        0.0007        0.0019        0.1180        0.1199       0.119172       0.36298
  35     6.613        0.0004        0.0013        0.0504        0.0516       0.051220       0.36327
  34     8.786        0.0002        0.0009        0.0239        0.0248       0.024556       0.10355
  33     11.80        0.0001        0.0006        0.0105        0.0110       0.010913       0.03820
  32     15.07        0.0001        0.0004        0.0048        0.0052       0.005151       0.01488
  31     18.79        0.0000        0.0002        0.0022        0.0024       0.002406       0.00622
  30     23.16        0.0000        0.0001        0.0010        0.0011       0.001079       0.00257
  29     28.12        0.0000        0.0001        0.0004        0.0005       0.000469       0.00104
  28     33.73        0.0000        0.0000        0.0002        0.0002       0.000205       0.00040
  27     40.54        0.0000        0.0000        0.0001        0.0001       0.000083       0.00015
  26     48.69        0.0000        0.0000        0.0000        0.0000       0.000031       0.00005
  25     57.69        0.0000        0.0000        0.0000        0.0000       0.000011       0.00002
  24     68.43        0.0000        0.0000        0.0000        0.0000       0.000004       0.00001
  23     81.20        0.0000        0.0000        0.0000        0.0000       0.000001       0.00000
  22     96.49        0.0000        0.0000        0.0000        0.0000       0.000000       0.00000
  21     114.6        0.0000        0.0000        0.0000        0.0000       0.000000       0.00000
  20     136.5        0.0000        0.0000        0.0000        0.0000       0.000000       0.00000
  19     162.9        0.0000        0.0000        0.0000        0.0000       0.000000       0.00000
  18     196.4        0.0000        0.0000        0.0000        0.0000       0.000000       0.00000
  17     218.7        0.0000        0.0000        0.0000        0.0000       0.000000       0.00000
  16     243.0        0.0000        0.0000        0.0000        0.0000       0.000000       0.00000
  15     269.0        0.0000        0.0000        0.0000        0.0000       0.000000       0.00000
  14     297.5        0.0000        0.0000        0.0000        0.0000       0.000000       0.00000
  13     328.5        0.0000        0.0000        0.0000        0.0000       0.000000       0.00000
  12     361.9        0.0000        0.0000        0.0000        0.0000       0.000000       0.00000
  11     398.1        0.0000        0.0000        0.0000        0.0000       0.000000       0.00000
  10     437.6        0.0000        0.0000        0.0000        0.0000       0.000000       0.00000
   9     480.5        0.0000        0.0000        0.0000        0.0000       0.000000       0.00000
   8     533.0        0.0000        0.0000        0.0000        0.0000       0.000000       0.00000
   7     589.8        0.0000        0.0000        0.0000        0.0000       0.000000       0.00000
   6     651.6        0.0000        0.0000        0.0000        0.0000       0.000000       0.00000
   5     718.7        0.0000        0.0000        0.0000        0.0000       0.000000       0.00000
   4     792.3        0.0000        0.0000        0.0000        0.0000       0.000000       0.00000
   3     825.4        0.0000        0.0000        0.0000        0.0000       0.000000       0.00000
   2     858.4        0.0000        0.0000        0.0000        0.0000       0.000000       0.00000
   1     891.5        0.0000        0.0000        0.0000        0.0000       0.000000       0.00000
   0    1013.0        0.0000        0.0000        0.0000        0.0000       0.000000       0.00000



 Wavenumbers:   820. -  2600. cm-1, ATM      1
 LEVEL PRESSURE   UPWARD FLUX   DIFDOWN FLUX  DIRDOWN FLUX  DOWNWARD FLUX   NET FLUX    HEATING RATE
          mb          W/m2          W/m2          W/m2        W/m2          W/m2       degree/day
  51    .06700        1.6091        0.0000        6.0047        6.0047       4.395565       0.00000
  50    .07753        1.6091        0.0000        6.0008        6.0008       4.391712       3.08825
  49    .09103        1.6091        0.0000        5.9999        5.9999       4.390826       0.55362
  48    0.1069        1.6091        0.0000        5.9989        5.9989       4.389837       0.52656
  47    0.1255        1.6091        0.0000        5.9978        5.9978       4.388720       0.50654
  46    0.1487        1.6091        0.0000        5.9964        5.9964       4.387363       0.49461
  45    0.1794        1.6091        0.0000        5.9947        5.9947       4.385643       0.47205
  44    0.2165        1.6091        0.0000        5.9929        5.9929       4.383801       0.41915
  43    0.2613        1.6091        0.0000        5.9909        5.9909       4.381841       0.36938
  42    0.3336        1.6091        0.0000        5.9880        5.9880       4.378962       0.33561
  41    0.4307        1.6091        0.0000        5.9846        5.9846       4.375493       0.30170
  40    0.5894        1.6091        0.0000        5.9791        5.9791       4.369986       0.29282
  39     1.339        1.6091        0.0000        5.9536        5.9536       4.344494       0.28700
  38     1.782        1.6091        0.0000        5.9395        5.9395       4.330353       0.26923
  37     2.292        1.6091        0.0000        5.9237        5.9237       4.314598       0.26094
  36     5.035        1.6091        0.0000        5.8954        5.8954       4.286324       0.08699
  35     6.613        1.6091        0.0000        5.8469        5.8469       4.237815       0.25933
  34     8.786        1.6092        0.0000        5.7915        5.7915       4.182367       0.21534
  33     11.80        1.6092        0.0000        5.7245        5.7245       4.115289       0.18780
  32     15.07        1.6092        0.0000        5.6684        5.6684       4.059235       0.14472
  31     18.79        1.6092        0.0000        5.6231        5.6231       4.013810       0.10299
  30     23.16        1.6093        0.0000        5.5871        5.5871       3.977808       0.06962
  29     28.12        1.6093        0.0000        5.5583        5.5583       3.948959       0.04904
  28     33.73        1.6094        0.0000        5.5327        5.5328       3.923360       0.03849
  27     40.54        1.6095        0.0000        5.5051        5.5051       3.895615       0.03442
  26     48.69        1.6095        0.0000        5.4733        5.4733       3.863806       0.03292
  25     57.69        1.6096        0.0000        5.4393        5.4394       3.829739       0.03193
  24     68.43        1.6097        0.0000        5.3998        5.3999       3.790136       0.03113
  23     81.20        1.6098        0.0000        5.3545        5.3546       3.744719       0.03001
  22     96.49        1.6100        0.0000        5.3027        5.3028       3.692758       0.02868
  21     114.6        1.6102        0.0000        5.2431        5.2431       3.632912       0.02794
  20     136.5        1.6104        0.0000        5.1754        5.1755       3.565046       0.02610
  19     162.9        1.6108        0.0000        5.0924        5.0924       3.481634       0.02666
  18     196.4        1.6113        0.0000        4.9695        4.9695       3.358190       0.03107
  17     218.7        1.6119        0.0000        4.8606        4.8606       3.248728       0.04156
  16     243.0        1.6128        0.0000        4.7093        4.7093       3.096539       0.05278
  15     269.0        1.6141        0.0000        4.5352        4.5352       2.921044       0.05693
  14     297.5        1.6163        0.0000        4.3425        4.3426       2.726282       0.05776
  13     328.5        1.6192        0.0000        4.1286        4.1286       2.509463       0.05895
  12     361.9        1.6230        0.0000        3.8790        3.8791       2.256068       0.06411
  11     398.1        1.6280        0.0000        3.6162        3.6163       1.988284       0.06239
  10     437.6        1.6344        0.0000        3.3761        3.3761       1.741708       0.05272
   9     480.5        1.6423        0.0000        3.1959        3.1960       1.553665       0.03693
   8     533.0        1.6543        0.0000        3.0468        3.0468       1.392571       0.02591
   7     589.8        1.6720        0.0001        2.9024        2.9024       1.230466       0.02406
   6     651.6        1.7028        0.0001        2.7184        2.7185       1.015667       0.02937
   5     718.7        1.7564        0.0001        2.5059        2.5059       0.749567       0.03344
   4     792.3        1.8606        0.0001        2.2757        2.2757       0.415175       0.03835
   3     825.4        0.6082        0.7564        0.0000        0.7564       0.148206       0.06814
   2     858.4        0.2411        0.3089        0.0000        0.3089       0.067866       0.02051
   1     891.5        0.0482        0.0890        0.0000        0.0890       0.040856       0.00690
   0    1013.0        0.0558        0.0765        0.0000        0.0765       0.020642       0.00140

  Modules and versions used in this calculation:

       rrtmg_sw.1col.f90:  $Revision$                    rrtmg_sw_init.f90:  $Revision$        
     rrtmgsw_cldprop.f90:  $Revision$                  rrtmgsw_cldprmc.f90:  NOT USED          
     rrtmg_sw_reftra.f90:  $Revision$                  rrtmg_sw_spcvrt.f90:  NOT USED          
     rrtmg_sw_spcvmc.f90:  NOT USED                    rrtmgsw_setcoef.f90:  NOT USED          
     rrtmg_sw_taumol.f90:  $Revision$                  rrtmg_sw_vrtqdr.f90:  NOT USED          
                rrtatm.f:  NOT USED                             util_xxx.f:  NOT USED          
                 extra.f:  NOT USED                       rrtmg_sw_k_g.f90:  $Revision$        

