

 Wavenumbers:   820. - 50000. cm-1, ATM      1
 LEVEL PRESSURE   UPWARD FLUX   DIFDOWN FLUX  DIRDOWN FLUX  DOWNWARD FLUX   NET FLUX    HEATING RATE
          mb          W/m2          W/m2          W/m2        W/m2          W/m2       degree/day
  51    .06700      355.3192        0.0000      617.8126      617.8126     262.493344       0.00000
  50    .07753      355.3188        0.0013      617.7947      617.7961     262.477209      12.93212
  49    .09103      355.3184        0.0030      617.7778      617.7808     262.462407       9.25186
  48    0.1069      355.3179        0.0050      617.7581      617.7630     262.445155       9.18345
  47    0.1255      355.3173        0.0072      617.7340      617.7412     262.423822       9.67142
  46    0.1487      355.3167        0.0100      617.7009      617.7109     262.394152      10.81490
  45    0.1794      355.3159        0.0138      617.6521      617.6659     262.349945      12.13589
  44    0.2165      355.3152        0.0183      617.5895      617.6078     262.292655      13.03255
  43    0.2613      355.3144        0.0236      617.5089      617.5325     262.218182      14.03774
  42    0.3336      355.3134        0.0324      617.3641      617.3965     262.083171      15.74098
  41    0.4307      355.3125        0.0440      617.1591      617.2031     261.890655      16.73879
  40    0.5894      355.3119        0.0626      616.8005      616.8631     261.551163      18.05377
  39     1.339      355.3272        0.1469      614.9443      615.0911     259.763915      20.12116
  38     1.782      355.3485        0.1943      613.9670      614.1613     258.812769      18.10829
  37     2.292      355.3844        0.2482      613.0059      613.2541     257.869736      15.61909
  36     2.964      355.4482        0.3183      611.9577      612.2760     256.827776      13.07974
  35     3.853      355.5559        0.4102      610.8024      611.2126     255.656711      11.11363
  34     5.035      355.7221        0.5315      609.5327      610.0642     254.342183       9.39044
  33     6.613      355.9562        0.6925      608.1464      608.8389     252.882699       7.80240
  32     8.786      356.2612        0.9085      606.6250      607.5335     251.272320       6.25413
  31     11.80      356.6555        1.2159      604.8486      606.0646     249.409084       5.21647
  30     15.07      357.0300        1.5440      603.2440      604.7879     247.757911       4.26301
  29     18.79      357.4095        1.9131      601.6511      603.5642     246.154719       3.63493
  28     23.16      357.8025        2.3420      599.9927      602.3347     244.532153       3.13752
  27     28.12      358.1931        2.8301      598.2881      601.1181     242.925060       2.73195
  26     33.73      358.5440        3.3742      596.5951      599.9693     241.425258       2.25499
  25     40.54      358.8677        4.0293      594.7727      598.8020     239.934264       1.84975
  24     48.69      359.1607        4.8153      592.7865      597.6018     238.441074       1.54522
  23     57.69      359.3882        5.6745      590.7959      596.4704     237.082155       1.27378
  22     68.43      359.5567        6.6923      588.6191      595.3114     235.754614       1.04362
  21     81.20      359.6152        7.8989      586.2690      594.1678     234.552647       0.79424
  20     96.49      359.5528        9.3273      583.6961      593.0234     233.470656       0.59718
  19     114.6      359.4272       11.0078      580.7708      591.7786     232.351460       0.52259
  18     136.5      359.2342       12.9753      577.4359      590.4112     231.176922       0.45164
  17     162.9      358.9667       15.2838      573.5624      588.8463     229.879602       0.41468
  16     196.4      358.5328       18.2273      568.5907      586.8180     228.285270       0.40131
  15     218.7      358.2184       20.1301      565.0572      585.1873     226.968909       0.49977
  14     243.0      357.8662       22.1707      560.7495      582.9203     225.054023       0.66415
  13     269.0      357.4748       24.3505      555.3947      579.7451     222.270378       0.90300
  12     297.5      357.0449       26.6699      548.9964      575.6663     218.621328       1.08227
  11     328.5      356.5838       29.1353      542.0895      571.2249     214.641036       1.08223
  10     361.9      356.0941       31.7430      534.6242      566.3672     210.273119       1.10513
   9     398.1      355.5781       34.4972      526.4204      560.9176     205.339495       1.14942
   8     437.6      355.0436       37.3966      517.3907      554.7872     199.743590       1.19644
   7     480.5      354.4972       40.4391      507.7216      548.1606     193.663459       1.19411
   6     533.0      353.8728       44.0959      495.9006      539.9966     186.123751       1.21290
   5     589.8      353.2842       47.9321      483.0788      531.0109     177.726751       1.24639
   4     651.6      352.8137       51.9349      468.6907      520.6256     167.811894       1.35588
   3     718.7      352.5471       56.0963      453.2257      509.3220     156.774927       1.38704
   2     792.3      352.6935       60.3944      436.4928      496.8873     144.193777       1.44292
   1     891.5      353.9729       65.9458      413.9344      479.8802     125.907348       1.55609
   0    1013.0      358.0832       72.2572      388.4125      460.6697     102.586452       1.61929



 Wavenumbers:  2600. -  3250. cm-1, ATM      1
 LEVEL PRESSURE   UPWARD FLUX   DIFDOWN FLUX  DIRDOWN FLUX  DOWNWARD FLUX   NET FLUX    HEATING RATE
          mb          W/m2          W/m2          W/m2        W/m2          W/m2       degree/day
  51    .06700        0.0225        0.0000        5.4450        5.4450       5.422489       0.00000
  50    .07753        0.0225        0.0000        5.4450        5.4450       5.422481       0.00640
  49    .09103        0.0225        0.0000        5.4450        5.4450       5.422471       0.00627
  48    0.1069        0.0225        0.0000        5.4450        5.4450       5.422460       0.00613
  47    0.1255        0.0225        0.0000        5.4450        5.4450       5.422446       0.00599
  46    0.1487        0.0225        0.0000        5.4450        5.4450       5.422430       0.00608
  45    0.1794        0.0225        0.0000        5.4450        5.4450       5.422407       0.00625
  44    0.2165        0.0225        0.0000        5.4449        5.4449       5.422380       0.00612
  43    0.2613        0.0225        0.0000        5.4449        5.4449       5.422348       0.00600
  42    0.3336        0.0225        0.0000        5.4448        5.4448       5.422295       0.00617
  41    0.4307        0.0225        0.0000        5.4448        5.4448       5.422224       0.00620
  40    0.5894        0.0225        0.0000        5.4446        5.4446       5.422104       0.00637
  39     1.339        0.0225        0.0000        5.4439        5.4439       5.421397       0.00797
  38     1.782        0.0225        0.0000        5.4434        5.4434       5.420854       0.01034
  37     2.292        0.0225        0.0000        5.4427        5.4427       5.420138       0.01186
  36     2.964        0.0225        0.0000        5.4416        5.4416       5.419099       0.01304
  35     3.853        0.0225        0.0000        5.4402        5.4402       5.417622       0.01402
  34     5.035        0.0225        0.0000        5.4381        5.4381       5.415567       0.01468
  33     6.613        0.0225        0.0000        5.4353        5.4353       5.412786       0.01487
  32     8.786        0.0225        0.0000        5.4317        5.4317       5.409154       0.01411
  31     11.80        0.0225        0.0000        5.4269        5.4269       5.404374       0.01338
  30     15.07        0.0225        0.0000        5.4224        5.4224       5.399848       0.01169
  29     18.79        0.0225        0.0000        5.4180        5.4180       5.395436       0.01000
  28     23.16        0.0225        0.0000        5.4135        5.4135       5.390951       0.00867
  27     28.12        0.0225        0.0000        5.4088        5.4088       5.386304       0.00790
  26     33.73        0.0225        0.0000        5.4036        5.4036       5.381066       0.00788
  25     40.54        0.0225        0.0000        5.3966        5.3967       5.374126       0.00861
  24     48.69        0.0225        0.0000        5.3872        5.3872       5.364653       0.00980
  23     57.69        0.0225        0.0000        5.3754        5.3754       5.352874       0.01104
  22     68.43        0.0225        0.0000        5.3599        5.3599       5.337393       0.01217
  21     81.20        0.0225        0.0000        5.3401        5.3401       5.317570       0.01310
  20     96.49        0.0225        0.0000        5.3155        5.3155       5.293017       0.01355
  19     114.6        0.0225        0.0000        5.2853        5.2853       5.262838       0.01409
  18     136.5        0.0225        0.0000        5.2504        5.2505       5.227956       0.01341
  17     162.9        0.0225        0.0001        5.2111        5.2111       5.188649       0.01256
  16     196.4        0.0225        0.0001        5.1640        5.1641       5.141616       0.01184
  15     218.7        0.0225        0.0001        5.1331        5.1332       5.110698       0.01174
  14     243.0        0.0225        0.0001        5.0962        5.0963       5.073815       0.01279
  13     269.0        0.0225        0.0001        5.0511        5.0512       5.028697       0.01464
  12     297.5        0.0225        0.0001        4.9956        4.9957       4.973210       0.01646
  11     328.5        0.0225        0.0001        4.9304        4.9305       4.907973       0.01774
  10     361.9        0.0225        0.0001        4.8511        4.8512       4.828687       0.02006
   9     398.1        0.0226        0.0001        4.7507        4.7508       4.728248       0.02340
   8     437.6        0.0226        0.0001        4.6220        4.6222       4.599561       0.02751
   7     480.5        0.0227        0.0001        4.4625        4.4626       4.439941       0.03135
   6     533.0        0.0228        0.0002        4.2460        4.2462       4.223395       0.03484
   5     589.8        0.0230        0.0002        3.9954        3.9956       3.972588       0.03723
   4     651.6        0.0233        0.0002        3.7089        3.7090       3.685754       0.03923
   3     718.7        0.0237        0.0002        3.4018        3.4020       3.378264       0.03864
   2     792.3        0.0245        0.0002        3.0564        3.0566       3.032124       0.03970
   1     891.5        0.0262        0.0002        2.5828        2.5830       2.556791       0.04045
   0    1013.0        0.0302        0.0001        2.0845        2.0847       2.054434       0.03488



 Wavenumbers:  3250. -  4000. cm-1, ATM      1
 LEVEL PRESSURE   UPWARD FLUX   DIFDOWN FLUX  DIRDOWN FLUX  DOWNWARD FLUX   NET FLUX    HEATING RATE
          mb          W/m2          W/m2          W/m2        W/m2          W/m2       degree/day
  51    .06700        0.0005        0.0000        9.1795        9.1795       9.179065       0.00000
  50    .07753        0.0005        0.0000        9.1747        9.1747       9.174222       3.88148
  49    .09103        0.0005        0.0000        9.1713        9.1713       9.170834       2.11747
  48    0.1069        0.0005        0.0000        9.1688        9.1688       9.168309       1.34402
  47    0.1255        0.0005        0.0000        9.1665        9.1665       9.166050       1.02422
  46    0.1487        0.0005        0.0000        9.1641        9.1641       9.163609       0.88991
  45    0.1794        0.0005        0.0000        9.1612        9.1612       9.160731       0.79008
  44    0.2165        0.0005        0.0000        9.1583        9.1583       9.157810       0.66430
  43    0.2613        0.0005        0.0000        9.1553        9.1553       9.154837       0.56041
  42    0.3336        0.0005        0.0000        9.1511        9.1511       9.150658       0.48723
  41    0.4307        0.0005        0.0000        9.1464        9.1464       9.145890       0.41459
  40    0.5894        0.0005        0.0000        9.1393        9.1394       9.138885       0.37255
  39     1.339        0.0005        0.0000        9.1127        9.1127       9.112271       0.29962
  38     1.782        0.0005        0.0000        9.1011        9.1011       9.100683       0.22062
  37     2.292        0.0005        0.0000        9.0901        9.0901       9.089616       0.18329
  36     2.964        0.0005        0.0000        9.0776        9.0776       9.077186       0.15603
  35     3.853        0.0005        0.0000        9.0629        9.0629       9.062396       0.14036
  34     5.035        0.0005        0.0000        9.0441        9.0441       9.043657       0.13386
  33     6.613        0.0005        0.0000        9.0191        9.0191       9.018656       0.13366
  32     8.786        0.0005        0.0000        8.9843        8.9843       8.983872       0.13509
  31     11.80        0.0004        0.0000        8.9327        8.9327       8.932256       0.14451
  30     15.07        0.0004        0.0000        8.8758        8.8759       8.875411       0.14676
  29     18.79        0.0004        0.0000        8.8110        8.8110       8.810584       0.14698
  28     23.16        0.0004        0.0000        8.7365        8.7366       8.736139       0.14395
  27     28.12        0.0004        0.0000        8.6554        8.6555       8.655026       0.13789
  26     33.73        0.0004        0.0000        8.5719        8.5719       8.571526       0.12554
  25     40.54        0.0004        0.0001        8.4812        8.4812       8.480802       0.11255
  24     48.69        0.0004        0.0001        8.3838        8.3839       8.383501       0.10069
  23     57.69        0.0004        0.0001        8.2861        8.2862       8.285766       0.09161
  22     68.43        0.0004        0.0001        8.1751        8.1751       8.174769       0.08726
  21     81.20        0.0004        0.0001        8.0457        8.0458       8.045411       0.08548
  20     96.49        0.0003        0.0001        7.8949        7.8950       7.894708       0.08318
  19     114.6        0.0003        0.0001        7.7162        7.7163       7.715998       0.08344
  18     136.5        0.0003        0.0002        7.5193        7.5194       7.519155       0.07569
  17     162.9        0.0003        0.0002        7.2913        7.2915       7.291263       0.07284
  16     196.4        0.0002        0.0002        6.9660        6.9662       6.965991       0.08187
  15     218.7        0.0002        0.0002        6.6648        6.6650       6.664802       0.11435
  14     243.0        0.0002        0.0002        6.2619        6.2622       6.262008       0.13970
  13     269.0        0.0002        0.0003        5.7576        5.7579       5.757709       0.16359
  12     297.5        0.0001        0.0003        5.1719        5.1722       5.172018       0.17371
  11     328.5        0.0001        0.0002        4.5757        4.5760       4.575859       0.16209
  10     361.9        0.0001        0.0002        3.9995        3.9998       3.999684       0.14578
   9     398.1        0.0001        0.0002        3.4655        3.4657       3.465629       0.12442
   8     437.6        0.0001        0.0002        2.9740        2.9742       2.974182       0.10507
   7     480.5        0.0001        0.0002        2.5307        2.5309       2.530811       0.08708
   6     533.0        0.0000        0.0002        2.0614        2.0616       2.061519       0.07549
   5     589.8        0.0000        0.0002        1.6150        1.6151       1.615096       0.06626
   4     651.6        0.0000        0.0001        1.1565        1.1566       1.156564       0.06271
   3     718.7        0.0000        0.0001        0.7390        0.7391       0.739090       0.05246
   2     792.3        0.0000        0.0001        0.3985        0.3985       0.398510       0.03906
   1     891.5        0.0000        0.0000        0.1139        0.1139       0.113929       0.02422
   0    1013.0        0.0002        0.0000        0.0094        0.0094       0.009196       0.00727



 Wavenumbers:  4000. -  4650. cm-1, ATM      1
 LEVEL PRESSURE   UPWARD FLUX   DIFDOWN FLUX  DIRDOWN FLUX  DOWNWARD FLUX   NET FLUX    HEATING RATE
          mb          W/m2          W/m2          W/m2        W/m2          W/m2       degree/day
  51    .06700        0.1215        0.0000       10.7795       10.7795      10.658061       0.00000
  50    .07753        0.1215        0.0000       10.7795       10.7795      10.658060       0.00080
  49    .09103        0.1215        0.0000       10.7795       10.7795      10.658059       0.00078
  48    0.1069        0.1215        0.0000       10.7795       10.7795      10.658058       0.00076
  47    0.1255        0.1215        0.0000       10.7795       10.7795      10.658056       0.00075
  46    0.1487        0.1215        0.0000       10.7795       10.7795      10.658054       0.00076
  45    0.1794        0.1215        0.0000       10.7795       10.7795      10.658051       0.00078
  44    0.2165        0.1215        0.0000       10.7795       10.7795      10.658048       0.00076
  43    0.2613        0.1215        0.0000       10.7795       10.7795      10.658044       0.00075
  42    0.3336        0.1215        0.0000       10.7795       10.7795      10.658037       0.00077
  41    0.4307        0.1215        0.0000       10.7795       10.7795      10.658028       0.00077
  40    0.5894        0.1215        0.0000       10.7795       10.7795      10.658013       0.00080
  39     1.339        0.1215        0.0000       10.7794       10.7794      10.657924       0.00101
  38     1.782        0.1215        0.0000       10.7793       10.7793      10.657854       0.00133
  37     2.292        0.1215        0.0000       10.7792       10.7792      10.657760       0.00156
  36     2.964        0.1215        0.0000       10.7791       10.7791      10.657620       0.00176
  35     3.853        0.1215        0.0000       10.7789       10.7789      10.657412       0.00197
  34     5.035        0.1215        0.0000       10.7786       10.7786      10.657106       0.00219
  33     6.613        0.1215        0.0000       10.7781       10.7781      10.656654       0.00241
  32     8.786        0.1215        0.0000       10.7774       10.7774      10.655989       0.00259
  31     11.80        0.1214        0.0000       10.7763       10.7764      10.654943       0.00293
  30     15.07        0.1214        0.0001       10.7751       10.7751      10.653717       0.00317
  29     18.79        0.1214        0.0001       10.7736       10.7737      10.652235       0.00336
  28     23.16        0.1214        0.0001       10.7717       10.7718      10.650396       0.00356
  27     28.12        0.1214        0.0001       10.7695       10.7696      10.648171       0.00378
  26     33.73        0.1214        0.0001       10.7667       10.7668      10.645430       0.00412
  25     40.54        0.1213        0.0001       10.7629       10.7631      10.641716       0.00461
  24     48.69        0.1213        0.0002       10.7579       10.7581      10.636772       0.00512
  23     57.69        0.1213        0.0002       10.7520       10.7522      10.630918       0.00549
  22     68.43        0.1212        0.0002       10.7446       10.7448      10.623592       0.00576
  21     81.20        0.1212        0.0003       10.7355       10.7358      10.614588       0.00595
  20     96.49        0.1212        0.0003       10.7245       10.7248      10.603655       0.00603
  19     114.6        0.1211        0.0004       10.7107       10.7111      10.590018       0.00637
  18     136.5        0.1210        0.0005       10.6942       10.6947      10.573636       0.00630
  17     162.9        0.1210        0.0006       10.6740       10.6746      10.553628       0.00640
  16     196.4        0.1209        0.0007       10.6464       10.6470      10.526180       0.00691
  15     218.7        0.1208        0.0008       10.6255       10.6262      10.505410       0.00789
  14     243.0        0.1207        0.0008       10.5980       10.5989      10.478142       0.00946
  13     269.0        0.1207        0.0009       10.5611       10.5620      10.441318       0.01195
  12     297.5        0.1207        0.0010       10.5119       10.5130      10.392302       0.01454
  11     328.5        0.1206        0.0011       10.4499       10.4510      10.330358       0.01684
  10     361.9        0.1206        0.0012       10.3702       10.3714      10.250772       0.02014
   9     398.1        0.1207        0.0013       10.2678       10.2691      10.148471       0.02383
   8     437.6        0.1207        0.0015       10.1390       10.1405      10.019762       0.02752
   7     480.5        0.1208        0.0016        9.9877        9.9893       9.868519       0.02970
   6     533.0        0.1209        0.0017        9.7937        9.7954       9.674501       0.03121
   5     589.8        0.1211        0.0019        9.5752        9.5770       9.455883       0.03245
   4     651.6        0.1216        0.0020        9.2958        9.2978       9.176213       0.03825
   3     718.7        0.1224        0.0021        8.9267        8.9289       8.806491       0.04646
   2     792.3        0.1237        0.0022        8.4542        8.4564       8.332704       0.05434
   1     891.5        0.1271        0.0023        7.7948        7.7971       7.670032       0.05639
   0    1013.0        0.1352        0.0024        7.0767        7.0791       6.943862       0.05042



 Wavenumbers:  4650. -  5150. cm-1, ATM      1
 LEVEL PRESSURE   UPWARD FLUX   DIFDOWN FLUX  DIRDOWN FLUX  DOWNWARD FLUX   NET FLUX    HEATING RATE
          mb          W/m2          W/m2          W/m2        W/m2          W/m2       degree/day
  51    .06700        0.0319        0.0000       10.2033       10.2033      10.171428       0.00000
  50    .07753        0.0319        0.0000       10.2031       10.2031      10.171192       0.18901
  49    .09103        0.0319        0.0000       10.2028       10.2028      10.170897       0.18428
  48    0.1069        0.0319        0.0000       10.2025       10.2025      10.170560       0.17931
  47    0.1255        0.0319        0.0000       10.2021       10.2021      10.170176       0.17426
  46    0.1487        0.0319        0.0000       10.2016       10.2016      10.169695       0.17536
  45    0.1794        0.0319        0.0000       10.2010       10.2010      10.169045       0.17850
  44    0.2165        0.0319        0.0000       10.2002       10.2002      10.168285       0.17277
  43    0.2613        0.0319        0.0000       10.1993       10.1993      10.167400       0.16690
  42    0.3336        0.0319        0.0000       10.1979       10.1979      10.165967       0.16702
  41    0.4307        0.0319        0.0000       10.1960       10.1960      10.164127       0.16002
  40    0.5894        0.0319        0.0000       10.1932       10.1932      10.161253       0.15283
  39     1.339        0.0319        0.0000       10.1816       10.1816      10.149662       0.13050
  38     1.782        0.0319        0.0000       10.1760       10.1760      10.144133       0.10525
  37     2.292        0.0319        0.0000       10.1706       10.1706      10.138677       0.09036
  36     2.964        0.0319        0.0000       10.1646       10.1647      10.132755       0.07434
  35     3.853        0.0319        0.0000       10.1584       10.1584      10.126542       0.05896
  34     5.035        0.0319        0.0000       10.1521       10.1521      10.120209       0.04524
  33     6.613        0.0319        0.0000       10.1456       10.1456      10.113755       0.03450
  32     8.786        0.0319        0.0000       10.1386       10.1386      10.106750       0.02720
  31     11.80        0.0319        0.0001       10.1295       10.1296      10.097720       0.02528
  30     15.07        0.0318        0.0001       10.1196       10.1197      10.087855       0.02547
  29     18.79        0.0318        0.0001       10.1076       10.1077      10.075867       0.02718
  28     23.16        0.0318        0.0001       10.0923       10.0924      10.060589       0.02954
  27     28.12        0.0318        0.0002       10.0731       10.0733      10.041530       0.03240
  26     33.73        0.0317        0.0002       10.0500       10.0502      10.018482       0.03465
  25     40.54        0.0317        0.0002       10.0201       10.0203       9.988643       0.03702
  24     48.69        0.0317        0.0003        9.9820        9.9822       9.950561       0.03941
  23     57.69        0.0316        0.0003        9.9384        9.9388       9.907135       0.04071
  22     68.43        0.0316        0.0004        9.8858        9.8861       9.854556       0.04133
  21     81.20        0.0315        0.0004        9.8234        9.8239       9.792375       0.04109
  20     96.49        0.0314        0.0005        9.7518        9.7523       9.720843       0.03948
  19     114.6        0.0313        0.0006        9.6719        9.6725       9.641178       0.03720
  18     136.5        0.0312        0.0007        9.5858        9.5865       9.555264       0.03304
  17     162.9        0.0311        0.0008        9.4940        9.4949       9.463752       0.02925
  16     196.4        0.0310        0.0010        9.3883        9.3893       9.358294       0.02655
  15     218.7        0.0309        0.0011        9.3229        9.3240       9.293135       0.02474
  14     243.0        0.0308        0.0012        9.2520        9.2532       9.222404       0.02453
  13     269.0        0.0307        0.0013        9.1717        9.1730       9.142311       0.02598
  12     297.5        0.0306        0.0015        9.0763        9.0777       9.047160       0.02822
  11     328.5        0.0305        0.0016        8.9650        8.9666       8.936086       0.03020
  10     361.9        0.0304        0.0017        8.8349        8.8366       8.806274       0.03284
   9     398.1        0.0303        0.0019        8.6820        8.6839       8.653616       0.03557
   8     437.6        0.0302        0.0020        8.5028        8.5048       8.474636       0.03827
   7     480.5        0.0301        0.0022        8.2948        8.2970       8.266870       0.04080
   6     533.0        0.0300        0.0023        8.0209        8.0232       7.993171       0.04403
   5     589.8        0.0300        0.0025        7.7063        7.7088       7.678785       0.04667
   4     651.6        0.0301        0.0026        7.3412        7.3438       7.313760       0.04992
   3     718.7        0.0303        0.0027        6.9387        6.9414       6.911121       0.05060
   2     792.3        0.0307        0.0028        6.5066        6.5094       6.478751       0.04959
   1     891.5        0.0317        0.0029        5.9361        5.9390       5.907315       0.04863
   0    1013.0        0.0339        0.0030        5.3025        5.3054       5.271492       0.04415



 Wavenumbers:  5150. -  6150. cm-1, ATM      1
 LEVEL PRESSURE   UPWARD FLUX   DIFDOWN FLUX  DIRDOWN FLUX  DOWNWARD FLUX   NET FLUX    HEATING RATE
          mb          W/m2          W/m2          W/m2        W/m2          W/m2       degree/day
  51    .06700        0.2883        0.0000       25.5798       25.5798      25.291567       0.00000
  50    .07753        0.2883        0.0000       25.5798       25.5798      25.291528       0.03155
  49    .09103        0.2883        0.0000       25.5797       25.5797      25.291477       0.03204
  48    0.1069        0.2883        0.0000       25.5797       25.5797      25.291416       0.03255
  47    0.1255        0.2883        0.0000       25.5796       25.5796      25.291343       0.03305
  46    0.1487        0.2883        0.0000       25.5795       25.5795      25.291247       0.03482
  45    0.1794        0.2883        0.0000       25.5794       25.5794      25.291112       0.03707
  44    0.2165        0.2882        0.0000       25.5792       25.5792      25.290947       0.03763
  43    0.2613        0.2882        0.0000       25.5790       25.5790      25.290744       0.03821
  42    0.3336        0.2882        0.0000       25.5786       25.5786      25.290398       0.04037
  41    0.4307        0.2882        0.0000       25.5782       25.5782      25.289927       0.04091
  40    0.5894        0.2882        0.0000       25.5774       25.5774      25.289139       0.04192
  39     1.339        0.2882        0.0000       25.5735       25.5736      25.285343       0.04274
  38     1.782        0.2882        0.0000       25.5713       25.5713      25.283133       0.04206
  37     2.292        0.2882        0.0001       25.5688       25.5688      25.280633       0.04140
  36     2.964        0.2882        0.0001       25.5656       25.5656      25.277458       0.03986
  35     3.853        0.2882        0.0001       25.5615       25.5616      25.273425       0.03828
  34     5.035        0.2881        0.0001       25.5562       25.5564      25.268232       0.03709
  33     6.613        0.2881        0.0002       25.5494       25.5496      25.261498       0.03600
  32     8.786        0.2880        0.0002       25.5406       25.5408      25.252776       0.03387
  31     11.80        0.2880        0.0003       25.5287       25.5290      25.240987       0.03301
  30     15.07        0.2879        0.0004       25.5167       25.5171      25.229174       0.03050
  29     18.79        0.2878        0.0005       25.5042       25.5046      25.216833       0.02798
  28     23.16        0.2877        0.0006       25.4907       25.4913      25.203551       0.02568
  27     28.12        0.2876        0.0007       25.4764       25.4771      25.189561       0.02378
  26     33.73        0.2875        0.0008       25.4620       25.4629      25.175406       0.02128
  25     40.54        0.2873        0.0010       25.4463       25.4473      25.159963       0.01916
  24     48.69        0.2871        0.0012       25.4294       25.4306      25.143473       0.01706
  23     57.69        0.2869        0.0014       25.4126       25.4140      25.127149       0.01530
  22     68.43        0.2866        0.0017       25.3944       25.3961      25.109475       0.01389
  21     81.20        0.2864        0.0020       25.3744       25.3764      25.090078       0.01282
  20     96.49        0.2860        0.0024       25.3519       25.3543      25.068326       0.01201
  19     114.6        0.2856        0.0028       25.3262       25.3290      25.043424       0.01163
  18     136.5        0.2851        0.0034       25.2962       25.2996      25.014473       0.01113
  17     162.9        0.2845        0.0040       25.2521       25.2561      24.971597       0.01370
  16     196.4        0.2837        0.0048       25.1593       25.1641      24.880361       0.02297
  15     218.7        0.2833        0.0053       25.0159       25.0213      24.738003       0.05405
  14     243.0        0.2827        0.0059       24.7089       24.7148      24.432035       0.10612
  13     269.0        0.2822        0.0064       24.1619       24.1682      23.886018       0.17713
  12     297.5        0.2816        0.0068       23.4544       23.4612      23.179586       0.20952
  11     328.5        0.2811        0.0073       22.7355       22.7428      22.461728       0.19518
  10     361.9        0.2805        0.0078       21.9224       21.9302      21.649744       0.20544
   9     398.1        0.2799        0.0082       20.9939       21.0021      20.722252       0.21608
   8     437.6        0.2793        0.0086       19.9833       19.9919      19.712634       0.21586
   7     480.5        0.2787        0.0090       18.9483       18.9573      18.678515       0.20310
   6     533.0        0.2781        0.0093       17.7796       17.7889      17.510789       0.18785
   5     589.8        0.2776        0.0097       16.6726       16.6823      16.404633       0.16419
   4     651.6        0.2774        0.0100       15.6343       15.6444      15.366989       0.14190
   3     718.7        0.2775        0.0105       14.7738       14.7843      14.506785       0.10810
   2     792.3        0.2783        0.0110       14.0291       14.0401      13.761723       0.08545
   1     891.5        0.2816        0.0115       13.0822       13.0937      12.812085       0.08081
   0    1013.0        0.2927        0.0121       12.0384       12.0505      11.757723       0.07321



 Wavenumbers:  6150. -  7700. cm-1, ATM      1
 LEVEL PRESSURE   UPWARD FLUX   DIFDOWN FLUX  DIRDOWN FLUX  DOWNWARD FLUX   NET FLUX    HEATING RATE
          mb          W/m2          W/m2          W/m2        W/m2          W/m2       degree/day
  51    .06700        1.1361        0.0000       47.3109       47.3109      46.174769       0.00000
  50    .07753        1.1361        0.0000       47.3108       47.3108      46.174712       0.04553
  49    .09103        1.1361        0.0000       47.3107       47.3107      46.174639       0.04583
  48    0.1069        1.1361        0.0000       47.3106       47.3106      46.174552       0.04614
  47    0.1255        1.1361        0.0000       47.3105       47.3105      46.174450       0.04645
  46    0.1487        1.1361        0.0000       47.3104       47.3104      46.174317       0.04852
  45    0.1794        1.1361        0.0000       47.3102       47.3102      46.174130       0.05127
  44    0.2165        1.1361        0.0000       47.3100       47.3100      46.173903       0.05167
  43    0.2613        1.1361        0.0000       47.3097       47.3097      46.173627       0.05210
  42    0.3336        1.1361        0.0000       47.3092       47.3092      46.173157       0.05471
  41    0.4307        1.1361        0.0000       47.3085       47.3086      46.172522       0.05521
  40    0.5894        1.1360        0.0001       47.3074       47.3075      46.171463       0.05633
  39     1.339        1.1360        0.0001       47.3022       47.3023      46.166371       0.05733
  38     1.782        1.1359        0.0002       47.2991       47.2993      46.163401       0.05655
  37     2.292        1.1359        0.0002       47.2956       47.2959      46.160025       0.05591
  36     2.964        1.1358        0.0003       47.2912       47.2915      46.155707       0.05421
  35     3.853        1.1357        0.0004       47.2855       47.2859      46.150172       0.05252
  34     5.035        1.1356        0.0005       47.2780       47.2786      46.142992       0.05129
  33     6.613        1.1354        0.0007       47.2683       47.2690      46.133604       0.05019
  32     8.786        1.1352        0.0009       47.2556       47.2565      46.121305       0.04776
  31     11.80        1.1349        0.0013       47.2380       47.2393      46.104403       0.04732
  30     15.07        1.1346        0.0016       47.2201       47.2217      46.087116       0.04463
  29     18.79        1.1342        0.0020       47.2008       47.2028      46.068638       0.04190
  28     23.16        1.1337        0.0025       47.1795       47.1820      46.048249       0.03942
  27     28.12        1.1332        0.0030       47.1565       47.1595      46.026258       0.03738
  26     33.73        1.1326        0.0036       47.1324       47.1360      46.003339       0.03446
  25     40.54        1.1320        0.0043       47.1054       47.1097      45.977707       0.03180
  24     48.69        1.1311        0.0052       47.0754       47.0806      45.949459       0.02923
  23     57.69        1.1302        0.0061       47.0449       47.0511      45.920844       0.02682
  22     68.43        1.1291        0.0072       47.0110       47.0182      45.889116       0.02494
  21     81.20        1.1278        0.0086       46.9729       46.9815      45.853635       0.02345
  20     96.49        1.1263        0.0102       46.9294       46.9396      45.813313       0.02226
  19     114.6        1.1244        0.0121       46.8790       46.8911      45.766707       0.02176
  18     136.5        1.1222        0.0144       46.8200       46.8343      45.712124       0.02099
  17     162.9        1.1196        0.0171       46.7361       46.7532      45.633576       0.02511
  16     196.4        1.1162        0.0205       46.5703       46.5908      45.474565       0.04002
  15     218.7        1.1140        0.0228       46.3473       46.3701      45.256038       0.08297
  14     243.0        1.1117        0.0251       45.9299       45.9549      44.843270       0.14316
  13     269.0        1.1092        0.0274       45.1708       45.1981      44.088938       0.24470
  12     297.5        1.1067        0.0295       44.0115       44.0410      42.934342       0.34244
  11     328.5        1.1041        0.0317       42.7242       42.7559      41.651879       0.34870
  10     361.9        1.1014        0.0339       41.3539       41.3878      40.286402       0.34548
   9     398.1        1.0988        0.0359       39.7953       39.8312      38.732412       0.36204
   8     437.6        1.0963        0.0378       37.9948       38.0325      36.936274       0.38403
   7     480.5        1.0939        0.0394       36.0647       36.1041      35.010210       0.37827
   6     533.0        1.0916        0.0410       33.7773       33.8183      32.726690       0.36735
   5     589.8        1.0902        0.0424       31.4082       31.4505      30.360325       0.35125
   4     651.6        1.0907        0.0431       28.8834       28.9265      27.835874       0.34523
   3     718.7        1.0943        0.0437       26.4104       26.4540      25.359765       0.31118
   2     792.3        1.1039        0.0438       24.0056       24.0495      22.945567       0.27688
   1     891.5        1.1325        0.0439       21.2348       21.2787      20.146133       0.23822
   0    1013.0        1.2148        0.0439       18.6150       18.6590      17.444169       0.18761



 Wavenumbers:  7700. -  8050. cm-1, ATM      1
 LEVEL PRESSURE   UPWARD FLUX   DIFDOWN FLUX  DIRDOWN FLUX  DOWNWARD FLUX   NET FLUX    HEATING RATE
          mb          W/m2          W/m2          W/m2        W/m2          W/m2       degree/day
  51    .06700        2.3920        0.0000       11.1810       11.1810       8.788937       0.00000
  50    .07753        2.3920        0.0000       11.1809       11.1809       8.788918       0.01547
  49    .09103        2.3920        0.0000       11.1809       11.1809       8.788894       0.01517
  48    0.1069        2.3920        0.0000       11.1809       11.1809       8.788866       0.01485
  47    0.1255        2.3920        0.0000       11.1809       11.1809       8.788834       0.01453
  46    0.1487        2.3920        0.0000       11.1808       11.1808       8.788793       0.01474
  45    0.1794        2.3920        0.0000       11.1808       11.1808       8.788738       0.01517
  44    0.2165        2.3920        0.0000       11.1807       11.1807       8.788673       0.01488
  43    0.2613        2.3920        0.0000       11.1806       11.1806       8.788595       0.01460
  42    0.3336        2.3921        0.0000       11.1805       11.1805       8.788467       0.01494
  41    0.4307        2.3921        0.0000       11.1803       11.1804       8.788297       0.01478
  40    0.5894        2.3921        0.0000       11.1801       11.1801       8.788020       0.01476
  39     1.339        2.3922        0.0001       11.1788       11.1789       8.786707       0.01478
  38     1.782        2.3922        0.0001       11.1781       11.1781       8.785935       0.01468
  37     2.292        2.3923        0.0001       11.1772       11.1773       8.785043       0.01478
  36     2.964        2.3923        0.0001       11.1761       11.1762       8.783871       0.01471
  35     3.853        2.3924        0.0002       11.1746       11.1748       8.782323       0.01469
  34     5.035        2.3926        0.0002       11.1726       11.1728       8.780267       0.01469
  33     6.613        2.3927        0.0003       11.1700       11.1703       8.777521       0.01468
  32     8.786        2.3930        0.0004       11.1664       11.1668       8.773824       0.01436
  31     11.80        2.3933        0.0005       11.1613       11.1618       8.768539       0.01479
  30     15.07        2.3937        0.0007       11.1558       11.1565       8.762873       0.01463
  29     18.79        2.3941        0.0009       11.1497       11.1506       8.756482       0.01449
  28     23.16        2.3945        0.0011       11.1425       11.1436       8.749031       0.01441
  27     28.12        2.3951        0.0013       11.1343       11.1356       8.740529       0.01445
  26     33.73        2.3957        0.0016       11.1252       11.1268       8.731040       0.01427
  25     40.54        2.3965        0.0019       11.1142       11.1161       8.719613       0.01418
  24     48.69        2.3974        0.0022       11.1010       11.1033       8.705891       0.01420
  23     57.69        2.3984        0.0027       11.0866       11.0893       8.690888       0.01406
  22     68.43        2.3996        0.0031       11.0695       11.0727       8.673117       0.01397
  21     81.20        2.4010        0.0037       11.0494       11.0531       8.652082       0.01390
  20     96.49        2.4028        0.0044       11.0255       11.0300       8.627211       0.01373
  19     114.6        2.4048        0.0053       10.9975       11.0028       8.597952       0.01366
  18     136.5        2.4074        0.0062       10.9648       10.9710       8.563644       0.01319
  17     162.9        2.4104        0.0074       10.9263       10.9337       8.523293       0.01290
  16     196.4        2.4144        0.0089       10.8773       10.8861       8.471740       0.01298
  15     218.7        2.4171        0.0099       10.8455       10.8554       8.438311       0.01269
  14     243.0        2.4201        0.0109       10.8114       10.8224       8.402302       0.01249
  13     269.0        2.4234        0.0121       10.7749       10.7870       8.363592       0.01256
  12     297.5        2.4270        0.0133       10.7357       10.7490       8.322013       0.01233
  11     328.5        2.4311        0.0147       10.6937       10.7084       8.277325       0.01215
  10     361.9        2.4356        0.0161       10.6489       10.6650       8.229370       0.01213
   9     398.1        2.4406        0.0176       10.6008       10.6184       8.177761       0.01202
   8     437.6        2.4463        0.0193       10.5491       10.5684       8.122025       0.01192
   7     480.5        2.4528        0.0211       10.4934       10.5145       8.061720       0.01184
   6     533.0        2.4613        0.0232       10.4243       10.4475       7.986282       0.01214
   5     589.8        2.4712        0.0256       10.3479       10.3735       7.902264       0.01247
   4     651.6        2.4833        0.0281       10.2613       10.2894       7.806115       0.01315
   3     718.7        2.4983        0.0307       10.1618       10.1925       7.694176       0.01407
   2     792.3        2.5175        0.0335       10.0439       10.0774       7.559843       0.01541
   1     891.5        2.5503        0.0371        9.8626        9.8997       7.349388       0.01791
   0    1013.0        2.6029        0.0413        9.6103        9.6516       7.048707       0.02088



 Wavenumbers:  8050. - 12850. cm-1, ATM      1
 LEVEL PRESSURE   UPWARD FLUX   DIFDOWN FLUX  DIRDOWN FLUX  DOWNWARD FLUX   NET FLUX    HEATING RATE
          mb          W/m2          W/m2          W/m2        W/m2          W/m2       degree/day
  51    .06700       71.6863        0.0000      156.5418      156.5418      84.855471       0.00000
  50    .07753       71.6863        0.0000      156.5417      156.5417      84.855471       0.00000
  49    .09103       71.6862        0.0001      156.5417      156.5417      84.855471      -0.00000
  48    0.1069       71.6862        0.0001      156.5416      156.5417      84.855471       0.00000
  47    0.1255       71.6862        0.0002      156.5415      156.5417      84.855471      -0.00000
  46    0.1487       71.6862        0.0002      156.5414      156.5416      84.855471       0.00000
  45    0.1794       71.6861        0.0003      156.5413      156.5416      84.855471       0.00000
  44    0.2165       71.6861        0.0004      156.5412      156.5416      84.855471      -0.00000
  43    0.2613       71.6860        0.0005      156.5410      156.5415      84.855471       0.00000
  42    0.3336       71.6859        0.0007      156.5407      156.5414      84.855471      -0.00000
  41    0.4307       71.6858        0.0010      156.5403      156.5413      84.855471      -0.00000
  40    0.5894       71.6856        0.0014      156.5397      156.5411      84.855471       0.00000
  39     1.339       71.6846        0.0034      156.5367      156.5401      84.855471      -0.00000
  38     1.782       71.6840        0.0045      156.5350      156.5395      84.855471       0.00000
  37     2.292       71.6834        0.0059      156.5330      156.5388      84.855471       0.00000
  36     2.964       71.6825        0.0076      156.5303      156.5380      84.855471       0.00000
  35     3.853       71.6813        0.0100      156.5268      156.5368      84.855471      -0.00000
  34     5.035       71.6798        0.0131      156.5222      156.5353      84.855471       0.00000
  33     6.613       71.6777        0.0172      156.5160      156.5332      84.855471      -0.00000
  32     8.786       71.6750        0.0228      156.5076      156.5304      84.855471      -0.00000
  31     11.80       71.6710        0.0308      156.4957      156.5265      84.855471       0.00000
  30     15.07       71.6667        0.0394      156.4828      156.5222      84.855471       0.00000
  29     18.79       71.6619        0.0491      156.4682      156.5173      84.855471      -0.00000
  28     23.16       71.6562        0.0605      156.4512      156.5117      84.855471       0.00000
  27     28.12       71.6498        0.0735      156.4317      156.5052      84.855471      -0.00000
  26     33.73       71.6425        0.0881      156.4099      156.4980      84.855471       0.00000
  25     40.54       71.6337        0.1058      156.3834      156.4892      84.855471       0.00000
  24     48.69       71.6231        0.1271      156.3515      156.4786      84.855471       0.00000
  23     57.69       71.6115        0.1505      156.3164      156.4669      84.855471       0.00000
  22     68.43       71.5976        0.1785      156.2746      156.4530      84.855471      -0.00000
  21     81.20       71.5810        0.2119      156.2246      156.4364      84.855471      -0.00000
  20     96.49       71.5611        0.2517      156.1649      156.4166      84.855471       0.00000
  19     114.6       71.5377        0.2991      156.0879      156.3870      84.849302       0.00288
  18     136.5       71.5099        0.3553      155.9962      156.3515      84.841645       0.00294
  17     162.9       71.4766        0.4225      155.8831      156.3055      84.828924       0.00407
  16     196.4       71.4335        0.5098      155.7199      156.2297      84.796257       0.00822
  15     218.7       71.4052        0.5672      155.5733      156.1405      84.735287       0.02315
  14     243.0       71.3748        0.6296      155.3367      155.9663      84.591431       0.04989
  13     269.0       71.3427        0.6970      154.9514      155.6484      84.305696       0.09269
  12     297.5       71.3098        0.7696      154.3896      155.1592      83.849415       0.13533
  11     328.5       71.2764        0.8478      153.7151      154.5629      83.286515       0.15305
  10     361.9       71.2437        0.9317      152.9087      153.8404      82.596794       0.17451
   9     398.1       71.2134        1.0214      151.8986      152.9200      81.706585       0.20740
   8     437.6       71.1888        1.1166      150.6031      151.7198      80.530941       0.25136
   7     480.5       71.1738        1.2172      149.0014      150.2186      79.044760       0.29188
   6     533.0       71.1767        1.3387      146.7375      148.0762      76.899507       0.34510
   5     589.8       71.2187        1.4656      143.8730      145.3386      74.119849       0.41259
   4     651.6       71.3452        1.5954      140.0955      141.6909      70.345736       0.51612
   3     718.7       71.6143        1.7267      135.5278      137.2545      65.640173       0.59136
   2     792.3       72.1544        1.8563      130.0690      131.9253      59.770880       0.67314
   1     891.5       73.5532        2.0122      122.1273      124.1395      50.586342       0.78156
   0    1013.0       77.0072        2.1787      112.9512      115.1299      38.122695       0.86541



 Wavenumbers: 12850. - 16000. cm-1, ATM      1
 LEVEL PRESSURE   UPWARD FLUX   DIFDOWN FLUX  DIRDOWN FLUX  DOWNWARD FLUX   NET FLUX    HEATING RATE
          mb          W/m2          W/m2          W/m2        W/m2          W/m2       degree/day
  51    .06700       75.0202        0.0000       98.0872       98.0872      23.067048       0.00000
  50    .07753       75.0202        0.0001       98.0864       98.0864      23.066257       0.63370
  49    .09103       75.0202        0.0002       98.0853       98.0854      23.065264       0.62052
  48    0.1069       75.0202        0.0003       98.0841       98.0843      23.064124       0.60707
  47    0.1255       75.0202        0.0004       98.0826       98.0830      23.062814       0.59390
  46    0.1487       75.0202        0.0005       98.0809       98.0814      23.061161       0.60247
  45    0.1794       75.0202        0.0007       98.0784       98.0792      23.058913       0.61707
  44    0.2165       75.0203        0.0009       98.0756       98.0766      23.056270       0.60127
  43    0.2613       75.0204        0.0012       98.0723       98.0736      23.053163       0.58567
  42    0.3336       75.0206        0.0017       98.0670       98.0687      23.048094       0.59095
  41    0.4307       75.0209        0.0023       98.0602       98.0625      23.041544       0.56956
  40    0.5894       75.0216        0.0033       98.0496       98.0529      23.031231       0.54843
  39     1.339       75.0277        0.0080       98.0043       98.0124      22.984658       0.52433
  38     1.782       75.0333        0.0108       97.9793       97.9901      22.956801       0.53035
  37     2.292       75.0416        0.0140       97.9498       97.9638      22.922176       0.57348
  36     2.964       75.0554        0.0182       97.9088       97.9270      22.871611       0.63474
  35     3.853       75.0777        0.0237       97.8503       97.8741      22.796392       0.71384
  34     5.035       75.1113        0.0311       97.7680       97.7991      22.687811       0.77566
  33     6.613       75.1582        0.0409       97.6562       97.6971      22.538926       0.79594
  32     8.786       75.2193        0.0542       97.5107       97.5649      22.345575       0.75091
  31     11.80       75.2988        0.0731       97.3179       97.3910      22.092211       0.70934
  30     15.07       75.3749        0.0934       97.1283       97.2218      21.846862       0.63345
  29     18.79       75.4526        0.1164       96.9300       97.0464      21.593765       0.57385
  28     23.16       75.5338        0.1431       96.7166       96.8597      21.325849       0.51806
  27     28.12       75.6156        0.1737       96.4935       96.6672      21.051629       0.46616
  26     33.73       75.6910        0.2079       96.2731       96.4810      20.789967       0.39342
  25     40.54       75.7637        0.2492       96.0408       96.2900      20.526284       0.32713
  24     48.69       75.8334        0.2991       95.7946       96.0937      20.260238       0.27532
  23     57.69       75.8925        0.3538       95.5573       95.9111      20.018580       0.22652
  22     68.43       75.9440        0.4191       95.3106       95.7297      19.785640       0.18312
  21     81.20       75.9795        0.4969       95.0643       95.5612      19.581703       0.13476
  20     96.49       75.9979        0.5897       94.8153       95.4050      19.407129       0.09635
  19     114.6       76.0210        0.7011       94.5411       95.2422      19.221143       0.08684
  18     136.5       76.0375        0.8332       94.2320       95.0652      19.027698       0.07438
  17     162.9       76.0470        0.9904       93.8753       94.8657      18.818722       0.06680
  16     196.4       76.0378        1.1943       93.4347       94.6289      18.591095       0.05730
  15     218.7       76.0241        1.3281       93.1513       94.4794      18.455343       0.05154
  14     243.0       76.0058        1.4737       92.8439       94.3176      18.311827       0.04978
  13     269.0       75.9828        1.6313       92.5111       94.1425      18.159701       0.04935
  12     297.5       75.9554        1.8017       92.1495       93.9512      17.995775       0.04862
  11     328.5       75.9256        1.9859       91.7554       93.7412      17.815633       0.04898
  10     361.9       75.8939        2.1841       91.3262       93.5103      17.616321       0.05043
   9     398.1       75.8616        2.3973       90.8575       93.2549      17.393301       0.05196
   8     437.6       75.8309        2.6263       90.3418       92.9681      17.137173       0.05476
   7     480.5       75.8042        2.8715       89.7728       92.6443      16.840095       0.05835
   6     533.0       75.7838        3.1730       89.0428       92.2159      16.432101       0.06563
   5     589.8       75.7854        3.4972       88.2038       91.7010      15.915579       0.07667
   4     651.6       75.8363        3.8436       87.1979       91.0416      15.205315       0.09713
   3     718.7       75.9540        4.2107       86.0161       90.2269      14.272892       0.11718
   2     792.3       76.1961        4.5948       84.5970       89.1918      12.995745       0.14647
   1     891.5       76.7978        5.0945       82.4374       87.5320      10.734198       0.19245
   0    1013.0       78.0708        5.6682       79.6182       85.2864       7.215556       0.24432



 Wavenumbers: 16000. - 22650. cm-1, ATM      1
 LEVEL PRESSURE   UPWARD FLUX   DIFDOWN FLUX  DIRDOWN FLUX  DOWNWARD FLUX   NET FLUX    HEATING RATE
          mb          W/m2          W/m2          W/m2        W/m2          W/m2       degree/day
  51    .06700      137.9141        0.0000      156.3892      156.3892      18.475123       0.00000
  50    .07753      137.9141        0.0004      156.3887      156.3891      18.474977       0.11705
  49    .09103      137.9141        0.0009      156.3879      156.3888      18.474764       0.13276
  48    0.1069      137.9141        0.0015      156.3871      156.3885      18.474480       0.15139
  47    0.1255      137.9141        0.0021      156.3861      156.3882      18.474099       0.17257
  46    0.1487      137.9141        0.0029      156.3847      156.3876      18.473538       0.20449
  45    0.1794      137.9142        0.0041      156.3828      156.3869      18.472661       0.24077
  44    0.2165      137.9144        0.0054      156.3805      156.3859      18.471472       0.27060
  43    0.2613      137.9147        0.0070      156.3776      156.3846      18.469858       0.30422
  42    0.3336      137.9154        0.0096      156.3726      156.3822      18.466789       0.35775
  41    0.4307      137.9166        0.0130      156.3657      156.3788      18.462164       0.40215
  40    0.5894      137.9190        0.0187      156.3537      156.3724      18.453343       0.46909
  39     1.339      137.9407        0.0455      156.2834      156.3289      18.388172       0.73371
  38     1.782      137.9609        0.0612      156.2324      156.2935      18.332655       1.05696
  37     2.292      137.9912        0.0794      156.1641      156.2435      18.252293       1.33100
  36     2.964      138.0416        0.1033      156.0605      156.1637      18.122107       1.63422
  35     3.853      138.1233        0.1348      155.9041      156.0388      17.915537       1.96039
  34     5.035      138.2466        0.1766      155.6774      155.8540      17.607356       2.20151
  33     6.613      138.4189        0.2324      155.3656      155.5980      17.179088       2.28953
  32     8.786      138.6434        0.3075      154.9577      155.2652      16.621834       2.16417
  31     11.80      138.9353        0.4148      154.4153      154.8301      15.894799       2.03547
  30     15.07      139.2148        0.5299      153.8804      154.4102      15.195454       1.80557
  29     18.79      139.5000        0.6596      153.3191      153.9787      14.478732       1.62503
  28     23.16      139.7978        0.8109      152.7126      153.5235      13.725688       1.45614
  27     28.12      140.0971        0.9837      152.0755      153.0592      12.962023       1.29818
  26     33.73      140.3730        1.1768      151.4409      152.6178      12.244760       1.07842
  25     40.54      140.6378        1.4100      150.7637      152.1737      11.535891       0.87943
  24     48.69      140.8904        1.6907      150.0338      151.7246      10.834148       0.72619
  23     57.69      141.1036        1.9988      149.3151      151.3139      10.210269       0.58479
  22     68.43      141.2881        2.3652      148.5476      150.9128       9.624650       0.46037
  21     81.20      141.4129        2.8015      147.7517      150.5531       9.140238       0.32009
  20     96.49      141.4733        3.3208      146.9127      150.2334       8.760121       0.20980
  19     114.6      141.4998        3.9356      145.9763      149.9118       8.412037       0.16253
  18     136.5      141.5006        4.6614      144.9088      149.5702       8.069636       0.13166
  17     162.9      141.4736        5.5217      143.6785      149.2003       7.726674       0.10962
  16     196.4      141.3784        6.6316      142.1651      148.7967       7.418242       0.07764
  15     218.7      141.2939        7.3569      141.2033      148.5602       7.266307       0.05768
  14     243.0      141.1919        8.1418      140.1753      148.3171       7.125206       0.04894
  13     269.0      141.0708        8.9885      139.0797      148.0682       6.997337       0.04148
  12     297.5      140.9300        9.8990      137.9141      147.8131       6.883081       0.03389
  11     328.5      140.7733       10.8776      136.6676      147.5452       6.771925       0.03022
  10     361.9      140.6003       11.9251      135.3392      147.2643       6.664015       0.02730
   9     398.1      140.4106       13.0456      133.9235      146.9691       6.558484       0.02459
   8     437.6      140.2050       14.2410      132.4163      146.6572       6.452245       0.02271
   7     480.5      139.9830       15.5133      130.8147      146.3280       6.345032       0.02106
   6     533.0      139.7097       17.0671      128.8599      145.9271       6.217396       0.02053
   5     589.8      139.4187       18.7271      126.7679      145.4950       6.076310       0.02094
   4     651.6      139.1160       20.4946      124.5274      145.0221       5.906099       0.02328
   3     718.7      138.8072       22.3715      122.1285      144.4999       5.692713       0.02682
   2     792.3      138.5084       24.3554      119.5548      143.9102       5.401795       0.03337
   1     891.5      138.1822       26.9882      116.0566      143.0448       4.862605       0.04588
   0    1013.0      137.9165       30.0807      111.8404      141.9212       4.004643       0.05957



 Wavenumbers: 22650. - 29000. cm-1, ATM      1
 LEVEL PRESSURE   UPWARD FLUX   DIFDOWN FLUX  DIRDOWN FLUX  DOWNWARD FLUX   NET FLUX    HEATING RATE
          mb          W/m2          W/m2          W/m2        W/m2          W/m2       degree/day
  51    .06700       58.0323        0.0000       59.0156       59.0156       0.983345       0.00000
  50    .07753       58.0322        0.0005       59.0151       59.0155       0.983345       0.00000
  49    .09103       58.0321        0.0010       59.0144       59.0154       0.983345      -0.00000
  48    0.1069       58.0319        0.0017       59.0136       59.0153       0.983345       0.00000
  47    0.1255       58.0318        0.0025       59.0127       59.0151       0.983345       0.00000
  46    0.1487       58.0316        0.0034       59.0115       59.0149       0.983345      -0.00000
  45    0.1794       58.0313        0.0048       59.0099       59.0147       0.983345      -0.00000
  44    0.2165       58.0310        0.0063       59.0080       59.0144       0.983345       0.00000
  43    0.2613       58.0306        0.0082       59.0058       59.0140       0.983345       0.00000
  42    0.3336       58.0300        0.0112       59.0022       59.0134       0.983345       0.00000
  41    0.4307       58.0292        0.0153       58.9973       59.0126       0.983345      -0.00000
  40    0.5894       58.0279        0.0219       58.9894       59.0113       0.983345       0.00000
  39     1.339       58.0217        0.0533       58.9518       59.0051       0.983345       0.00000
  38     1.782       58.0181        0.0717       58.9297       59.0014       0.983345       0.00000
  37     2.292       58.0139        0.0930       58.9042       58.9972       0.983345      -0.00000
  36     2.964       58.0083        0.1210       58.8706       58.9917       0.983345       0.00000
  35     3.853       58.0010        0.1580       58.8264       58.9843       0.983345       0.00000
  34     5.035       57.9913        0.2071       58.7676       58.9746       0.983345      -0.00000
  33     6.613       57.9783        0.2726       58.6891       58.9617       0.983345       0.00000
  32     8.786       57.9609        0.3608       58.5834       58.9442       0.983345       0.00000
  31     11.80       57.9359        0.4868       58.4324       58.9193       0.983345       0.00000
  30     15.07       57.9092        0.6219       58.2706       58.8925       0.983345      -0.00000
  29     18.79       57.8790        0.7741       58.0882       58.8624       0.983345       0.00000
  28     23.16       57.8439        0.9516       57.8757       58.8273       0.983345      -0.00000
  27     28.12       57.8038        1.1538       57.6333       58.7872       0.983345      -0.00000
  26     33.73       57.7592        1.3794       57.3631       58.7425       0.983345       0.00000
  25     40.54       57.7054        1.6508       57.0379       58.6887       0.983345      -0.00000
  24     48.69       57.6409        1.9763       56.6479       58.6242       0.983345      -0.00000
  23     57.69       57.5704        2.3317       56.2221       58.5538       0.983345       0.00000
  22     68.43       57.4871        2.7519       55.7186       58.4704       0.983345      -0.00000
  21     81.20       57.3886        3.2480       55.1239       58.3720       0.983345       0.00000
  20     96.49       57.2725        3.8330       54.4228       58.2558       0.983345      -0.00000
  19     114.6       57.1363        4.5186       53.6010       58.1196       0.983345       0.00000
  18     136.5       56.9772        5.3187       52.6418       57.9605       0.983345       0.00000
  17     162.9       56.7910        6.2540       51.5203       57.7743       0.983345       0.00000
  16     196.4       56.5549        7.4388       50.0994       57.5382       0.983345       0.00000
  15     218.7       56.4030        8.2000       49.1863       57.3863       0.983345      -0.00000
  14     243.0       56.2406        9.0127       48.2113       57.2240       0.983345       0.00000
  13     269.0       56.0679        9.8763       47.1749       57.0513       0.983345      -0.00000
  12     297.5       55.8850       10.7900       46.0783       56.8683       0.983345       0.00000
  11     328.5       55.6914       11.7552       44.9195       56.6748       0.983345      -0.00000
  10     361.9       55.4878       12.7692       43.7018       56.4711       0.983345      -0.00000
   9     398.1       55.2739       13.8322       42.4250       56.2572       0.983345       0.00000
   8     437.6       55.0502       14.9419       41.0916       56.0335       0.983345       0.00000
   7     480.5       54.8170       16.0959       39.7045       55.8004       0.983345      -0.00000
   6     533.0       54.5391       17.4682       38.0543       55.5224       0.983345       0.00000
   5     589.8       54.2501       18.8904       36.3431       55.2335       0.983345       0.00000
   4     651.6       53.9514       20.3552       34.5795       54.9348       0.983345      -0.00000
   3     718.7       53.6440       21.8571       32.7702       54.6273       0.983345       0.00000
   2     792.3       53.3293       23.3871       30.9256       54.3126       0.983345       0.00000
   1     891.5       52.9268       25.3323       28.5778       53.9101       0.983345       0.00000
   0    1013.0       52.4760       27.4929       25.9665       53.4593       0.983345       0.00000



 Wavenumbers: 29000. - 38000. cm-1, ATM      1
 LEVEL PRESSURE   UPWARD FLUX   DIFDOWN FLUX  DIRDOWN FLUX  DOWNWARD FLUX   NET FLUX    HEATING RATE
          mb          W/m2          W/m2          W/m2        W/m2          W/m2       degree/day
  51    .06700        8.6554        0.0000       20.8114       20.8114      12.155913       0.00000
  50    .07753        8.6553        0.0003       20.8070       20.8074      12.152106       3.05143
  49    .09103        8.6550        0.0007       20.8009       20.8016      12.146569       3.46071
  48    0.1069        8.6548        0.0012       20.7928       20.7939      12.139159       3.94413
  47    0.1255        8.6545        0.0017       20.7820       20.7837      12.129255       4.49016
  46    0.1487        8.6541        0.0024       20.7665       20.7688      12.114692       5.30822
  45    0.1794        8.6537        0.0033       20.7424       20.7457      12.092028       6.22178
  44    0.2165        8.6532        0.0043       20.7103       20.7147      12.061507       6.94310
  43    0.2613        8.6526        0.0056       20.6675       20.6731      12.020514       7.72698
  42    0.3336        8.6517        0.0077       20.5880       20.5956      11.943957       8.92584
  41    0.4307        8.6506        0.0104       20.4722       20.4826      11.832010       9.73355
  40    0.5894        8.6490        0.0147       20.2637       20.2783      11.629336      10.77790
  39     1.339        8.6455        0.0331       19.0984       19.1314      10.485940      12.87257
  38     1.782        8.6459        0.0426       18.4394       18.4820       9.836084      12.37221
  37     2.292        8.6484        0.0528       17.7714       17.8243       9.175836      10.93543
  36     2.964        8.6548        0.0655       17.0421       17.1076       8.452866       9.07546
  35     3.853        8.6673        0.0814       16.2678       16.3492       7.681928       7.31634
  34     5.035        8.6880        0.1015       15.4803       15.5818       6.893790       5.63013
  33     6.613        8.7181        0.1271       14.7157       14.8428       6.124700       4.11156
  32     8.786        8.7580        0.1608       13.9936       14.1544       5.396394       2.82848
  31     11.80        8.8099        0.2077       13.2835       13.4912       4.681278       2.00210
  30     15.07        8.8600        0.2563       12.7394       12.9956       4.135633       1.40875
  29     18.79        8.9117        0.3101       12.2666       12.5767       3.665052       1.06695
  28     23.16        8.9666        0.3714       11.8300       12.2014       3.234844       0.83188
  27     28.12        9.0227        0.4400       11.4279       11.8678       2.845122       0.66250
  26     33.73        9.0745        0.5156       11.0695       11.5850       2.510557       0.50303
  25     40.54        9.1234        0.6058       10.7209       11.3267       2.203350       0.38113
  24     48.69        9.1694        0.7130       10.3742       11.0871       1.917778       0.29552
  23     57.69        9.2069        0.8289       10.0549       10.8838       1.676924       0.22576
  22     68.43        9.2368        0.9649        9.7327       10.6976       1.460768       0.16993
  21     81.20        9.2504        1.1254        9.4134       10.5388       1.288457       0.11386
  20     96.49        9.2455        1.3141        9.0887       10.4028       1.157326       0.07237
  19     114.6        9.2302        1.5321        8.7388       10.2709       1.040638       0.05449
  18     136.5        9.2074        1.7812        8.3549       10.1361       0.928709       0.04304
  17     162.9        9.1771        2.0651        7.9311        9.9963       0.819158       0.03502
  16     196.4        9.1272        2.4167        7.4333        9.8500       0.722774       0.02426
  15     218.7        9.0915        2.6377        7.1295        9.7673       0.675783       0.01784
  14     243.0        9.0524        2.8687        6.8161        9.6848       0.632406       0.01504
  13     269.0        9.0097        3.1088        6.4943        9.6031       0.593468       0.01263
  12     297.5        8.9635        3.3569        6.1657        9.5226       0.559156       0.01018
  11     328.5        8.9152        3.6120        5.8295        9.4415       0.526317       0.00893
  10     361.9        8.8652        3.8717        5.4886        9.3603       0.495098       0.00790
   9     398.1        8.8137        4.1353        5.1440        9.2792       0.465526       0.00689
   8     437.6        8.7612        4.4013        4.7969        9.1982       0.437031       0.00609
   7     480.5        8.7079        4.6675        4.4504        9.1179       0.409996       0.00531
   6     533.0        8.6466        4.9708        4.0563        9.0271       0.380543       0.00474
   5     589.8        8.5857        5.2695        3.6682        8.9377       0.352044       0.00423
   4     651.6        8.5262        5.5599        3.2905        8.8504       0.324183       0.00381
   3     718.7        8.4686        5.8403        2.9252        8.7655       0.296915       0.00343
   2     792.3        8.4135        6.1074        2.5764        8.6838       0.270248       0.00306
   1     891.5        8.3491        6.4206        2.1659        8.5865       0.237356       0.00280
   0    1013.0        8.2854        6.7339        1.7526        8.4865       0.201084       0.00252



 Wavenumbers: 38000. - 50000. cm-1, ATM      1
 LEVEL PRESSURE   UPWARD FLUX   DIFDOWN FLUX  DIRDOWN FLUX  DOWNWARD FLUX   NET FLUX    HEATING RATE
          mb          W/m2          W/m2          W/m2        W/m2          W/m2       degree/day
  51    .06700        0.0061        0.0000        1.2836        1.2836       1.277518       0.00000
  50    .07753        0.0061        0.0001        1.2812        1.2812       1.275183       1.87150
  49    .09103        0.0060        0.0002        1.2777        1.2778       1.271851       2.08247
  48    0.1069        0.0059        0.0002        1.2731        1.2734       1.267473       2.33059
  47    0.1255        0.0058        0.0004        1.2672        1.2675       1.261717       2.60908
  46    0.1487        0.0057        0.0005        1.2586        1.2591       1.253391       3.03499
  45    0.1794        0.0055        0.0007        1.2455        1.2462       1.240623       3.50520
  44    0.2165        0.0054        0.0009        1.2282        1.2291       1.223697       3.85037
  43    0.2613        0.0052        0.0011        1.2054        1.2065       1.201348       4.21261
  42    0.3336        0.0049        0.0015        1.1639        1.1654       1.160524       4.75970
  41    0.4307        0.0045        0.0020        1.1051        1.1070       1.102565       5.03943
  40    0.5894        0.0039        0.0026        1.0039        1.0064       1.002524       5.32007
  39     1.339        0.0022        0.0035        0.5438        0.5473       0.545104       5.14971
  38     1.782        0.0016        0.0032        0.3635        0.3666       0.365006       3.42879
  37     2.292        0.0012        0.0027        0.2356        0.2383       0.237058       2.11916
  36     2.964        0.0009        0.0022        0.1455        0.1477       0.146786       1.13318
  35     3.853        0.0006        0.0017        0.0858        0.0875       0.086906       0.56828
  34     5.035        0.0004        0.0013        0.0488        0.0501       0.049701       0.26578
  33     6.613        0.0003        0.0010        0.0273        0.0282       0.027974       0.11615
  32     8.786        0.0002        0.0007        0.0144        0.0151       0.014928       0.05067
  31     11.80        0.0001        0.0004        0.0065        0.0070       0.006903       0.02247
  30     15.07        0.0000        0.0003        0.0031        0.0034       0.003329       0.00923
  29     18.79        0.0000        0.0002        0.0014        0.0016       0.001583       0.00396
  28     23.16        0.0000        0.0001        0.0006        0.0007       0.000720       0.00167
  27     28.12        0.0000        0.0001        0.0003        0.0003       0.000317       0.00069
  26     33.73        0.0000        0.0000        0.0001        0.0001       0.000140       0.00027
  25     40.54        0.0000        0.0000        0.0000        0.0001       0.000057       0.00010
  24     48.69        0.0000        0.0000        0.0000        0.0000       0.000021       0.00004
  23     57.69        0.0000        0.0000        0.0000        0.0000       0.000008       0.00001
  22     68.43        0.0000        0.0000        0.0000        0.0000       0.000003       0.00000
  21     81.20        0.0000        0.0000        0.0000        0.0000       0.000001       0.00000
  20     96.49        0.0000        0.0000        0.0000        0.0000       0.000000       0.00000
  19     114.6        0.0000        0.0000        0.0000        0.0000       0.000000       0.00000
  18     136.5        0.0000        0.0000        0.0000        0.0000       0.000000       0.00000
  17     162.9        0.0000        0.0000        0.0000        0.0000       0.000000       0.00000
  16     196.4        0.0000        0.0000        0.0000        0.0000       0.000000       0.00000
  15     218.7        0.0000        0.0000        0.0000        0.0000       0.000000       0.00000
  14     243.0        0.0000        0.0000        0.0000        0.0000       0.000000       0.00000
  13     269.0        0.0000        0.0000        0.0000        0.0000       0.000000       0.00000
  12     297.5        0.0000        0.0000        0.0000        0.0000       0.000000       0.00000
  11     328.5        0.0000        0.0000        0.0000        0.0000       0.000000       0.00000
  10     361.9        0.0000        0.0000        0.0000        0.0000       0.000000       0.00000
   9     398.1        0.0000        0.0000        0.0000        0.0000       0.000000       0.00000
   8     437.6        0.0000        0.0000        0.0000        0.0000       0.000000       0.00000
   7     480.5        0.0000        0.0000        0.0000        0.0000       0.000000       0.00000
   6     533.0        0.0000        0.0000        0.0000        0.0000       0.000000       0.00000
   5     589.8        0.0000        0.0000        0.0000        0.0000       0.000000       0.00000
   4     651.6        0.0000        0.0000        0.0000        0.0000       0.000000       0.00000
   3     718.7        0.0000        0.0000        0.0000        0.0000       0.000000       0.00000
   2     792.3        0.0000        0.0000        0.0000        0.0000       0.000000       0.00000
   1     891.5        0.0000        0.0000        0.0000        0.0000       0.000000       0.00000
   0    1013.0        0.0000        0.0000        0.0000        0.0000       0.000000       0.00000



 Wavenumbers:   820. -  2600. cm-1, ATM      1
 LEVEL PRESSURE   UPWARD FLUX   DIFDOWN FLUX  DIRDOWN FLUX  DOWNWARD FLUX   NET FLUX    HEATING RATE
          mb          W/m2          W/m2          W/m2        W/m2          W/m2       degree/day
  51    .06700        0.0120        0.0000        6.0047        6.0047       5.992611       0.00000
  50    .07753        0.0120        0.0000        6.0008        6.0008       5.988758       3.08819
  49    .09103        0.0120        0.0000        5.9999        5.9999       5.987873       0.55356
  48    0.1069        0.0120        0.0000        5.9989        5.9989       5.986884       0.52650
  47    0.1255        0.0120        0.0000        5.9978        5.9978       5.985766       0.50647
  46    0.1487        0.0120        0.0000        5.9964        5.9964       5.984410       0.49454
  45    0.1794        0.0120        0.0000        5.9947        5.9947       5.982690       0.47197
  44    0.2165        0.0120        0.0000        5.9929        5.9929       5.980848       0.41908
  43    0.2613        0.0120        0.0000        5.9909        5.9909       5.978889       0.36930
  42    0.3336        0.0120        0.0000        5.9880        5.9880       5.976011       0.33553
  41    0.4307        0.0120        0.0000        5.9846        5.9846       5.972542       0.30162
  40    0.5894        0.0120        0.0000        5.9791        5.9791       5.967037       0.29273
  39     1.339        0.0120        0.0000        5.9536        5.9536       5.941553       0.28691
  38     1.782        0.0120        0.0000        5.9395        5.9395       5.927416       0.26914
  37     2.292        0.0120        0.0000        5.9237        5.9237       5.911667       0.26085
  36     2.964        0.0120        0.0000        5.9039        5.9039       5.891895       0.24820
  35     3.853        0.0120        0.0000        5.8793        5.8793       5.867241       0.23396
  34     5.035        0.0120        0.0000        5.8487        5.8487       5.836682       0.21830
  33     6.613        0.0120        0.0000        5.8108        5.8108       5.798722       0.20293
  32     8.786        0.0120        0.0000        5.7631        5.7631       5.751105       0.18493
  31     11.80        0.0120        0.0000        5.7039        5.7039       5.691856       0.16588
  30     15.07        0.0120        0.0000        5.6539        5.6539       5.641826       0.12917
  29     18.79        0.0120        0.0000        5.6127        5.6127       5.600699       0.09325
  28     23.16        0.0120        0.0000        5.5794        5.5794       5.567332       0.06452
  27     28.12        0.0120        0.0000        5.5518        5.5518       5.539775       0.04685
  26     33.73        0.0120        0.0000        5.5268        5.5268       5.514731       0.03765
  25     40.54        0.0120        0.0000        5.4993        5.4993       5.487297       0.03404
  24     48.69        0.0120        0.0000        5.4678        5.4678       5.455764       0.03263
  23     57.69        0.0120        0.0000        5.4340        5.4340       5.421984       0.03166
  22     68.43        0.0120        0.0000        5.3947        5.3948       5.382719       0.03087
  21     81.20        0.0120        0.0000        5.3497        5.3497       5.337694       0.02975
  20     96.49        0.0120        0.0000        5.2982        5.2982       5.286191       0.02843
  19     114.6        0.0120        0.0000        5.2389        5.2389       5.226880       0.02769
  18     136.5        0.0120        0.0000        5.1716        5.1717       5.159636       0.02586
  17     162.9        0.0120        0.0000        5.0890        5.0890       5.077020       0.02641
  16     196.4        0.0120        0.0000        4.9668        4.9668       4.954809       0.03076
  15     218.7        0.0120        0.0000        4.8585        4.8585       4.846448       0.04114
  14     243.0        0.0120        0.0000        4.7078        4.7079       4.695833       0.05224
  13     269.0        0.0120        0.0000        4.5343        4.5343       4.522250       0.05631
  12     297.5        0.0120        0.0000        4.3419        4.3420       4.329926       0.05704
  11     328.5        0.0120        0.0000        4.1281        4.1281       4.116093       0.05814
  10     361.9        0.0121        0.0000        3.8786        3.8787       3.866613       0.06312
   9     398.1        0.0121        0.0000        3.6159        3.6159       3.603867       0.06121
   8     437.6        0.0121        0.0000        3.3759        3.3759       3.363781       0.05133
   7     480.5        0.0121        0.0000        3.1957        3.1958       3.183645       0.03538
   6     533.0        0.0122        0.0000        3.0467        3.0467       3.034515       0.02399
   5     589.8        0.0123        0.0000        2.9023        2.9023       2.890050       0.02144
   4     651.6        0.0124        0.0000        2.7183        2.7184       2.705949       0.02518
   3     718.7        0.0127        0.0000        2.5058        2.5059       2.493196       0.02674
   2     792.3        0.0131        0.0000        2.2756        2.2757       2.262543       0.02645
   1     891.5        0.0143        0.0000        1.9621        1.9621       1.947831       0.02678
   0    1013.0        0.0173        0.0000        1.5468        1.5469       1.529547       0.02904

  Modules and versions used in this calculation:

       rrtmg_sw.1col.f90:  $Revision$                    rrtmg_sw_init.f90:  $Revision$        
     rrtmgsw_cldprop.f90:  $Revision$                  rrtmgsw_cldprmc.f90:  NOT USED          
     rrtmg_sw_reftra.f90:  $Revision$                  rrtmg_sw_spcvrt.f90:  NOT USED          
     rrtmg_sw_spcvmc.f90:  NOT USED                    rrtmgsw_setcoef.f90:  NOT USED          
     rrtmg_sw_taumol.f90:  $Revision$                  rrtmg_sw_vrtqdr.f90:  NOT USED          
                rrtatm.f:  NOT USED                             util_xxx.f:  NOT USED          
                 extra.f:  NOT USED                       rrtmg_sw_k_g.f90:  $Revision$        

