

 Wavenumbers:   820. - 50000. cm-1, ATM      1
 LEVEL PRESSURE   UPWARD FLUX   DIFDOWN FLUX  DIRDOWN FLUX  DOWNWARD FLUX   NET FLUX    HEATING RATE
          mb          W/m2          W/m2          W/m2        W/m2          W/m2       degree/day
  51    .06700      358.6753        0.0000      617.8126      617.8126     259.137283       0.00000
  50    .07753      358.6749        0.0013      617.7947      617.7961     259.121148      12.93173
  49    .09103      358.6744        0.0030      617.7778      617.7808     259.106347       9.25119
  48    0.1069      358.6739        0.0049      617.7581      617.7630     259.089097       9.18246
  47    0.1255      358.6734        0.0071      617.7340      617.7411     259.067767       9.67007
  46    0.1487      358.6727        0.0099      617.7009      617.7108     259.038102      10.81308
  45    0.1794      358.6719        0.0137      617.6521      617.6658     258.993904      12.13354
  44    0.2165      358.6711        0.0182      617.5895      617.6077     258.936626      13.02971
  43    0.2613      358.6703        0.0235      617.5089      617.5324     258.862171      14.03435
  42    0.3336      358.6692        0.0323      617.3641      617.3964     258.727196      15.73678
  41    0.4307      358.6682        0.0438      617.1591      617.2029     258.534737      16.73388
  40    0.5894      358.6674        0.0623      616.8005      616.8628     258.195357      18.04781
  39     1.339      358.6814        0.1462      614.9443      615.0904     256.409007      20.11106
  38     1.782      358.7017        0.1933      613.9670      614.1603     255.458656      18.09313
  37     2.292      358.7360        0.2469      613.0059      613.2528     254.516795      15.59968
  36     2.964      358.7976        0.3167      611.9577      612.2743     253.476758      13.05560
  35     3.853      358.9017        0.4081      610.8024      611.2105     252.308773      11.08439
  34     5.035      359.0625        0.5287      609.5327      610.0614     250.998868       9.35742
  33     6.613      359.2894        0.6887      608.1464      608.8352     249.545828       7.76796
  32     8.786      359.5847        0.9035      606.6250      607.5285     247.943840       6.22154
  31     11.80      359.9663        1.2092      604.8486      606.0579     246.091545       5.18584
  30     15.07      360.3285        1.5354      603.2440      604.7794     244.450884       4.23587
  29     18.79      360.6951        1.9024      601.6511      603.5535     242.858453       3.61053
  28     23.16      361.0743        2.3288      599.9927      602.3215     241.247173       3.11570
  27     28.12      361.4506        2.8140      598.2881      601.1021     239.651484       2.71256
  26     33.73      361.7878        3.3550      596.5951      599.9501     238.162287       2.23905
  25     40.54      362.0973        4.0062      594.7727      598.7789     236.681594       1.83697
  24     48.69      362.3757        4.7875      592.7865      597.5740     235.198365       1.53491
  23     57.69      362.5894        5.6415      590.7959      596.4374     233.847991       1.26577
  22     68.43      362.7442        6.6532      588.6191      595.2723     232.528019       1.03767
  21     81.20      362.7899        7.8524      586.2690      594.1213     231.331484       0.79065
  20     96.49      362.7155        9.2720      583.6961      592.9681     230.252609       0.59546
  19     114.6      362.5757       10.9419      580.7708      591.7127     229.136989       0.52092
  18     136.5      362.3676       12.8967      577.4359      590.3326     227.965024       0.45065
  17     162.9      362.0835       15.1902      573.5624      588.7526     226.669118       0.41422
  16     196.4      361.6315       18.1140      568.5907      586.7047     225.073166       0.40172
  15     218.7      361.3068       20.0037      565.0572      585.0610     223.754167       0.50077
  14     243.0      360.9445       22.0302      560.7495      582.7797     221.835243       0.66555
  13     269.0      360.5434       24.1945      555.3947      579.5892     219.045726       0.90491
  12     297.5      360.1052       26.4971      548.9964      575.4935     215.388354       1.08474
  11     328.5      359.6366       28.9444      542.0895      571.0340     211.397357       1.08514
  10     361.9      359.1406       31.5324      534.6242      566.1566     207.015970       1.10853
   9     398.1      358.6201       34.2653      526.4204      560.6857     202.065657       1.15331
   8     437.6      358.0832       37.1417      517.3907      554.5323     196.449130       1.20085
   7     480.5      357.5372       40.1593      507.7216      547.8809     190.343732       1.19908
   6     533.0      356.9187       43.7854      495.9006      539.6860     182.767283       1.21881
   5     589.8      356.3459       47.5879      483.0788      530.6668     174.320858       1.25373
   4     651.6      355.9112       51.5543      468.6907      520.2450     164.333761       1.36576
   3     718.7      355.7153       55.6762      453.2257      508.9019     153.186601       1.40089
   2     792.3      355.9980       59.9320      436.4928      496.4249     140.426868       1.46340
   1     891.5      357.6337       65.4262      413.9344      479.3606     121.726954       1.59127
   0    1013.0      362.7392       71.6688      388.4125      460.0813      97.342168       1.69316



 Wavenumbers:  2600. -  3250. cm-1, ATM      1
 LEVEL PRESSURE   UPWARD FLUX   DIFDOWN FLUX  DIRDOWN FLUX  DOWNWARD FLUX   NET FLUX    HEATING RATE
          mb          W/m2          W/m2          W/m2        W/m2          W/m2       degree/day
  51    .06700        0.8723        0.0000        5.4450        5.4450       4.572713       0.00000
  50    .07753        0.8723        0.0000        5.4450        5.4450       4.572705       0.00640
  49    .09103        0.8723        0.0000        5.4450        5.4450       4.572695       0.00627
  48    0.1069        0.8723        0.0000        5.4450        5.4450       4.572683       0.00613
  47    0.1255        0.8723        0.0000        5.4450        5.4450       4.572670       0.00599
  46    0.1487        0.8723        0.0000        5.4450        5.4450       4.572653       0.00608
  45    0.1794        0.8723        0.0000        5.4450        5.4450       4.572630       0.00625
  44    0.2165        0.8723        0.0000        5.4449        5.4449       4.572604       0.00612
  43    0.2613        0.8723        0.0000        5.4449        5.4449       4.572572       0.00600
  42    0.3336        0.8723        0.0000        5.4448        5.4448       4.572519       0.00617
  41    0.4307        0.8723        0.0000        5.4448        5.4448       4.572447       0.00620
  40    0.5894        0.8723        0.0000        5.4446        5.4446       4.572328       0.00637
  39     1.339        0.8723        0.0000        5.4439        5.4439       4.571620       0.00797
  38     1.782        0.8723        0.0000        5.4434        5.4434       4.571077       0.01034
  37     2.292        0.8723        0.0000        5.4427        5.4427       4.570361       0.01186
  36     2.964        0.8723        0.0000        5.4416        5.4416       4.569323       0.01304
  35     3.853        0.8723        0.0000        5.4402        5.4402       4.567845       0.01402
  34     5.035        0.8723        0.0000        5.4381        5.4381       4.565790       0.01468
  33     6.613        0.8723        0.0000        5.4353        5.4353       4.563009       0.01487
  32     8.786        0.8723        0.0000        5.4317        5.4317       4.559376       0.01411
  31     11.80        0.8723        0.0000        5.4269        5.4269       4.554596       0.01338
  30     15.07        0.8723        0.0000        5.4224        5.4224       4.550069       0.01169
  29     18.79        0.8723        0.0000        5.4180        5.4180       4.545657       0.01000
  28     23.16        0.8723        0.0000        5.4135        5.4135       4.541170       0.00868
  27     28.12        0.8723        0.0000        5.4088        5.4088       4.536521       0.00790
  26     33.73        0.8723        0.0000        5.4036        5.4036       4.531279       0.00788
  25     40.54        0.8723        0.0000        5.3966        5.3967       4.524334       0.00862
  24     48.69        0.8723        0.0000        5.3872        5.3872       4.514853       0.00981
  23     57.69        0.8723        0.0000        5.3754        5.3754       4.503063       0.01105
  22     68.43        0.8724        0.0000        5.3599        5.3599       4.487566       0.01218
  21     81.20        0.8724        0.0000        5.3401        5.3401       4.467719       0.01311
  20     96.49        0.8724        0.0000        5.3155        5.3155       4.443133       0.01357
  19     114.6        0.8724        0.0000        5.2853        5.2854       4.412909       0.01411
  18     136.5        0.8725        0.0001        5.2504        5.2505       4.377963       0.01344
  17     162.9        0.8726        0.0001        5.2111        5.2112       4.338561       0.01259
  16     196.4        0.8727        0.0001        5.1640        5.1641       4.291365       0.01188
  15     218.7        0.8729        0.0001        5.1331        5.1332       4.260279       0.01180
  14     243.0        0.8732        0.0001        5.0962        5.0963       4.223104       0.01289
  13     269.0        0.8737        0.0001        5.0511        5.0512       4.177540       0.01478
  12     297.5        0.8743        0.0001        4.9956        4.9957       4.121384       0.01666
  11     328.5        0.8753        0.0001        4.9304        4.9305       4.055221       0.01799
  10     361.9        0.8766        0.0001        4.8511        4.8512       3.974682       0.02038
   9     398.1        0.8783        0.0001        4.7507        4.7508       3.872544       0.02380
   8     437.6        0.8806        0.0002        4.6220        4.6222       3.741555       0.02801
   7     480.5        0.8838        0.0002        4.4625        4.4626       3.578831       0.03196
   6     533.0        0.8889        0.0002        4.2460        4.2462       3.357358       0.03563
   5     589.8        0.8963        0.0002        3.9954        3.9956       3.099264       0.03831
   4     651.6        0.9081        0.0002        3.7089        3.7090       2.800925       0.04080
   3     718.7        0.9264        0.0002        3.4018        3.4020       2.475622       0.04088
   2     792.3        0.9563        0.0002        3.0564        3.0566       2.100344       0.04304
   1     891.5        1.0239        0.0002        2.5828        2.5830       1.559084       0.04606
   0    1013.0        1.1829        0.0002        2.0845        2.0847       0.901826       0.04564



 Wavenumbers:  3250. -  4000. cm-1, ATM      1
 LEVEL PRESSURE   UPWARD FLUX   DIFDOWN FLUX  DIRDOWN FLUX  DOWNWARD FLUX   NET FLUX    HEATING RATE
          mb          W/m2          W/m2          W/m2        W/m2          W/m2       degree/day
  51    .06700        0.0005        0.0000        9.1795        9.1795       9.179008       0.00000
  50    .07753        0.0005        0.0000        9.1747        9.1747       9.174165       3.88148
  49    .09103        0.0005        0.0000        9.1713        9.1713       9.170778       2.11747
  48    0.1069        0.0005        0.0000        9.1688        9.1688       9.168253       1.34402
  47    0.1255        0.0005        0.0000        9.1665        9.1665       9.165993       1.02422
  46    0.1487        0.0005        0.0000        9.1641        9.1641       9.163552       0.88991
  45    0.1794        0.0005        0.0000        9.1612        9.1612       9.160674       0.79008
  44    0.2165        0.0005        0.0000        9.1583        9.1583       9.157754       0.66430
  43    0.2613        0.0005        0.0000        9.1553        9.1553       9.154781       0.56041
  42    0.3336        0.0005        0.0000        9.1511        9.1511       9.150602       0.48723
  41    0.4307        0.0005        0.0000        9.1464        9.1464       9.145834       0.41459
  40    0.5894        0.0005        0.0000        9.1393        9.1394       9.138828       0.37255
  39     1.339        0.0005        0.0000        9.1127        9.1127       9.112214       0.29962
  38     1.782        0.0005        0.0000        9.1011        9.1011       9.100626       0.22062
  37     2.292        0.0005        0.0000        9.0901        9.0901       9.089559       0.18329
  36     2.964        0.0005        0.0000        9.0776        9.0776       9.077130       0.15603
  35     3.853        0.0005        0.0000        9.0629        9.0629       9.062339       0.14036
  34     5.035        0.0005        0.0000        9.0441        9.0441       9.043601       0.13386
  33     6.613        0.0005        0.0000        9.0191        9.0191       9.018599       0.13366
  32     8.786        0.0005        0.0000        8.9843        8.9843       8.983816       0.13509
  31     11.80        0.0005        0.0000        8.9327        8.9327       8.932199       0.14451
  30     15.07        0.0005        0.0000        8.8758        8.8759       8.875354       0.14676
  29     18.79        0.0005        0.0000        8.8110        8.8110       8.810527       0.14698
  28     23.16        0.0005        0.0000        8.7365        8.7366       8.736082       0.14395
  27     28.12        0.0005        0.0000        8.6554        8.6555       8.654969       0.13789
  26     33.73        0.0005        0.0000        8.5719        8.5719       8.571469       0.12554
  25     40.54        0.0005        0.0001        8.4812        8.4812       8.480746       0.11255
  24     48.69        0.0005        0.0001        8.3838        8.3839       8.383444       0.10069
  23     57.69        0.0004        0.0001        8.2861        8.2862       8.285709       0.09161
  22     68.43        0.0004        0.0001        8.1751        8.1751       8.174713       0.08726
  21     81.20        0.0004        0.0001        8.0457        8.0458       8.045355       0.08548
  20     96.49        0.0004        0.0001        7.8949        7.8950       7.894651       0.08318
  19     114.6        0.0004        0.0001        7.7162        7.7163       7.715942       0.08344
  18     136.5        0.0004        0.0002        7.5193        7.5194       7.519098       0.07569
  17     162.9        0.0003        0.0002        7.2913        7.2915       7.291207       0.07284
  16     196.4        0.0003        0.0002        6.9660        6.9662       6.965934       0.08187
  15     218.7        0.0003        0.0002        6.6648        6.6650       6.664745       0.11435
  14     243.0        0.0002        0.0002        6.2619        6.2622       6.261951       0.13970
  13     269.0        0.0002        0.0003        5.7576        5.7579       5.757652       0.16359
  12     297.5        0.0002        0.0003        5.1719        5.1722       5.171961       0.17371
  11     328.5        0.0002        0.0002        4.5757        4.5760       4.575802       0.16209
  10     361.9        0.0002        0.0002        3.9995        3.9998       3.999627       0.14578
   9     398.1        0.0001        0.0002        3.4655        3.4657       3.465571       0.12442
   8     437.6        0.0001        0.0002        2.9740        2.9742       2.974123       0.10507
   7     480.5        0.0001        0.0002        2.5307        2.5309       2.530751       0.08708
   6     533.0        0.0001        0.0002        2.0614        2.0616       2.061456       0.07549
   5     589.8        0.0001        0.0002        1.6150        1.6151       1.615027       0.06626
   4     651.6        0.0001        0.0001        1.1565        1.1566       1.156483       0.06271
   3     718.7        0.0001        0.0001        0.7390        0.7391       0.738984       0.05247
   2     792.3        0.0002        0.0001        0.3985        0.3985       0.398336       0.03907
   1     891.5        0.0006        0.0000        0.1139        0.1139       0.113397       0.02425
   0    1013.0        0.0053        0.0000        0.0094        0.0094       0.004059       0.00759



 Wavenumbers:  4000. -  4650. cm-1, ATM      1
 LEVEL PRESSURE   UPWARD FLUX   DIFDOWN FLUX  DIRDOWN FLUX  DOWNWARD FLUX   NET FLUX    HEATING RATE
          mb          W/m2          W/m2          W/m2        W/m2          W/m2       degree/day
  51    .06700        3.5234        0.0000       10.7795       10.7795       7.256173       0.00000
  50    .07753        3.5234        0.0000       10.7795       10.7795       7.256172       0.00080
  49    .09103        3.5234        0.0000       10.7795       10.7795       7.256171       0.00078
  48    0.1069        3.5234        0.0000       10.7795       10.7795       7.256170       0.00076
  47    0.1255        3.5234        0.0000       10.7795       10.7795       7.256168       0.00075
  46    0.1487        3.5234        0.0000       10.7795       10.7795       7.256166       0.00076
  45    0.1794        3.5234        0.0000       10.7795       10.7795       7.256163       0.00078
  44    0.2165        3.5234        0.0000       10.7795       10.7795       7.256160       0.00076
  43    0.2613        3.5234        0.0000       10.7795       10.7795       7.256156       0.00075
  42    0.3336        3.5234        0.0000       10.7795       10.7795       7.256149       0.00077
  41    0.4307        3.5234        0.0000       10.7795       10.7795       7.256140       0.00077
  40    0.5894        3.5234        0.0000       10.7795       10.7795       7.256125       0.00080
  39     1.339        3.5234        0.0000       10.7794       10.7794       7.256036       0.00101
  38     1.782        3.5234        0.0000       10.7793       10.7793       7.255966       0.00133
  37     2.292        3.5234        0.0000       10.7792       10.7792       7.255872       0.00156
  36     2.964        3.5234        0.0000       10.7791       10.7791       7.255732       0.00176
  35     3.853        3.5234        0.0000       10.7789       10.7789       7.255524       0.00197
  34     5.035        3.5234        0.0000       10.7786       10.7786       7.255217       0.00219
  33     6.613        3.5234        0.0000       10.7781       10.7781       7.254766       0.00241
  32     8.786        3.5233        0.0000       10.7774       10.7774       7.254099       0.00259
  31     11.80        3.5233        0.0001       10.7763       10.7764       7.253052       0.00293
  30     15.07        3.5233        0.0001       10.7751       10.7752       7.251824       0.00317
  29     18.79        3.5233        0.0001       10.7736       10.7737       7.250340       0.00337
  28     23.16        3.5233        0.0001       10.7717       10.7718       7.248497       0.00356
  27     28.12        3.5233        0.0001       10.7695       10.7696       7.246266       0.00379
  26     33.73        3.5233        0.0001       10.7667       10.7668       7.243516       0.00413
  25     40.54        3.5233        0.0002       10.7629       10.7631       7.239788       0.00463
  24     48.69        3.5233        0.0002       10.7579       10.7581       7.234822       0.00514
  23     57.69        3.5233        0.0002       10.7520       10.7522       7.228938       0.00552
  22     68.43        3.5233        0.0003       10.7446       10.7449       7.221567       0.00579
  21     81.20        3.5234        0.0003       10.7355       10.7359       7.212496       0.00599
  20     96.49        3.5234        0.0004       10.7245       10.7249       7.201466       0.00609
  19     114.6        3.5235        0.0005       10.7107       10.7112       7.187685       0.00643
  18     136.5        3.5237        0.0006       10.6942       10.6948       7.171097       0.00638
  17     162.9        3.5239        0.0007       10.6740       10.6747       7.150782       0.00649
  16     196.4        3.5244        0.0008       10.6464       10.6472       7.122799       0.00704
  15     218.7        3.5248        0.0009       10.6255       10.6264       7.101534       0.00807
  14     243.0        3.5256        0.0010       10.5980       10.5991       7.073522       0.00972
  13     269.0        3.5266        0.0011       10.5611       10.5622       7.035576       0.01231
  12     297.5        3.5283        0.0013       10.5119       10.5132       6.984897       0.01503
  11     328.5        3.5306        0.0014       10.4499       10.4512       6.920660       0.01747
  10     361.9        3.5336        0.0015       10.3702       10.3717       6.838078       0.02089
   9     398.1        3.5374        0.0016       10.2678       10.2694       6.732064       0.02470
   8     437.6        3.5421        0.0018       10.1390       10.1408       6.598725       0.02851
   7     480.5        3.5479        0.0019        9.9877        9.9896       6.441752       0.03083
   6     533.0        3.5566        0.0021        9.7937        9.7958       6.239235       0.03258
   5     589.8        3.5686        0.0023        9.5752        9.5775       6.008858       0.03420
   4     651.6        3.5869        0.0025        9.2958        9.2983       5.711408       0.04068
   3     718.7        3.6152        0.0027        8.9267        8.9294       5.314186       0.04992
   2     792.3        3.6618        0.0028        8.4542        8.4570       4.795197       0.05952
   1     891.5        3.7688        0.0030        7.7948        7.7978       4.028958       0.06520
   0    1013.0        4.0173        0.0031        7.0767        7.0798       3.062487       0.06711



 Wavenumbers:  4650. -  5150. cm-1, ATM      1
 LEVEL PRESSURE   UPWARD FLUX   DIFDOWN FLUX  DIRDOWN FLUX  DOWNWARD FLUX   NET FLUX    HEATING RATE
          mb          W/m2          W/m2          W/m2        W/m2          W/m2       degree/day
  51    .06700        2.4814        0.0000       10.2033       10.2033       7.721902       0.00000
  50    .07753        2.4814        0.0000       10.2031       10.2031       7.721666       0.18901
  49    .09103        2.4814        0.0000       10.2028       10.2028       7.721371       0.18428
  48    0.1069        2.4814        0.0000       10.2025       10.2025       7.721034       0.17931
  47    0.1255        2.4814        0.0000       10.2021       10.2021       7.720650       0.17426
  46    0.1487        2.4814        0.0000       10.2016       10.2016       7.720169       0.17536
  45    0.1794        2.4814        0.0000       10.2010       10.2010       7.719519       0.17850
  44    0.2165        2.4814        0.0000       10.2002       10.2002       7.718759       0.17277
  43    0.2613        2.4814        0.0000       10.1993       10.1993       7.717874       0.16690
  42    0.3336        2.4814        0.0000       10.1979       10.1979       7.716441       0.16702
  41    0.4307        2.4814        0.0000       10.1960       10.1960       7.714601       0.16002
  40    0.5894        2.4814        0.0000       10.1932       10.1932       7.711727       0.15283
  39     1.339        2.4814        0.0000       10.1816       10.1816       7.700136       0.13050
  38     1.782        2.4814        0.0000       10.1760       10.1760       7.694607       0.10526
  37     2.292        2.4814        0.0000       10.1706       10.1706       7.689151       0.09037
  36     2.964        2.4814        0.0000       10.1646       10.1647       7.683228       0.07435
  35     3.853        2.4814        0.0000       10.1584       10.1584       7.677014       0.05897
  34     5.035        2.4814        0.0000       10.1521       10.1521       7.670679       0.04526
  33     6.613        2.4814        0.0000       10.1456       10.1456       7.664223       0.03452
  32     8.786        2.4814        0.0001       10.1386       10.1386       7.657213       0.02722
  31     11.80        2.4814        0.0001       10.1295       10.1296       7.648175       0.02530
  30     15.07        2.4814        0.0001       10.1196       10.1197       7.638299       0.02550
  29     18.79        2.4814        0.0001       10.1076       10.1077       7.626294       0.02722
  28     23.16        2.4814        0.0001       10.0923       10.0924       7.610994       0.02959
  27     28.12        2.4814        0.0002       10.0731       10.0733       7.591904       0.03245
  26     33.73        2.4814        0.0002       10.0500       10.0502       7.568815       0.03471
  25     40.54        2.4815        0.0003       10.0201       10.0204       7.538918       0.03709
  24     48.69        2.4815        0.0003        9.9820        9.9823       7.500754       0.03949
  23     57.69        2.4816        0.0004        9.9384        9.9388       7.457222       0.04080
  22     68.43        2.4817        0.0004        9.8858        9.8862       7.404498       0.04145
  21     81.20        2.4818        0.0005        9.8234        9.8239       7.342114       0.04122
  20     96.49        2.4821        0.0006        9.7518        9.7524       7.270304       0.03963
  19     114.6        2.4824        0.0007        9.6719        9.6726       7.190256       0.03738
  18     136.5        2.4828        0.0008        9.5858        9.5866       7.103816       0.03324
  17     162.9        2.4835        0.0010        9.4940        9.4950       7.011574       0.02948
  16     196.4        2.4845        0.0012        9.3883        9.3894       6.904997       0.02683
  15     218.7        2.4853        0.0013        9.3229        9.3242       6.838949       0.02508
  14     243.0        2.4864        0.0014        9.2520        9.2534       6.767055       0.02494
  13     269.0        2.4879        0.0016        9.1717        9.1732       6.685375       0.02650
  12     297.5        2.4900        0.0017        9.0763        9.0780       6.587971       0.02889
  11     328.5        2.4929        0.0019        8.9650        8.9669       6.473952       0.03100
  10     361.9        2.4966        0.0021        8.8349        8.8370       6.340345       0.03380
   9     398.1        2.5015        0.0022        8.6820        8.6842       6.182771       0.03671
   8     437.6        2.5078        0.0024        8.5028        8.5052       5.997434       0.03963
   7     480.5        2.5159        0.0026        8.2948        8.2974       5.781466       0.04242
   6     533.0        2.5283        0.0028        8.0209        8.0237       5.495374       0.04602
   5     589.8        2.5454        0.0030        7.7063        7.7093       5.163970       0.04919
   4     651.6        2.5702        0.0032        7.3412        7.3444       4.774208       0.05330
   3     718.7        2.6068        0.0034        6.9387        6.9420       4.335260       0.05516
   2     792.3        2.6622        0.0035        6.5066        6.5101       3.847922       0.05589
   1     891.5        2.7776        0.0037        5.9361        5.9397       3.162141       0.05836
   0    1013.0        3.0111        0.0038        5.3025        5.3063       2.295224       0.06019



 Wavenumbers:  5150. -  6150. cm-1, ATM      1
 LEVEL PRESSURE   UPWARD FLUX   DIFDOWN FLUX  DIRDOWN FLUX  DOWNWARD FLUX   NET FLUX    HEATING RATE
          mb          W/m2          W/m2          W/m2        W/m2          W/m2       degree/day
  51    .06700        6.3399        0.0000       25.5798       25.5798      19.239966       0.00000
  50    .07753        6.3399        0.0000       25.5798       25.5798      19.239927       0.03158
  49    .09103        6.3399        0.0000       25.5797       25.5797      19.239876       0.03207
  48    0.1069        6.3399        0.0000       25.5797       25.5797      19.239815       0.03258
  47    0.1255        6.3399        0.0000       25.5796       25.5796      19.239742       0.03308
  46    0.1487        6.3399        0.0000       25.5795       25.5795      19.239646       0.03485
  45    0.1794        6.3399        0.0000       25.5794       25.5794      19.239511       0.03709
  44    0.2165        6.3399        0.0000       25.5792       25.5792      19.239345       0.03765
  43    0.2613        6.3399        0.0000       25.5790       25.5790      19.239143       0.03823
  42    0.3336        6.3398        0.0000       25.5786       25.5786      19.238796       0.04040
  41    0.4307        6.3398        0.0000       25.5782       25.5782      19.238325       0.04094
  40    0.5894        6.3398        0.0000       25.5774       25.5774      19.237536       0.04195
  39     1.339        6.3398        0.0000       25.5735       25.5736      19.233737       0.04278
  38     1.782        6.3398        0.0001       25.5713       25.5714      19.231525       0.04211
  37     2.292        6.3398        0.0001       25.5688       25.5688      19.229022       0.04146
  36     2.964        6.3398        0.0001       25.5656       25.5657      19.225842       0.03992
  35     3.853        6.3398        0.0001       25.5615       25.5616      19.221801       0.03835
  34     5.035        6.3398        0.0001       25.5562       25.5564      19.216597       0.03717
  33     6.613        6.3398        0.0002       25.5494       25.5496      19.209848       0.03608
  32     8.786        6.3398        0.0003       25.5406       25.5409      19.201102       0.03396
  31     11.80        6.3397        0.0003       25.5287       25.5290      19.189276       0.03311
  30     15.07        6.3397        0.0004       25.5167       25.5171      19.177419       0.03061
  29     18.79        6.3397        0.0005       25.5042       25.5047      19.165025       0.02810
  28     23.16        6.3397        0.0007       25.4907       25.4913      19.151678       0.02581
  27     28.12        6.3396        0.0008       25.4764       25.4773      19.137607       0.02392
  26     33.73        6.3396        0.0010       25.4620       25.4630      19.123353       0.02143
  25     40.54        6.3396        0.0012       25.4463       25.4474      19.107773       0.01933
  24     48.69        6.3397        0.0014       25.4294       25.4308      19.091099       0.01725
  23     57.69        6.3397        0.0017       25.4126       25.4143      19.074555       0.01551
  22     68.43        6.3398        0.0020       25.3944       25.3964      19.056601       0.01411
  21     81.20        6.3399        0.0023       25.3744       25.3768      19.036854       0.01305
  20     96.49        6.3400        0.0028       25.3519       25.3547      19.014672       0.01224
  19     114.6        6.3402        0.0033       25.3262       25.3295      18.989240       0.01187
  18     136.5        6.3405        0.0039       25.2962       25.3001      18.959645       0.01138
  17     162.9        6.3408        0.0046       25.2521       25.2568      18.915976       0.01396
  16     196.4        6.3412        0.0056       25.1593       25.1649      18.823671       0.02323
  15     218.7        6.3416        0.0062       25.0159       25.0221      18.680572       0.05433
  14     243.0        6.3420        0.0068       24.7089       24.7157      18.373742       0.10642
  13     269.0        6.3426        0.0074       24.1619       24.1693      17.826700       0.17746
  12     297.5        6.3434        0.0080       23.4544       23.4624      17.119003       0.20990
  11     328.5        6.3445        0.0086       22.7355       22.7441      16.399616       0.19560
  10     361.9        6.3459        0.0092       21.9224       21.9317      15.585775       0.20591
   9     398.1        6.3477        0.0098       20.9939       21.0037      14.656003       0.21662
   8     437.6        6.3502        0.0104       19.9833       19.9937      13.643506       0.21648
   7     480.5        6.3534        0.0109       18.9483       18.9592      12.605744       0.20381
   6     533.0        6.3586        0.0115       17.7796       17.7911      11.432403       0.18875
   5     589.8        6.3666        0.0120       16.6726       16.6846      10.318008       0.16541
   4     651.6        6.3802        0.0126       15.6343       15.6469       9.266747       0.14376
   3     718.7        6.4033        0.0133       14.7738       14.7871       8.383794       0.11096
   2     792.3        6.4449        0.0141       14.0291       14.0432       7.598328       0.09008
   1     891.5        6.5496        0.0150       13.0822       13.0972       6.547616       0.08941
   0    1013.0        6.8408        0.0160       12.0384       12.0544       5.213557       0.09263



 Wavenumbers:  6150. -  7700. cm-1, ATM      1
 LEVEL PRESSURE   UPWARD FLUX   DIFDOWN FLUX  DIRDOWN FLUX  DOWNWARD FLUX   NET FLUX    HEATING RATE
          mb          W/m2          W/m2          W/m2        W/m2          W/m2       degree/day
  51    .06700        9.3481        0.0000       47.3109       47.3109      37.962728       0.00000
  50    .07753        9.3481        0.0000       47.3108       47.3108      37.962671       0.04553
  49    .09103        9.3481        0.0000       47.3107       47.3107      37.962598       0.04583
  48    0.1069        9.3481        0.0000       47.3106       47.3106      37.962511       0.04614
  47    0.1255        9.3481        0.0000       47.3105       47.3105      37.962409       0.04645
  46    0.1487        9.3481        0.0000       47.3104       47.3104      37.962276       0.04852
  45    0.1794        9.3481        0.0000       47.3102       47.3102      37.962089       0.05127
  44    0.2165        9.3481        0.0000       47.3100       47.3100      37.961862       0.05167
  43    0.2613        9.3481        0.0000       47.3097       47.3097      37.961586       0.05210
  42    0.3336        9.3481        0.0000       47.3092       47.3092      37.961116       0.05471
  41    0.4307        9.3481        0.0000       47.3085       47.3086      37.960481       0.05521
  40    0.5894        9.3481        0.0001       47.3074       47.3075      37.959422       0.05633
  39     1.339        9.3480        0.0002       47.3022       47.3023      37.954330       0.05733
  38     1.782        9.3480        0.0002       47.2991       47.2993      37.951360       0.05655
  37     2.292        9.3479        0.0003       47.2956       47.2959      37.947984       0.05591
  36     2.964        9.3479        0.0003       47.2912       47.2915      37.943666       0.05421
  35     3.853        9.3478        0.0005       47.2855       47.2859      37.938131       0.05252
  34     5.035        9.3477        0.0006       47.2780       47.2786      37.930951       0.05129
  33     6.613        9.3475        0.0008       47.2683       47.2691      37.921563       0.05019
  32     8.786        9.3473        0.0010       47.2556       47.2566      37.909264       0.04777
  31     11.80        9.3471        0.0014       47.2380       47.2394      37.892361       0.04732
  30     15.07        9.3468        0.0018       47.2201       47.2219      37.875074       0.04463
  29     18.79        9.3464        0.0022       47.2008       47.2030      37.856595       0.04190
  28     23.16        9.3461        0.0027       47.1795       47.1823      37.836206       0.03943
  27     28.12        9.3456        0.0033       47.1565       47.1598      37.814213       0.03739
  26     33.73        9.3451        0.0040       47.1324       47.1364      37.791294       0.03446
  25     40.54        9.3445        0.0048       47.1054       47.1102      37.765660       0.03180
  24     48.69        9.3438        0.0058       47.0754       47.0812      37.737410       0.02923
  23     57.69        9.3430        0.0068       47.0449       47.0518      37.708792       0.02682
  22     68.43        9.3420        0.0081       47.0110       47.0191      37.677061       0.02495
  21     81.20        9.3409        0.0096       46.9729       46.9825      37.641575       0.02345
  20     96.49        9.3395        0.0114       46.9294       46.9408      37.601245       0.02226
  19     114.6        9.3379        0.0135       46.8790       46.8925      37.554629       0.02177
  18     136.5        9.3360        0.0161       46.8200       46.8360      37.500031       0.02099
  17     162.9        9.3337        0.0191       46.7361       46.7552      37.421455       0.02512
  16     196.4        9.3308        0.0230       46.5703       46.5932      37.262373       0.04004
  15     218.7        9.3290        0.0255       46.3473       46.3728      37.043761       0.08300
  14     243.0        9.3271        0.0281       45.9299       45.9579      36.630832       0.14322
  13     269.0        9.3253        0.0307       45.1708       45.2015      35.876179       0.24481
  12     297.5        9.3237        0.0332       44.0115       44.0447      34.720965       0.34262
  11     328.5        9.3225        0.0358       42.7242       42.7600      33.437499       0.34897
  10     361.9        9.3218        0.0383       41.3539       41.3923      32.070458       0.34587
   9     398.1        9.3221        0.0409       39.7953       39.8361      30.514059       0.36261
   8     437.6        9.3238        0.0432       37.9948       38.0379      28.714184       0.38482
   7     480.5        9.3275        0.0453       36.0647       36.1100      26.782507       0.37937
   6     533.0        9.3360        0.0476       33.7773       33.8249      24.488889       0.36897
   5     589.8        9.3522        0.0496       31.4082       31.4578      22.105574       0.35376
   4     651.6        9.3846        0.0511       28.8834       28.9345      19.549948       0.34949
   3     718.7        9.4444        0.0524       26.4104       26.4628      17.018441       0.31814
   2     792.3        9.5564        0.0535       24.0056       24.0591      14.502630       0.28854
   1     891.5        9.8412        0.0545       21.2348       21.2893      11.448164       0.25992
   0    1013.0       10.5979        0.0558       18.6150       18.6708       8.072926       0.23436



 Wavenumbers:  7700. -  8050. cm-1, ATM      1
 LEVEL PRESSURE   UPWARD FLUX   DIFDOWN FLUX  DIRDOWN FLUX  DOWNWARD FLUX   NET FLUX    HEATING RATE
          mb          W/m2          W/m2          W/m2        W/m2          W/m2       degree/day
  51    .06700        4.9988        0.0000       11.1810       11.1810       6.182132       0.00000
  50    .07753        4.9988        0.0000       11.1809       11.1809       6.182111       0.01685
  49    .09103        4.9988        0.0000       11.1809       11.1809       6.182084       0.01651
  48    0.1069        4.9988        0.0000       11.1809       11.1809       6.182054       0.01617
  47    0.1255        4.9988        0.0000       11.1809       11.1809       6.182019       0.01582
  46    0.1487        4.9989        0.0000       11.1808       11.1808       6.181975       0.01605
  45    0.1794        4.9989        0.0000       11.1808       11.1808       6.181915       0.01652
  44    0.2165        4.9989        0.0000       11.1807       11.1807       6.181844       0.01620
  43    0.2613        4.9989        0.0000       11.1806       11.1806       6.181759       0.01590
  42    0.3336        4.9989        0.0000       11.1805       11.1805       6.181620       0.01627
  41    0.4307        4.9989        0.0000       11.1803       11.1804       6.181435       0.01609
  40    0.5894        4.9990        0.0000       11.1801       11.1801       6.181132       0.01607
  39     1.339        4.9992        0.0001       11.1788       11.1789       6.179702       0.01610
  38     1.782        4.9993        0.0001       11.1781       11.1782       6.178862       0.01599
  37     2.292        4.9994        0.0001       11.1772       11.1773       6.177890       0.01610
  36     2.964        4.9996        0.0002       11.1761       11.1762       6.176614       0.01603
  35     3.853        4.9999        0.0002       11.1746       11.1748       6.174927       0.01600
  34     5.035        5.0002        0.0003       11.1726       11.1729       6.172688       0.01600
  33     6.613        5.0006        0.0003       11.1700       11.1703       6.169696       0.01599
  32     8.786        5.0012        0.0005       11.1664       11.1669       6.165667       0.01565
  31     11.80        5.0020        0.0006       11.1613       11.1619       6.159907       0.01613
  30     15.07        5.0029        0.0008       11.1558       11.1566       6.153728       0.01595
  29     18.79        5.0039        0.0010       11.1497       11.1507       6.146757       0.01581
  28     23.16        5.0051        0.0012       11.1425       11.1437       6.138626       0.01572
  27     28.12        5.0065        0.0015       11.1343       11.1358       6.129344       0.01578
  26     33.73        5.0080        0.0018       11.1252       11.1270       6.118980       0.01558
  25     40.54        5.0098        0.0021       11.1142       11.1163       6.106490       0.01550
  24     48.69        5.0121        0.0026       11.1010       11.1036       6.091481       0.01553
  23     57.69        5.0146        0.0030       11.0866       11.0896       6.075057       0.01540
  22     68.43        5.0175        0.0036       11.0695       11.0731       6.055582       0.01531
  21     81.20        5.0211        0.0043       11.0494       11.0536       6.032504       0.01525
  20     96.49        5.0254        0.0050       11.0255       11.0306       6.005179       0.01508
  19     114.6        5.0306        0.0060       10.9975       11.0035       5.972978       0.01504
  18     136.5        5.0367        0.0071       10.9648       10.9719       5.935144       0.01455
  17     162.9        5.0442        0.0084       10.9263       10.9347       5.890539       0.01426
  16     196.4        5.0540        0.0101       10.8773       10.8874       5.833380       0.01439
  15     218.7        5.0606        0.0113       10.8455       10.8568       5.796210       0.01411
  14     243.0        5.0679        0.0125       10.8114       10.8239       5.756078       0.01392
  13     269.0        5.0759        0.0138       10.7749       10.7887       5.712823       0.01403
  12     297.5        5.0847        0.0152       10.7357       10.7509       5.666228       0.01382
  11     328.5        5.0945        0.0168       10.6937       10.7105       5.615994       0.01366
  10     361.9        5.1054        0.0184       10.6489       10.6673       5.561900       0.01369
   9     398.1        5.1175        0.0202       10.6008       10.6210       5.503467       0.01361
   8     437.6        5.1311        0.0221       10.5491       10.5712       5.440097       0.01355
   7     480.5        5.1463        0.0242       10.4934       10.5176       5.371237       0.01352
   6     533.0        5.1663        0.0267       10.4243       10.4509       5.284676       0.01392
   5     589.8        5.1895        0.0293       10.3479       10.3772       5.187732       0.01439
   4     651.6        5.2174        0.0322       10.2613       10.2936       5.076146       0.01526
   3     718.7        5.2516        0.0353       10.1618       10.1970       4.945400       0.01643
   2     792.3        5.2950        0.0385       10.0439       10.0824       4.787374       0.01812
   1     891.5        5.3680        0.0428        9.8626        9.9054       4.537349       0.02128
   0    1013.0        5.4834        0.0477        9.6103        9.6580       4.174560       0.02519



 Wavenumbers:  8050. - 12850. cm-1, ATM      1
 LEVEL PRESSURE   UPWARD FLUX   DIFDOWN FLUX  DIRDOWN FLUX  DOWNWARD FLUX   NET FLUX    HEATING RATE
          mb          W/m2          W/m2          W/m2        W/m2          W/m2       degree/day
  51    .06700       61.1738        0.0000      156.5418      156.5418      95.367904       0.00000
  50    .07753       61.1738        0.0000      156.5417      156.5417      95.367904      -0.00000
  49    .09103       61.1738        0.0001      156.5417      156.5417      95.367904       0.00000
  48    0.1069       61.1738        0.0001      156.5416      156.5417      95.367904       0.00000
  47    0.1255       61.1738        0.0001      156.5415      156.5417      95.367904      -0.00000
  46    0.1487       61.1737        0.0002      156.5414      156.5416      95.367904       0.00000
  45    0.1794       61.1737        0.0003      156.5413      156.5416      95.367904       0.00000
  44    0.2165       61.1736        0.0004      156.5412      156.5415      95.367904      -0.00000
  43    0.2613       61.1736        0.0005      156.5410      156.5415      95.367904       0.00000
  42    0.3336       61.1735        0.0007      156.5407      156.5414      95.367904      -0.00000
  41    0.4307       61.1733        0.0009      156.5403      156.5412      95.367904       0.00000
  40    0.5894       61.1731        0.0013      156.5397      156.5410      95.367904       0.00000
  39     1.339       61.1721        0.0032      156.5367      156.5400      95.367904       0.00000
  38     1.782       61.1714        0.0043      156.5350      156.5393      95.367904      -0.00000
  37     2.292       61.1707        0.0056      156.5330      156.5386      95.367904      -0.00000
  36     2.964       61.1698        0.0073      156.5303      156.5377      95.367904       0.00000
  35     3.853       61.1685        0.0096      156.5268      156.5364      95.367904       0.00000
  34     5.035       61.1669        0.0126      156.5222      156.5348      95.367904       0.00000
  33     6.613       61.1647        0.0166      156.5160      156.5326      95.367904      -0.00000
  32     8.786       61.1617        0.0220      156.5076      156.5296      95.367904       0.00000
  31     11.80       61.1574        0.0297      156.4957      156.5253      95.367904       0.00000
  30     15.07       61.1528        0.0379      156.4828      156.5207      95.367904       0.00000
  29     18.79       61.1476        0.0473      156.4682      156.5155      95.367904      -0.00000
  28     23.16       61.1416        0.0583      156.4512      156.5095      95.367904       0.00000
  27     28.12       61.1346        0.0708      156.4317      156.5025      95.367904      -0.00000
  26     33.73       61.1268        0.0849      156.4099      156.4947      95.367904       0.00000
  25     40.54       61.1174        0.1019      156.3834      156.4853      95.367904       0.00000
  24     48.69       61.1060        0.1224      156.3515      156.4739      95.367904      -0.00000
  23     57.69       61.0935        0.1450      156.3164      156.4614      95.367904       0.00000
  22     68.43       61.0785        0.1719      156.2746      156.4464      95.367904      -0.00000
  21     81.20       61.0607        0.2040      156.2246      156.4286      95.367904       0.00000
  20     96.49       61.0394        0.2424      156.1649      156.4073      95.367904       0.00000
  19     114.6       61.0142        0.2880      156.0879      156.3759      95.361755       0.00287
  18     136.5       60.9842        0.3422      155.9962      156.3383      95.354122       0.00294
  17     162.9       60.9485        0.4068      155.8831      156.2899      95.341432       0.00406
  16     196.4       60.9020        0.4909      155.7199      156.2108      95.308818       0.00821
  15     218.7       60.8716        0.5462      155.5733      156.1195      95.247901       0.02313
  14     243.0       60.8387        0.6062      155.3367      155.9429      95.104153       0.04986
  13     269.0       60.8039        0.6711      154.9514      155.6225      94.818650       0.09262
  12     297.5       60.7677        0.7410      154.3896      155.1306      94.362859       0.13518
  11     328.5       60.7305        0.8162      153.7151      154.5313      93.800797       0.15282
  10     361.9       60.6932        0.8968      152.9087      153.8056      93.112436       0.17416
   9     398.1       60.6572        0.9830      151.8986      152.8816      92.224399       0.20689
   8     437.6       60.6254        1.0745      150.6031      151.6777      91.052229       0.25062
   7     480.5       60.6010        1.1710      149.0014      150.1724      89.571406       0.29083
   6     533.0       60.5892        1.2875      146.7375      148.0250      87.435853       0.34354
   5     589.8       60.6096        1.4090      143.8730      145.2820      84.672361       0.41019
   4     651.6       60.7008        1.5330      140.0955      141.6285      80.927623       0.51210
   3     718.7       60.9124        1.6580      135.5278      137.1858      76.273414       0.58491
   2     792.3       61.3532        1.7810      130.0690      131.8500      70.496751       0.66252
   1     891.5       62.5177        1.9282      122.1273      124.0555      61.537747       0.76237
   0    1013.0       65.4237        2.0845      112.9512      115.0358      49.612088       0.82806



 Wavenumbers: 12850. - 16000. cm-1, ATM      1
 LEVEL PRESSURE   UPWARD FLUX   DIFDOWN FLUX  DIRDOWN FLUX  DOWNWARD FLUX   NET FLUX    HEATING RATE
          mb          W/m2          W/m2          W/m2        W/m2          W/m2       degree/day
  51    .06700       65.5866        0.0000       98.0872       98.0872      32.500640       0.00000
  50    .07753       65.5866        0.0001       98.0864       98.0864      32.499852       0.63201
  49    .09103       65.5866        0.0001       98.0853       98.0854      32.498862       0.61860
  48    0.1069       65.5866        0.0002       98.0841       98.0843      32.497726       0.60488
  47    0.1255       65.5866        0.0004       98.0826       98.0830      32.496421       0.59140
  46    0.1487       65.5866        0.0005       98.0809       98.0813      32.494777       0.59951
  45    0.1794       65.5866        0.0007       98.0784       98.0791      32.492541       0.61358
  44    0.2165       65.5866        0.0009       98.0756       98.0765      32.489916       0.59735
  43    0.2613       65.5867        0.0012       98.0723       98.0735      32.486832       0.58127
  42    0.3336       65.5868        0.0016       98.0670       98.0686      32.481808       0.58577
  41    0.4307       65.5871        0.0022       98.0602       98.0624      32.475324       0.56373
  40    0.5894       65.5876        0.0032       98.0496       98.0527      32.465139       0.54163
  39     1.339       65.5925        0.0077       98.0043       98.0120      32.419512       0.51368
  38     1.782       65.5971        0.0103       97.9793       97.9896      32.392461       0.51501
  37     2.292       65.6042        0.0134       97.9498       97.9632      32.359003       0.55415
  36     2.964       65.6159        0.0174       97.9088       97.9262      32.310329       0.61100
  35     3.853       65.6350        0.0227       97.8503       97.8731      32.238113       0.68534
  34     5.035       65.6638        0.0298       97.7680       97.7978      32.134017       0.74362
  33     6.613       65.7040        0.0392       97.6562       97.6954      31.991378       0.76255
  32     8.786       65.7564        0.0519       97.5107       97.5626      31.806176       0.71926
  31     11.80       65.8244        0.0700       97.3179       97.3879      31.563485       0.67946
  30     15.07       65.8894        0.0895       97.1283       97.2178      31.328447       0.60682
  29     18.79       65.9555        0.1114       96.9300       97.0415      31.085966       0.54978
  28     23.16       66.0244        0.1371       96.7166       96.8536      30.829260       0.49639
  27     28.12       66.0933        0.1663       96.4935       96.6598      30.566464       0.44673
  26     33.73       66.1566        0.1991       96.2731       96.4721      30.315595       0.37719
  25     40.54       66.2167        0.2386       96.0408       96.2794      30.062643       0.31382
  24     48.69       66.2736        0.2863       95.7946       96.0809      29.807286       0.26425
  23     57.69       66.3208        0.3387       95.5573       95.8959      29.575189       0.21756
  22     68.43       66.3604        0.4011       95.3106       95.7117      29.351268       0.17603
  21     81.20       66.3850        0.4755       95.0643       95.5398      29.154829       0.12980
  20     96.49       66.3934        0.5643       94.8153       95.3795      28.986182       0.09308
  19     114.6       66.4044        0.6707       94.5411       95.2118      28.807354       0.08350
  18     136.5       66.4079        0.7968       94.2320       95.0289      28.620994       0.07166
  17     162.9       66.4032        0.9470       93.8753       94.8223      28.419159       0.06451
  16     196.4       66.3783        1.1417       93.4347       94.5763      28.198054       0.05565
  15     218.7       66.3552        1.2695       93.1513       94.4208      28.065592       0.05029
  14     243.0       66.3271        1.4084       92.8439       94.2523      27.925216       0.04869
  13     269.0       66.2939        1.5588       92.5111       94.0700      27.776080       0.04838
  12     297.5       66.2558        1.7214       92.1495       93.8709      27.615059       0.04776
  11     328.5       66.2144        1.8970       91.7554       93.6524      27.438007       0.04814
  10     361.9       66.1702        2.0860       91.3262       93.4122      27.242070       0.04957
   9     398.1       66.1240        2.2893       90.8575       93.1469      27.022889       0.05106
   8     437.6       66.0779        2.5075       90.3418       92.8493      26.771395       0.05377
   7     480.5       66.0338        2.7410       89.7728       92.5138      26.480066       0.05722
   6     533.0       65.9902        3.0281       89.0428       92.0709      26.080737       0.06424
   5     589.8       65.9636        3.3364       88.2038       91.5402      25.576607       0.07483
   4     651.6       65.9776        3.6656       87.1979       90.8636      24.886026       0.09444
   3     718.7       66.0473        4.0142       86.0161       90.0304      23.983045       0.11348
   2     792.3       66.2227        4.3784       84.5970       88.9754      22.752753       0.14110
   1     891.5       66.6980        4.8515       82.4374       87.2889      20.590897       0.18396
   0    1013.0       67.7465        5.3934       79.6182       85.0116      17.265061       0.23093



 Wavenumbers: 16000. - 22650. cm-1, ATM      1
 LEVEL PRESSURE   UPWARD FLUX   DIFDOWN FLUX  DIRDOWN FLUX  DOWNWARD FLUX   NET FLUX    HEATING RATE
          mb          W/m2          W/m2          W/m2        W/m2          W/m2       degree/day
  51    .06700      137.7609        0.0000      156.3892      156.3892      18.628363       0.00000
  50    .07753      137.7609        0.0004      156.3887      156.3891      18.628217       0.11699
  49    .09103      137.7608        0.0009      156.3879      156.3888      18.628005       0.13270
  48    0.1069      137.7608        0.0015      156.3871      156.3885      18.627721       0.15132
  47    0.1255      137.7608        0.0021      156.3861      156.3882      18.627340       0.17248
  46    0.1487      137.7609        0.0029      156.3847      156.3876      18.626780       0.20439
  45    0.1794      137.7610        0.0041      156.3828      156.3869      18.625903       0.24065
  44    0.2165      137.7612        0.0054      156.3805      156.3859      18.624714       0.27047
  43    0.2613      137.7615        0.0070      156.3776      156.3846      18.623101       0.30407
  42    0.3336      137.7622        0.0096      156.3726      156.3822      18.620034       0.35758
  41    0.4307      137.7633        0.0130      156.3657      156.3788      18.615411       0.40196
  40    0.5894      137.7658        0.0187      156.3537      156.3724      18.606594       0.46886
  39     1.339      137.7874        0.0454      156.2834      156.3289      18.541455       0.73335
  38     1.782      137.8076        0.0612      156.2324      156.2935      18.485965       1.05645
  37     2.292      137.8378        0.0793      156.1641      156.2434      18.405642       1.33035
  36     2.964      137.8882        0.1032      156.0605      156.1637      18.275520       1.63342
  35     3.853      137.9697        0.1347      155.9041      156.0388      18.069051       1.95943
  34     5.035      138.0929        0.1765      155.6774      155.8539      17.761021       2.20043
  33     6.613      138.2650        0.2323      155.3656      155.5979      17.332963       2.28840
  32     8.786      138.4891        0.3074      154.9577      155.2651      16.775984       2.16310
  31     11.80      138.7806        0.4147      154.4153      154.8299      16.049309       2.03446
  30     15.07      139.0597        0.5296      153.8804      154.4100      15.350312       1.80467
  29     18.79      139.3445        0.6593      153.3191      153.9784      14.633948       1.62422
  28     23.16      139.6418        0.8106      152.7126      153.5231      13.881282       1.45541
  27     28.12      139.9408        0.9833      152.0755      153.0588      13.118004       1.29752
  26     33.73      140.2161        1.1763      151.4409      152.6173      12.401105       1.07788
  25     40.54      140.4805        1.4094      150.7637      152.1731      11.692598       0.87898
  24     48.69      140.7326        1.6900      150.0338      151.7239      10.991215       0.72582
  23     57.69      140.9454        1.9979      149.3151      151.3130      10.367658       0.58449
  22     68.43      141.1294        2.3642      148.5476      150.9118       9.782343       0.46014
  21     81.20      141.2537        2.8003      147.7517      150.5519       9.298184       0.31992
  20     96.49      141.3137        3.3193      146.9127      150.2320       8.918267       0.20969
  19     114.6      141.3398        3.9338      145.9763      149.9101       8.570367       0.16244
  18     136.5      141.3400        4.6594      144.9088      149.5682       8.228147       0.13159
  17     162.9      141.3125        5.5193      143.6785      149.1978       7.885369       0.10957
  16     196.4      141.2166        6.6287      142.1651      148.7937       7.577103       0.07759
  15     218.7      141.1317        7.3536      141.2033      148.5569       7.425251       0.05765
  14     243.0      141.0292        8.1381      140.1753      148.3135       7.284227       0.04891
  13     269.0      140.9077        8.9845      139.0797      148.0641       7.156427       0.04146
  12     297.5      140.7664        9.8945      137.9141      147.8086       7.042234       0.03387
  11     328.5      140.6091       10.8726      136.6676      147.5402       6.931140       0.03021
  10     361.9      140.4356       11.9197      135.3392      147.2589       6.823290       0.02729
   9     398.1      140.2452       13.0396      133.9235      146.9631       6.717817       0.02457
   8     437.6      140.0390       14.2344      132.4163      146.6506       6.611636       0.02270
   7     480.5      139.8163       15.5061      130.8147      146.3208       6.504481       0.02104
   6     533.0      139.5421       17.0591      128.8599      145.9190       6.376915       0.02052
   5     589.8      139.2502       18.7181      126.7679      145.4861       6.235905       0.02093
   4     651.6      138.9464       20.4848      124.5274      145.0122       6.065786       0.02326
   3     718.7      138.6365       22.3606      122.1285      144.4891       5.852514       0.02680
   2     792.3      138.3365       24.3434      119.5548      143.8983       5.561754       0.03335
   1     891.5      138.0084       26.9747      116.0566      143.0313       5.022867       0.04586
   0    1013.0      137.7404       30.0654      111.8404      141.9058       4.165420       0.05954



 Wavenumbers: 22650. - 29000. cm-1, ATM      1
 LEVEL PRESSURE   UPWARD FLUX   DIFDOWN FLUX  DIRDOWN FLUX  DOWNWARD FLUX   NET FLUX    HEATING RATE
          mb          W/m2          W/m2          W/m2        W/m2          W/m2       degree/day
  51    .06700       57.3798        0.0000       59.0156       59.0156       1.635763       0.00000
  50    .07753       57.3798        0.0005       59.0151       59.0155       1.635763       0.00000
  49    .09103       57.3796        0.0010       59.0144       59.0154       1.635763       0.00000
  48    0.1069       57.3795        0.0017       59.0136       59.0153       1.635763       0.00000
  47    0.1255       57.3793        0.0025       59.0127       59.0151       1.635763       0.00000
  46    0.1487       57.3792        0.0034       59.0115       59.0149       1.635763      -0.00000
  45    0.1794       57.3789        0.0047       59.0099       59.0146       1.635763      -0.00000
  44    0.2165       57.3786        0.0063       59.0080       59.0143       1.635763       0.00000
  43    0.2613       57.3782        0.0081       59.0058       59.0140       1.635763       0.00000
  42    0.3336       57.3776        0.0112       59.0022       59.0133       1.635763      -0.00000
  41    0.4307       57.3768        0.0152       58.9973       59.0125       1.635763       0.00000
  40    0.5894       57.3754        0.0218       58.9894       59.0112       1.635763       0.00000
  39     1.339       57.3691        0.0530       58.9518       59.0048       1.635763       0.00000
  38     1.782       57.3653        0.0714       58.9297       59.0011       1.635763      -0.00000
  37     2.292       57.3610        0.0926       58.9042       58.9968       1.635763      -0.00000
  36     2.964       57.3554        0.1205       58.8706       58.9911       1.635763      -0.00000
  35     3.853       57.3479        0.1573       58.8264       58.9836       1.635763       0.00000
  34     5.035       57.3379        0.2061       58.7676       58.9737       1.635763       0.00000
  33     6.613       57.3247        0.2714       58.6891       58.9604       1.635763       0.00000
  32     8.786       57.3068        0.3592       58.5834       58.9426       1.635763      -0.00000
  31     11.80       57.2813        0.4846       58.4324       58.9171       1.635763       0.00000
  30     15.07       57.2540        0.6191       58.2706       58.8897       1.635763      -0.00000
  29     18.79       57.2231        0.7706       58.0882       58.8589       1.635763       0.00000
  28     23.16       57.1872        0.9472       57.8757       58.8229       1.635763       0.00000
  27     28.12       57.1462        1.1486       57.6333       58.7819       1.635763      -0.00000
  26     33.73       57.1004        1.3731       57.3631       58.7362       1.635763       0.00000
  25     40.54       57.0454        1.6433       57.0379       58.6812       1.635763       0.00000
  24     48.69       56.9794        1.9673       56.6479       58.6151       1.635763       0.00000
  23     57.69       56.9072        2.3209       56.2221       58.5430       1.635763       0.00000
  22     68.43       56.8219        2.7391       55.7186       58.4577       1.635763       0.00000
  21     81.20       56.7210        3.2329       55.1239       58.3568       1.635763       0.00000
  20     96.49       56.6020        3.8150       54.4228       58.2378       1.635763       0.00000
  19     114.6       56.4624        4.4972       53.6010       58.0982       1.635763       0.00000
  18     136.5       56.2993        5.2933       52.6418       57.9351       1.635763      -0.00000
  17     162.9       56.1083        6.2237       51.5203       57.7441       1.635763       0.00000
  16     196.4       55.8659        7.4022       50.0994       57.5017       1.635763       0.00000
  15     218.7       55.7099        8.1594       49.1863       57.3456       1.635763       0.00000
  14     243.0       55.5430        8.9675       48.2113       57.1788       1.635763       0.00000
  13     269.0       55.3654        9.8262       47.1749       57.0012       1.635763      -0.00000
  12     297.5       55.1771       10.7346       46.0783       56.8129       1.635763       0.00000
  11     328.5       54.9778       11.6940       44.9195       56.6136       1.635763       0.00000
  10     361.9       54.7679       12.7018       43.7018       56.4037       1.635763       0.00000
   9     398.1       54.5473       13.7580       42.4250       56.1831       1.635763       0.00000
   8     437.6       54.3163       14.8604       41.0916       55.9521       1.635763       0.00000
   7     480.5       54.0753       16.0066       39.7045       55.7111       1.635763       0.00000
   6     533.0       53.7876       17.3691       38.0543       55.4234       1.635763      -0.00000
   5     589.8       53.4881       18.7807       36.3431       55.1238       1.635763      -0.00000
   4     651.6       53.1778       20.2341       34.5795       54.8136       1.635763      -0.00000
   3     718.7       52.8579       21.7234       32.7702       54.4936       1.635763       0.00000
   2     792.3       52.5297       23.2398       30.9256       54.1654       1.635763       0.00000
   1     891.5       52.1086       25.1666       28.5778       53.7444       1.635763       0.00000
   0    1013.0       51.6351       27.3044       25.9665       53.2709       1.635763       0.00000



 Wavenumbers: 29000. - 38000. cm-1, ATM      1
 LEVEL PRESSURE   UPWARD FLUX   DIFDOWN FLUX  DIRDOWN FLUX  DOWNWARD FLUX   NET FLUX    HEATING RATE
          mb          W/m2          W/m2          W/m2        W/m2          W/m2       degree/day
  51    .06700        8.5970        0.0000       20.8114       20.8114      12.214317       0.00000
  50    .07753        8.5969        0.0003       20.8070       20.8074      12.210510       3.05137
  49    .09103        8.5966        0.0007       20.8009       20.8016      12.204973       3.46064
  48    0.1069        8.5964        0.0012       20.7928       20.7939      12.197564       3.94405
  47    0.1255        8.5961        0.0017       20.7820       20.7837      12.187660       4.49006
  46    0.1487        8.5957        0.0024       20.7665       20.7688      12.173098       5.30811
  45    0.1794        8.5953        0.0033       20.7424       20.7457      12.150434       6.22164
  44    0.2165        8.5947        0.0043       20.7103       20.7147      12.119913       6.94294
  43    0.2613        8.5942        0.0056       20.6675       20.6731      12.078922       7.72680
  42    0.3336        8.5933        0.0077       20.5880       20.5956      12.002366       8.92562
  41    0.4307        8.5922        0.0104       20.4722       20.4826      11.890422       9.73331
  40    0.5894        8.5906        0.0147       20.2637       20.2783      11.687754      10.77761
  39     1.339        8.5870        0.0330       19.0984       19.1314      10.544399      12.87210
  38     1.782        8.5873        0.0425       18.4394       18.4819       9.894579      12.37154
  37     2.292        8.5898        0.0528       17.7714       17.8242       9.234381      10.93460
  36     2.964        8.5961        0.0654       17.0421       17.1075       8.511490       9.07446
  35     3.853        8.6084        0.0812       16.2678       16.3491       7.740677       7.31516
  34     5.035        8.6289        0.1013       15.4803       15.5816       6.952724       5.62881
  33     6.613        8.6587        0.1269       14.7157       14.8426       6.183889       4.11019
  32     8.786        8.6982        0.1605       13.9936       14.1541       5.455916       2.82718
  31     11.80        8.7496        0.2073       13.2835       13.4908       4.741238       2.00087
  30     15.07        8.7991        0.2558       12.7394       12.9951       4.196020       1.40765
  29     18.79        8.8502        0.3095       12.2666       12.5761       3.725886       1.06594
  28     23.16        8.9045        0.3706       11.8300       12.2006       3.296160       0.83095
  27     28.12        8.9599        0.4390       11.4279       11.8669       2.906942       0.66165
  26     33.73        9.0110        0.5144       11.0695       11.5839       2.572865       0.50229
  25     40.54        9.0592        0.6045       10.7209       11.3253       2.266156       0.38051
  24     48.69        9.1044        0.7113       10.3742       11.0855       1.981095       0.29499
  23     57.69        9.1411        0.8269       10.0549       10.8818       1.740713       0.22532
  22     68.43        9.1702        0.9625        9.7327       10.6952       1.525016       0.16957
  21     81.20        9.1829        1.1225        9.4134       10.5360       1.353099       0.11360
  20     96.49        9.1771        1.3107        9.0887       10.3994       1.222289       0.07220
  19     114.6        9.1608        1.5279        8.7388       10.2667       1.105904       0.05434
  18     136.5        9.1369        1.7763        8.3549       10.1312       0.994287       0.04292
  17     162.9        9.1053        2.0592        7.9311        9.9903       0.885062       0.03491
  16     196.4        9.0538        2.4094        7.4333        9.8428       0.788988       0.02418
  15     218.7        9.0170        2.6296        7.1295        9.7592       0.742158       0.01778
  14     243.0        8.9768        2.8597        6.8161        9.6758       0.698936       0.01499
  13     269.0        8.9330        3.0988        6.4943        9.5931       0.660145       0.01258
  12     297.5        8.8855        3.3458        6.1657        9.5115       0.625969       0.01014
  11     328.5        8.8359        3.5997        5.8295        9.4292       0.593266       0.00889
  10     361.9        8.7845        3.8580        5.4886        9.3467       0.562184       0.00786
   9     398.1        8.7314        4.1202        5.1440        9.2642       0.532748       0.00686
   8     437.6        8.6772        4.3847        4.7969        9.1816       0.504392       0.00606
   7     480.5        8.6222        4.6493        4.4504        9.0997       0.477497       0.00528
   6     533.0        8.5586        4.9505        4.0563        9.0068       0.448204       0.00471
   5     589.8        8.4953        5.2470        3.6682        8.9151       0.419872       0.00421
   4     651.6        8.4332        5.5348        3.2905        8.8254       0.392185       0.00379
   3     718.7        8.3727        5.8126        2.9252        8.7378       0.365099       0.00340
   2     792.3        8.3146        6.0768        2.5764        8.6532       0.338622       0.00304
   1     891.5        8.2459        6.3860        2.1659        8.5519       0.305985       0.00278
   0    1013.0        8.1770        6.6944        1.7526        8.4470       0.270020       0.00250



 Wavenumbers: 38000. - 50000. cm-1, ATM      1
 LEVEL PRESSURE   UPWARD FLUX   DIFDOWN FLUX  DIRDOWN FLUX  DOWNWARD FLUX   NET FLUX    HEATING RATE
          mb          W/m2          W/m2          W/m2        W/m2          W/m2       degree/day
  51    .06700        0.0061        0.0000        1.2836        1.2836       1.277518       0.00000
  50    .07753        0.0061        0.0001        1.2812        1.2812       1.275183       1.87150
  49    .09103        0.0060        0.0002        1.2777        1.2778       1.271851       2.08247
  48    0.1069        0.0059        0.0002        1.2731        1.2734       1.267473       2.33059
  47    0.1255        0.0058        0.0004        1.2672        1.2675       1.261717       2.60908
  46    0.1487        0.0057        0.0005        1.2586        1.2591       1.253391       3.03499
  45    0.1794        0.0055        0.0007        1.2455        1.2462       1.240623       3.50520
  44    0.2165        0.0054        0.0009        1.2282        1.2291       1.223697       3.85037
  43    0.2613        0.0052        0.0011        1.2054        1.2065       1.201348       4.21261
  42    0.3336        0.0049        0.0015        1.1639        1.1654       1.160524       4.75970
  41    0.4307        0.0045        0.0020        1.1051        1.1070       1.102565       5.03943
  40    0.5894        0.0039        0.0026        1.0039        1.0064       1.002524       5.32007
  39     1.339        0.0022        0.0035        0.5438        0.5473       0.545104       5.14971
  38     1.782        0.0016        0.0032        0.3635        0.3666       0.365006       3.42879
  37     2.292        0.0012        0.0027        0.2356        0.2383       0.237058       2.11916
  36     2.964        0.0009        0.0022        0.1455        0.1477       0.146786       1.13318
  35     3.853        0.0006        0.0017        0.0858        0.0875       0.086906       0.56828
  34     5.035        0.0004        0.0013        0.0488        0.0501       0.049701       0.26578
  33     6.613        0.0003        0.0010        0.0273        0.0282       0.027974       0.11615
  32     8.786        0.0002        0.0007        0.0144        0.0151       0.014928       0.05067
  31     11.80        0.0001        0.0004        0.0065        0.0070       0.006903       0.02247
  30     15.07        0.0000        0.0003        0.0031        0.0034       0.003329       0.00923
  29     18.79        0.0000        0.0002        0.0014        0.0016       0.001583       0.00396
  28     23.16        0.0000        0.0001        0.0006        0.0007       0.000720       0.00167
  27     28.12        0.0000        0.0001        0.0003        0.0003       0.000317       0.00069
  26     33.73        0.0000        0.0000        0.0001        0.0001       0.000140       0.00027
  25     40.54        0.0000        0.0000        0.0000        0.0001       0.000057       0.00010
  24     48.69        0.0000        0.0000        0.0000        0.0000       0.000021       0.00004
  23     57.69        0.0000        0.0000        0.0000        0.0000       0.000008       0.00001
  22     68.43        0.0000        0.0000        0.0000        0.0000       0.000003       0.00000
  21     81.20        0.0000        0.0000        0.0000        0.0000       0.000001       0.00000
  20     96.49        0.0000        0.0000        0.0000        0.0000       0.000000       0.00000
  19     114.6        0.0000        0.0000        0.0000        0.0000       0.000000       0.00000
  18     136.5        0.0000        0.0000        0.0000        0.0000       0.000000       0.00000
  17     162.9        0.0000        0.0000        0.0000        0.0000       0.000000       0.00000
  16     196.4        0.0000        0.0000        0.0000        0.0000       0.000000       0.00000
  15     218.7        0.0000        0.0000        0.0000        0.0000       0.000000       0.00000
  14     243.0        0.0000        0.0000        0.0000        0.0000       0.000000       0.00000
  13     269.0        0.0000        0.0000        0.0000        0.0000       0.000000       0.00000
  12     297.5        0.0000        0.0000        0.0000        0.0000       0.000000       0.00000
  11     328.5        0.0000        0.0000        0.0000        0.0000       0.000000       0.00000
  10     361.9        0.0000        0.0000        0.0000        0.0000       0.000000       0.00000
   9     398.1        0.0000        0.0000        0.0000        0.0000       0.000000       0.00000
   8     437.6        0.0000        0.0000        0.0000        0.0000       0.000000       0.00000
   7     480.5        0.0000        0.0000        0.0000        0.0000       0.000000       0.00000
   6     533.0        0.0000        0.0000        0.0000        0.0000       0.000000       0.00000
   5     589.8        0.0000        0.0000        0.0000        0.0000       0.000000       0.00000
   4     651.6        0.0000        0.0000        0.0000        0.0000       0.000000       0.00000
   3     718.7        0.0000        0.0000        0.0000        0.0000       0.000000       0.00000
   2     792.3        0.0000        0.0000        0.0000        0.0000       0.000000       0.00000
   1     891.5        0.0000        0.0000        0.0000        0.0000       0.000000       0.00000
   0    1013.0        0.0000        0.0000        0.0000        0.0000       0.000000       0.00000



 Wavenumbers:   820. -  2600. cm-1, ATM      1
 LEVEL PRESSURE   UPWARD FLUX   DIFDOWN FLUX  DIRDOWN FLUX  DOWNWARD FLUX   NET FLUX    HEATING RATE
          mb          W/m2          W/m2          W/m2        W/m2          W/m2       degree/day
  51    .06700        0.6065        0.0000        6.0047        6.0047       5.398154       0.00000
  50    .07753        0.6065        0.0000        6.0008        6.0008       5.394301       3.08820
  49    .09103        0.6065        0.0000        5.9999        5.9999       5.393415       0.55357
  48    0.1069        0.6065        0.0000        5.9989        5.9989       5.392426       0.52651
  47    0.1255        0.6065        0.0000        5.9978        5.9978       5.391309       0.50649
  46    0.1487        0.6065        0.0000        5.9964        5.9964       5.389952       0.49456
  45    0.1794        0.6065        0.0000        5.9947        5.9947       5.388233       0.47199
  44    0.2165        0.6065        0.0000        5.9929        5.9929       5.386391       0.41909
  43    0.2613        0.6065        0.0000        5.9909        5.9909       5.384431       0.36932
  42    0.3336        0.6065        0.0000        5.9880        5.9880       5.381553       0.33555
  41    0.4307        0.6065        0.0000        5.9846        5.9846       5.378084       0.30164
  40    0.5894        0.6065        0.0000        5.9791        5.9791       5.372579       0.29275
  39     1.339        0.6065        0.0000        5.9536        5.9536       5.347093       0.28693
  38     1.782        0.6065        0.0000        5.9395        5.9395       5.332955       0.26916
  37     2.292        0.6065        0.0000        5.9237        5.9237       5.317205       0.26087
  36     2.964        0.6065        0.0000        5.9039        5.9039       5.297432       0.24821
  35     3.853        0.6065        0.0000        5.8793        5.8793       5.272777       0.23398
  34     5.035        0.6065        0.0000        5.8487        5.8487       5.242215       0.21832
  33     6.613        0.6065        0.0000        5.8108        5.8108       5.204252       0.20295
  32     8.786        0.6065        0.0000        5.7631        5.7631       5.156631       0.18494
  31     11.80        0.6065        0.0000        5.7039        5.7039       5.097377       0.16589
  30     15.07        0.6065        0.0000        5.6539        5.6539       5.047340       0.12918
  29     18.79        0.6065        0.0000        5.6127        5.6127       5.006206       0.09326
  28     23.16        0.6065        0.0000        5.5794        5.5794       4.972831       0.06454
  27     28.12        0.6065        0.0000        5.5518        5.5518       4.945265       0.04686
  26     33.73        0.6066        0.0000        5.5268        5.5268       4.920211       0.03767
  25     40.54        0.6066        0.0000        5.4993        5.4993       4.892764       0.03405
  24     48.69        0.6066        0.0000        5.4678        5.4678       4.861216       0.03265
  23     57.69        0.6066        0.0000        5.4340        5.4340       4.827420       0.03168
  22     68.43        0.6066        0.0000        5.3947        5.3948       4.788135       0.03088
  21     81.20        0.6066        0.0000        5.3497        5.3497       4.743087       0.02977
  20     96.49        0.6067        0.0000        5.2982        5.2982       4.691554       0.02844
  19     114.6        0.6067        0.0000        5.2389        5.2389       4.632207       0.02771
  18     136.5        0.6067        0.0000        5.1716        5.1717       4.564919       0.02587
  17     162.9        0.6068        0.0000        5.0890        5.0890       4.482240       0.02643
  16     196.4        0.6069        0.0000        4.9668        4.9668       4.359920       0.03079
  15     218.7        0.6070        0.0000        4.8585        4.8585       4.251453       0.04118
  14     243.0        0.6072        0.0000        4.7078        4.7079       4.100664       0.05230
  13     269.0        0.6075        0.0000        4.5343        4.5343       3.926817       0.05640
  12     297.5        0.6079        0.0000        4.3419        4.3420       3.734062       0.05717
  11     328.5        0.6085        0.0000        4.1281        4.1281       3.519640       0.05830
  10     361.9        0.6093        0.0000        3.8786        3.8787       3.269361       0.06332
   9     398.1        0.6104        0.0000        3.6159        3.6159       3.005562       0.06146
   8     437.6        0.6118        0.0000        3.3759        3.3759       2.764090       0.05163
   7     480.5        0.6136        0.0000        3.1957        3.1958       2.582230       0.03572
   6     533.0        0.6163        0.0000        3.0467        3.0467       2.430418       0.02442
   5     589.8        0.6204        0.0000        2.9023        2.9023       2.281917       0.02204
   4     651.6        0.6278        0.0000        2.7183        2.7184       2.090514       0.02617
   3     718.7        0.6408        0.0000        2.5058        2.5059       1.865076       0.02833
   2     792.3        0.6646        0.0000        2.2756        2.2757       1.611093       0.02913
   1     891.5        0.7252        0.0000        1.9621        1.9622       1.236986       0.03183
   0    1013.0        0.8777        0.0000        1.5468        1.5469       0.669177       0.03943

  Modules and versions used in this calculation:

       rrtmg_sw.1col.f90:  $Revision$                    rrtmg_sw_init.f90:  $Revision$        
     rrtmgsw_cldprop.f90:  $Revision$                  rrtmgsw_cldprmc.f90:  NOT USED          
     rrtmg_sw_reftra.f90:  $Revision$                  rrtmg_sw_spcvrt.f90:  NOT USED          
     rrtmg_sw_spcvmc.f90:  NOT USED                    rrtmgsw_setcoef.f90:  NOT USED          
     rrtmg_sw_taumol.f90:  $Revision$                  rrtmg_sw_vrtqdr.f90:  NOT USED          
                rrtatm.f:  NOT USED                             util_xxx.f:  NOT USED          
                 extra.f:  NOT USED                       rrtmg_sw_k_g.f90:  $Revision$        

