

 Wavenumbers:   820. - 50000. cm-1, ATM      1
 LEVEL PRESSURE   UPWARD FLUX   DIFDOWN FLUX  DIRDOWN FLUX  DOWNWARD FLUX   NET FLUX    HEATING RATE
          mb          W/m2          W/m2          W/m2        W/m2          W/m2       degree/day
  51    .06700      353.0957        0.0000      617.8126      617.8126     264.716840       0.00000
  50    .07753      353.0954        0.0013      617.7947      617.7961     264.700706      12.93190
  49    .09103      353.0949        0.0030      617.7778      617.7808     264.685904       9.25162
  48    0.1069      353.0944        0.0050      617.7581      617.7630     264.668652       9.18319
  47    0.1255      353.0938        0.0072      617.7340      617.7412     264.647320       9.67114
  46    0.1487      353.0932        0.0100      617.7009      617.7109     264.617651      10.81458
  45    0.1794      353.0924        0.0138      617.6521      617.6659     264.573445      12.13552
  44    0.2165      353.0916        0.0183      617.5895      617.6078     264.516157      13.03215
  43    0.2613      353.0908        0.0236      617.5089      617.5325     264.441687      14.03729
  42    0.3336      353.0898        0.0324      617.3641      617.3965     264.306680      15.74047
  41    0.4307      353.0889        0.0439      617.1591      617.2031     264.114171      16.73822
  40    0.5894      353.0884        0.0626      616.8005      616.8631     263.774691      18.05312
  39     1.339      353.1035        0.1468      614.9443      615.0911     261.987530      20.12018
  38     1.782      353.1247        0.1942      613.9670      614.1612     261.036456      18.10691
  37     2.292      353.1604        0.2481      613.0059      613.2540     260.093527      15.61738
  36     2.964      353.2241        0.3181      611.9577      612.2758     259.051733      13.07765
  35     3.853      353.3315        0.4100      610.8024      611.2124     257.880931      11.11113
  34     5.035      353.4971        0.5312      609.5327      610.0639     256.566794       9.38765
  33     6.613      353.7307        0.6921      608.1464      608.8385     255.107853       7.79950
  32     8.786      354.0348        0.9079      606.6250      607.5330     253.498184       6.25137
  31     11.80      354.4279        1.2152      604.8486      606.0638     251.635880       5.21386
  30     15.07      354.8014        1.5431      603.2440      604.7870     249.985612       4.26067
  29     18.79      355.1797        1.9119      601.6511      603.5631     248.383356       3.63281
  28     23.16      355.5714        2.3405      599.9927      602.3332     246.761783       3.13560
  27     28.12      355.9607        2.8283      598.2881      601.1164     245.155709       2.73022
  26     33.73      356.3103        3.3721      596.5951      599.9672     243.656880       2.25353
  25     40.54      356.6326        4.0268      594.7727      598.7995     242.166865       1.84853
  24     48.69      356.9241        4.8123      592.7865      597.5988     240.674667       1.54419
  23     57.69      357.1501        5.6709      590.7959      596.4668     239.316651       1.27294
  22     68.43      357.3171        6.6880      588.6191      595.3071     237.989986       1.04294
  21     81.20      357.3740        7.8938      586.2690      594.1627     236.788786       0.79373
  20     96.49      357.3099        9.3213      583.6961      593.0174     235.707449       0.59682
  19     114.6      357.1825       11.0006      580.7708      591.7714     234.588962       0.52225
  18     136.5      356.9874       12.9667      577.4359      590.4026     233.415161       0.45135
  17     162.9      356.7174       15.2736      573.5624      588.8361     232.118629       0.41442
  16     196.4      356.2806       18.2150      568.5907      586.8057     230.525120       0.40111
  15     218.7      355.9643       20.1163      565.0572      585.1736     229.209230       0.49959
  14     243.0      355.6101       22.1554      560.7495      582.9049     227.294832       0.66398
  13     269.0      355.2164       24.3335      555.3947      579.7282     224.511704       0.90283
  12     297.5      354.7842       26.6511      548.9964      575.6474     220.863224       1.08210
  11     328.5      354.3205       29.1146      542.0895      571.2041     216.883588       1.08205
  10     361.9      353.8278       31.7200      534.6242      566.3443     212.516446       1.10493
   9     398.1      353.3086       34.4720      526.4204      560.8924     207.583768       1.14920
   8     437.6      352.7704       37.3688      517.3907      554.7595     201.989070       1.19618
   7     480.5      352.2197       40.4086      507.7216      548.1302     195.910506       1.19381
   6     533.0      351.5895       44.0622      495.9006      539.9628     188.373253       1.21250
   5     589.8      350.9936       47.8947      483.0788      530.9735     179.979872       1.24585
   4     651.6      350.5133       51.8936      468.6907      520.5842     170.070939       1.35507
   3     718.7      350.2328       56.0506      453.2257      509.2764     159.043597       1.38583
   2     792.3      350.3582       60.3442      436.4928      496.8371     146.478917       1.44103
   1     891.5      351.5928       65.8894      413.9344      479.8238     128.230967       1.55281
   0    1013.0      355.6069       72.1933      388.4125      460.6057     104.998841       1.61313



 Wavenumbers:  2600. -  3250. cm-1, ATM      1
 LEVEL PRESSURE   UPWARD FLUX   DIFDOWN FLUX  DIRDOWN FLUX  DOWNWARD FLUX   NET FLUX    HEATING RATE
          mb          W/m2          W/m2          W/m2        W/m2          W/m2       degree/day
  51    .06700        0.0225        0.0000        5.4450        5.4450       5.422489       0.00000
  50    .07753        0.0225        0.0000        5.4450        5.4450       5.422481       0.00640
  49    .09103        0.0225        0.0000        5.4450        5.4450       5.422471       0.00627
  48    0.1069        0.0225        0.0000        5.4450        5.4450       5.422460       0.00613
  47    0.1255        0.0225        0.0000        5.4450        5.4450       5.422446       0.00599
  46    0.1487        0.0225        0.0000        5.4450        5.4450       5.422430       0.00608
  45    0.1794        0.0225        0.0000        5.4450        5.4450       5.422407       0.00625
  44    0.2165        0.0225        0.0000        5.4449        5.4449       5.422380       0.00612
  43    0.2613        0.0225        0.0000        5.4449        5.4449       5.422348       0.00600
  42    0.3336        0.0225        0.0000        5.4448        5.4448       5.422295       0.00617
  41    0.4307        0.0225        0.0000        5.4448        5.4448       5.422224       0.00620
  40    0.5894        0.0225        0.0000        5.4446        5.4446       5.422104       0.00637
  39     1.339        0.0225        0.0000        5.4439        5.4439       5.421397       0.00797
  38     1.782        0.0225        0.0000        5.4434        5.4434       5.420854       0.01034
  37     2.292        0.0225        0.0000        5.4427        5.4427       5.420138       0.01186
  36     2.964        0.0225        0.0000        5.4416        5.4416       5.419099       0.01304
  35     3.853        0.0225        0.0000        5.4402        5.4402       5.417622       0.01402
  34     5.035        0.0225        0.0000        5.4381        5.4381       5.415567       0.01468
  33     6.613        0.0225        0.0000        5.4353        5.4353       5.412786       0.01487
  32     8.786        0.0225        0.0000        5.4317        5.4317       5.409154       0.01411
  31     11.80        0.0225        0.0000        5.4269        5.4269       5.404374       0.01338
  30     15.07        0.0225        0.0000        5.4224        5.4224       5.399848       0.01169
  29     18.79        0.0225        0.0000        5.4180        5.4180       5.395436       0.01000
  28     23.16        0.0225        0.0000        5.4135        5.4135       5.390951       0.00867
  27     28.12        0.0225        0.0000        5.4088        5.4088       5.386304       0.00790
  26     33.73        0.0225        0.0000        5.4036        5.4036       5.381066       0.00788
  25     40.54        0.0225        0.0000        5.3966        5.3967       5.374126       0.00861
  24     48.69        0.0225        0.0000        5.3872        5.3872       5.364653       0.00980
  23     57.69        0.0225        0.0000        5.3754        5.3754       5.352874       0.01104
  22     68.43        0.0225        0.0000        5.3599        5.3599       5.337393       0.01217
  21     81.20        0.0225        0.0000        5.3401        5.3401       5.317570       0.01310
  20     96.49        0.0225        0.0000        5.3155        5.3155       5.293017       0.01355
  19     114.6        0.0225        0.0000        5.2853        5.2853       5.262838       0.01409
  18     136.5        0.0225        0.0000        5.2504        5.2505       5.227956       0.01341
  17     162.9        0.0225        0.0001        5.2111        5.2111       5.188649       0.01256
  16     196.4        0.0225        0.0001        5.1640        5.1641       5.141616       0.01184
  15     218.7        0.0225        0.0001        5.1331        5.1332       5.110698       0.01174
  14     243.0        0.0225        0.0001        5.0962        5.0963       5.073815       0.01279
  13     269.0        0.0225        0.0001        5.0511        5.0512       5.028697       0.01464
  12     297.5        0.0225        0.0001        4.9956        4.9957       4.973210       0.01646
  11     328.5        0.0225        0.0001        4.9304        4.9305       4.907973       0.01774
  10     361.9        0.0225        0.0001        4.8511        4.8512       4.828687       0.02006
   9     398.1        0.0226        0.0001        4.7507        4.7508       4.728248       0.02340
   8     437.6        0.0226        0.0001        4.6220        4.6222       4.599561       0.02751
   7     480.5        0.0227        0.0001        4.4625        4.4626       4.439941       0.03135
   6     533.0        0.0228        0.0002        4.2460        4.2462       4.223395       0.03484
   5     589.8        0.0230        0.0002        3.9954        3.9956       3.972588       0.03723
   4     651.6        0.0233        0.0002        3.7089        3.7090       3.685754       0.03923
   3     718.7        0.0237        0.0002        3.4018        3.4020       3.378264       0.03864
   2     792.3        0.0245        0.0002        3.0564        3.0566       3.032124       0.03970
   1     891.5        0.0262        0.0002        2.5828        2.5830       2.556791       0.04045
   0    1013.0        0.0302        0.0001        2.0845        2.0847       2.054434       0.03488



 Wavenumbers:  3250. -  4000. cm-1, ATM      1
 LEVEL PRESSURE   UPWARD FLUX   DIFDOWN FLUX  DIRDOWN FLUX  DOWNWARD FLUX   NET FLUX    HEATING RATE
          mb          W/m2          W/m2          W/m2        W/m2          W/m2       degree/day
  51    .06700        0.0005        0.0000        9.1795        9.1795       9.179065       0.00000
  50    .07753        0.0005        0.0000        9.1747        9.1747       9.174222       3.88148
  49    .09103        0.0005        0.0000        9.1713        9.1713       9.170834       2.11747
  48    0.1069        0.0005        0.0000        9.1688        9.1688       9.168309       1.34402
  47    0.1255        0.0005        0.0000        9.1665        9.1665       9.166050       1.02422
  46    0.1487        0.0005        0.0000        9.1641        9.1641       9.163609       0.88991
  45    0.1794        0.0005        0.0000        9.1612        9.1612       9.160731       0.79008
  44    0.2165        0.0005        0.0000        9.1583        9.1583       9.157810       0.66430
  43    0.2613        0.0005        0.0000        9.1553        9.1553       9.154837       0.56041
  42    0.3336        0.0005        0.0000        9.1511        9.1511       9.150658       0.48723
  41    0.4307        0.0005        0.0000        9.1464        9.1464       9.145890       0.41459
  40    0.5894        0.0005        0.0000        9.1393        9.1394       9.138885       0.37255
  39     1.339        0.0005        0.0000        9.1127        9.1127       9.112271       0.29962
  38     1.782        0.0005        0.0000        9.1011        9.1011       9.100683       0.22062
  37     2.292        0.0005        0.0000        9.0901        9.0901       9.089616       0.18329
  36     2.964        0.0005        0.0000        9.0776        9.0776       9.077186       0.15603
  35     3.853        0.0005        0.0000        9.0629        9.0629       9.062396       0.14036
  34     5.035        0.0005        0.0000        9.0441        9.0441       9.043657       0.13386
  33     6.613        0.0005        0.0000        9.0191        9.0191       9.018656       0.13366
  32     8.786        0.0005        0.0000        8.9843        8.9843       8.983872       0.13509
  31     11.80        0.0004        0.0000        8.9327        8.9327       8.932256       0.14451
  30     15.07        0.0004        0.0000        8.8758        8.8759       8.875411       0.14676
  29     18.79        0.0004        0.0000        8.8110        8.8110       8.810584       0.14698
  28     23.16        0.0004        0.0000        8.7365        8.7366       8.736139       0.14395
  27     28.12        0.0004        0.0000        8.6554        8.6555       8.655026       0.13789
  26     33.73        0.0004        0.0000        8.5719        8.5719       8.571526       0.12554
  25     40.54        0.0004        0.0001        8.4812        8.4812       8.480802       0.11255
  24     48.69        0.0004        0.0001        8.3838        8.3839       8.383501       0.10069
  23     57.69        0.0004        0.0001        8.2861        8.2862       8.285766       0.09161
  22     68.43        0.0004        0.0001        8.1751        8.1751       8.174769       0.08726
  21     81.20        0.0004        0.0001        8.0457        8.0458       8.045411       0.08548
  20     96.49        0.0003        0.0001        7.8949        7.8950       7.894708       0.08318
  19     114.6        0.0003        0.0001        7.7162        7.7163       7.715998       0.08344
  18     136.5        0.0003        0.0002        7.5193        7.5194       7.519155       0.07569
  17     162.9        0.0003        0.0002        7.2913        7.2915       7.291263       0.07284
  16     196.4        0.0002        0.0002        6.9660        6.9662       6.965991       0.08187
  15     218.7        0.0002        0.0002        6.6648        6.6650       6.664802       0.11435
  14     243.0        0.0002        0.0002        6.2619        6.2622       6.262008       0.13970
  13     269.0        0.0002        0.0003        5.7576        5.7579       5.757709       0.16359
  12     297.5        0.0001        0.0003        5.1719        5.1722       5.172018       0.17371
  11     328.5        0.0001        0.0002        4.5757        4.5760       4.575859       0.16209
  10     361.9        0.0001        0.0002        3.9995        3.9998       3.999684       0.14578
   9     398.1        0.0001        0.0002        3.4655        3.4657       3.465629       0.12442
   8     437.6        0.0001        0.0002        2.9740        2.9742       2.974182       0.10507
   7     480.5        0.0001        0.0002        2.5307        2.5309       2.530811       0.08708
   6     533.0        0.0000        0.0002        2.0614        2.0616       2.061519       0.07549
   5     589.8        0.0000        0.0002        1.6150        1.6151       1.615096       0.06626
   4     651.6        0.0000        0.0001        1.1565        1.1566       1.156564       0.06271
   3     718.7        0.0000        0.0001        0.7390        0.7391       0.739090       0.05246
   2     792.3        0.0000        0.0001        0.3985        0.3985       0.398510       0.03906
   1     891.5        0.0000        0.0000        0.1139        0.1139       0.113929       0.02422
   0    1013.0        0.0002        0.0000        0.0094        0.0094       0.009197       0.00727



 Wavenumbers:  4000. -  4650. cm-1, ATM      1
 LEVEL PRESSURE   UPWARD FLUX   DIFDOWN FLUX  DIRDOWN FLUX  DOWNWARD FLUX   NET FLUX    HEATING RATE
          mb          W/m2          W/m2          W/m2        W/m2          W/m2       degree/day
  51    .06700        0.1066        0.0000       10.7795       10.7795      10.672948       0.00000
  50    .07753        0.1066        0.0000       10.7795       10.7795      10.672947       0.00080
  49    .09103        0.1066        0.0000       10.7795       10.7795      10.672946       0.00078
  48    0.1069        0.1066        0.0000       10.7795       10.7795      10.672945       0.00076
  47    0.1255        0.1066        0.0000       10.7795       10.7795      10.672943       0.00075
  46    0.1487        0.1066        0.0000       10.7795       10.7795      10.672941       0.00076
  45    0.1794        0.1066        0.0000       10.7795       10.7795      10.672938       0.00078
  44    0.2165        0.1066        0.0000       10.7795       10.7795      10.672935       0.00076
  43    0.2613        0.1066        0.0000       10.7795       10.7795      10.672931       0.00075
  42    0.3336        0.1066        0.0000       10.7795       10.7795      10.672924       0.00077
  41    0.4307        0.1066        0.0000       10.7795       10.7795      10.672915       0.00077
  40    0.5894        0.1066        0.0000       10.7795       10.7795      10.672900       0.00080
  39     1.339        0.1066        0.0000       10.7794       10.7794      10.672811       0.00101
  38     1.782        0.1066        0.0000       10.7793       10.7793      10.672741       0.00133
  37     2.292        0.1066        0.0000       10.7792       10.7792      10.672647       0.00156
  36     2.964        0.1066        0.0000       10.7791       10.7791      10.672507       0.00176
  35     3.853        0.1066        0.0000       10.7789       10.7789      10.672299       0.00197
  34     5.035        0.1066        0.0000       10.7786       10.7786      10.671992       0.00219
  33     6.613        0.1066        0.0000       10.7781       10.7781      10.671541       0.00241
  32     8.786        0.1066        0.0000       10.7774       10.7774      10.670875       0.00259
  31     11.80        0.1066        0.0000       10.7763       10.7764      10.669830       0.00293
  30     15.07        0.1065        0.0001       10.7751       10.7751      10.668603       0.00317
  29     18.79        0.1065        0.0001       10.7736       10.7737      10.667121       0.00336
  28     23.16        0.1065        0.0001       10.7717       10.7718      10.665283       0.00356
  27     28.12        0.1065        0.0001       10.7695       10.7696      10.663058       0.00378
  26     33.73        0.1065        0.0001       10.7667       10.7668      10.660317       0.00412
  25     40.54        0.1065        0.0001       10.7629       10.7631      10.656603       0.00461
  24     48.69        0.1064        0.0002       10.7579       10.7581      10.651659       0.00512
  23     57.69        0.1064        0.0002       10.7520       10.7522      10.645805       0.00549
  22     68.43        0.1064        0.0002       10.7446       10.7448      10.638480       0.00576
  21     81.20        0.1063        0.0003       10.7355       10.7358      10.629476       0.00595
  20     96.49        0.1063        0.0003       10.7245       10.7248      10.618543       0.00603
  19     114.6        0.1062        0.0004       10.7107       10.7111      10.604907       0.00637
  18     136.5        0.1061        0.0005       10.6942       10.6947      10.588526       0.00630
  17     162.9        0.1061        0.0006       10.6740       10.6746      10.568519       0.00640
  16     196.4        0.1060        0.0007       10.6464       10.6470      10.541074       0.00691
  15     218.7        0.1059        0.0008       10.6255       10.6262      10.520305       0.00788
  14     243.0        0.1059        0.0008       10.5980       10.5989      10.493041       0.00946
  13     269.0        0.1058        0.0009       10.5611       10.5620      10.456222       0.01194
  12     297.5        0.1058        0.0010       10.5119       10.5130      10.407213       0.01454
  11     328.5        0.1057        0.0011       10.4499       10.4510      10.345279       0.01684
  10     361.9        0.1057        0.0012       10.3702       10.3714      10.265707       0.02013
   9     398.1        0.1057        0.0013       10.2678       10.2691      10.163421       0.02383
   8     437.6        0.1057        0.0015       10.1390       10.1405      10.034733       0.02751
   7     480.5        0.1058        0.0016        9.9877        9.9893       9.883514       0.02970
   6     533.0        0.1059        0.0017        9.7937        9.7954       9.689534       0.03121
   5     589.8        0.1061        0.0019        9.5752        9.5770       9.470967       0.03244
   4     651.6        0.1064        0.0020        9.2958        9.2978       9.191375       0.03823
   3     718.7        0.1071        0.0021        8.9267        8.9288       8.821773       0.04645
   2     792.3        0.1083        0.0022        8.4542        8.4564       8.348184       0.05432
   1     891.5        0.1112        0.0023        7.7948        7.7971       7.685966       0.05635
   0    1013.0        0.1182        0.0024        7.0767        7.0791       6.960847       0.05035



 Wavenumbers:  4650. -  5150. cm-1, ATM      1
 LEVEL PRESSURE   UPWARD FLUX   DIFDOWN FLUX  DIRDOWN FLUX  DOWNWARD FLUX   NET FLUX    HEATING RATE
          mb          W/m2          W/m2          W/m2        W/m2          W/m2       degree/day
  51    .06700        0.0310        0.0000       10.2033       10.2033      10.172301       0.00000
  50    .07753        0.0310        0.0000       10.2031       10.2031      10.172065       0.18901
  49    .09103        0.0310        0.0000       10.2028       10.2028      10.171770       0.18428
  48    0.1069        0.0310        0.0000       10.2025       10.2025      10.171433       0.17931
  47    0.1255        0.0310        0.0000       10.2021       10.2021      10.171049       0.17426
  46    0.1487        0.0310        0.0000       10.2016       10.2016      10.170568       0.17536
  45    0.1794        0.0310        0.0000       10.2010       10.2010      10.169918       0.17850
  44    0.2165        0.0310        0.0000       10.2002       10.2002      10.169158       0.17277
  43    0.2613        0.0310        0.0000       10.1993       10.1993      10.168273       0.16690
  42    0.3336        0.0310        0.0000       10.1979       10.1979      10.166840       0.16702
  41    0.4307        0.0310        0.0000       10.1960       10.1960      10.165000       0.16002
  40    0.5894        0.0310        0.0000       10.1932       10.1932      10.162126       0.15283
  39     1.339        0.0310        0.0000       10.1816       10.1816      10.150535       0.13050
  38     1.782        0.0310        0.0000       10.1760       10.1760      10.145006       0.10525
  37     2.292        0.0310        0.0000       10.1706       10.1706      10.139550       0.09036
  36     2.964        0.0310        0.0000       10.1646       10.1647      10.133628       0.07434
  35     3.853        0.0310        0.0000       10.1584       10.1584      10.127415       0.05896
  34     5.035        0.0310        0.0000       10.1521       10.1521      10.121082       0.04524
  33     6.613        0.0310        0.0000       10.1456       10.1456      10.114628       0.03450
  32     8.786        0.0310        0.0000       10.1386       10.1386      10.107623       0.02720
  31     11.80        0.0310        0.0001       10.1295       10.1296      10.098593       0.02528
  30     15.07        0.0310        0.0001       10.1196       10.1197      10.088729       0.02547
  29     18.79        0.0309        0.0001       10.1076       10.1077      10.076740       0.02718
  28     23.16        0.0309        0.0001       10.0923       10.0924      10.061462       0.02954
  27     28.12        0.0309        0.0002       10.0731       10.0733      10.042403       0.03240
  26     33.73        0.0309        0.0002       10.0500       10.0502      10.019355       0.03465
  25     40.54        0.0308        0.0002       10.0201       10.0203       9.989516       0.03702
  24     48.69        0.0308        0.0003        9.9820        9.9822       9.951434       0.03941
  23     57.69        0.0307        0.0003        9.9384        9.9388       9.908008       0.04071
  22     68.43        0.0307        0.0004        9.8858        9.8861       9.855430       0.04133
  21     81.20        0.0306        0.0004        9.8234        9.8239       9.793248       0.04109
  20     96.49        0.0306        0.0005        9.7518        9.7523       9.721717       0.03948
  19     114.6        0.0305        0.0006        9.6719        9.6725       9.642052       0.03720
  18     136.5        0.0304        0.0007        9.5858        9.5865       9.556138       0.03304
  17     162.9        0.0303        0.0008        9.4940        9.4949       9.464626       0.02925
  16     196.4        0.0301        0.0010        9.3883        9.3893       9.359169       0.02654
  15     218.7        0.0300        0.0011        9.3229        9.3240       9.294009       0.02474
  14     243.0        0.0299        0.0012        9.2520        9.2532       9.223279       0.02453
  13     269.0        0.0298        0.0013        9.1717        9.1730       9.143187       0.02598
  12     297.5        0.0297        0.0015        9.0763        9.0777       9.048036       0.02822
  11     328.5        0.0296        0.0016        8.9650        8.9666       8.936964       0.03020
  10     361.9        0.0295        0.0017        8.8349        8.8366       8.807153       0.03284
   9     398.1        0.0294        0.0019        8.6820        8.6839       8.654496       0.03557
   8     437.6        0.0293        0.0020        8.5028        8.5048       8.475519       0.03827
   7     480.5        0.0292        0.0022        8.2948        8.2970       8.267756       0.04080
   6     533.0        0.0292        0.0023        8.0209        8.0232       7.994061       0.04403
   5     589.8        0.0291        0.0025        7.7063        7.7088       7.679681       0.04666
   4     651.6        0.0292        0.0026        7.3412        7.3438       7.314665       0.04992
   3     718.7        0.0293        0.0027        6.9387        6.9414       6.912039       0.05060
   2     792.3        0.0297        0.0028        6.5066        6.5094       6.479689       0.04959
   1     891.5        0.0307        0.0029        5.9361        5.9390       5.908293       0.04862
   0    1013.0        0.0329        0.0030        5.3025        5.3054       5.272553       0.04414



 Wavenumbers:  5150. -  6150. cm-1, ATM      1
 LEVEL PRESSURE   UPWARD FLUX   DIFDOWN FLUX  DIRDOWN FLUX  DOWNWARD FLUX   NET FLUX    HEATING RATE
          mb          W/m2          W/m2          W/m2        W/m2          W/m2       degree/day
  51    .06700        0.2515        0.0000       25.5798       25.5798      25.328309       0.00000
  50    .07753        0.2515        0.0000       25.5798       25.5798      25.328269       0.03155
  49    .09103        0.2515        0.0000       25.5797       25.5797      25.328218       0.03204
  48    0.1069        0.2515        0.0000       25.5797       25.5797      25.328157       0.03255
  47    0.1255        0.2515        0.0000       25.5796       25.5796      25.328084       0.03305
  46    0.1487        0.2515        0.0000       25.5795       25.5795      25.327988       0.03482
  45    0.1794        0.2515        0.0000       25.5794       25.5794      25.327853       0.03706
  44    0.2165        0.2515        0.0000       25.5792       25.5792      25.327688       0.03763
  43    0.2613        0.2515        0.0000       25.5790       25.5790      25.327485       0.03821
  42    0.3336        0.2515        0.0000       25.5786       25.5786      25.327139       0.04037
  41    0.4307        0.2515        0.0000       25.5782       25.5782      25.326669       0.04091
  40    0.5894        0.2515        0.0000       25.5774       25.5774      25.325880       0.04192
  39     1.339        0.2515        0.0000       25.5735       25.5736      25.322084       0.04274
  38     1.782        0.2515        0.0000       25.5713       25.5713      25.319874       0.04206
  37     2.292        0.2515        0.0001       25.5688       25.5688      25.317375       0.04140
  36     2.964        0.2514        0.0001       25.5656       25.5656      25.314200       0.03985
  35     3.853        0.2514        0.0001       25.5615       25.5616      25.310166       0.03828
  34     5.035        0.2514        0.0001       25.5562       25.5564      25.304973       0.03709
  33     6.613        0.2514        0.0002       25.5494       25.5496      25.298240       0.03600
  32     8.786        0.2513        0.0002       25.5406       25.5408      25.289518       0.03387
  31     11.80        0.2512        0.0003       25.5287       25.5290      25.277729       0.03300
  30     15.07        0.2512        0.0004       25.5167       25.5171      25.265916       0.03050
  29     18.79        0.2511        0.0005       25.5042       25.5046      25.253575       0.02798
  28     23.16        0.2510        0.0006       25.4907       25.4913      25.240294       0.02568
  27     28.12        0.2508        0.0007       25.4764       25.4771      25.226304       0.02378
  26     33.73        0.2507        0.0008       25.4620       25.4629      25.212150       0.02128
  25     40.54        0.2505        0.0010       25.4463       25.4473      25.196708       0.01916
  24     48.69        0.2504        0.0012       25.4294       25.4306      25.180219       0.01706
  23     57.69        0.2501        0.0014       25.4126       25.4140      25.163896       0.01530
  22     68.43        0.2499        0.0017       25.3944       25.3961      25.146224       0.01389
  21     81.20        0.2496        0.0020       25.3744       25.3764      25.126829       0.01282
  20     96.49        0.2492        0.0024       25.3519       25.3543      25.105080       0.01200
  19     114.6        0.2488        0.0028       25.3262       25.3290      25.080180       0.01163
  18     136.5        0.2483        0.0034       25.2962       25.2996      25.051234       0.01113
  17     162.9        0.2477        0.0040       25.2521       25.2561      25.008363       0.01370
  16     196.4        0.2470        0.0048       25.1593       25.1641      24.917133       0.02296
  15     218.7        0.2465        0.0053       25.0159       25.0213      24.774779       0.05405
  14     243.0        0.2459        0.0058       24.7089       24.7148      24.468816       0.10612
  13     269.0        0.2454        0.0063       24.1619       24.1682      23.922806       0.17712
  12     297.5        0.2448        0.0068       23.4544       23.4612      23.216381       0.20952
  11     328.5        0.2442        0.0073       22.7355       22.7428      22.498533       0.19518
  10     361.9        0.2436        0.0078       21.9224       21.9302      21.686560       0.20544
   9     398.1        0.2430        0.0082       20.9939       21.0021      20.759082       0.21608
   8     437.6        0.2424        0.0086       19.9833       19.9919      19.749482       0.21586
   7     480.5        0.2419        0.0090       18.9483       18.9572      18.715385       0.20309
   6     533.0        0.2412        0.0093       17.7796       17.7889      17.547693       0.18784
   5     589.8        0.2407        0.0097       16.6726       16.6823      16.441587       0.16418
   4     651.6        0.2403        0.0100       15.6343       15.6443      15.404025       0.14189
   3     718.7        0.2403        0.0104       14.7738       14.7842      14.543959       0.10809
   2     792.3        0.2409        0.0109       14.0291       14.0400      13.799143       0.08542
   1     891.5        0.2436        0.0115       13.0822       13.0937      12.850118       0.08076
   0    1013.0        0.2530        0.0121       12.0384       12.0504      11.797455       0.07309



 Wavenumbers:  6150. -  7700. cm-1, ATM      1
 LEVEL PRESSURE   UPWARD FLUX   DIFDOWN FLUX  DIRDOWN FLUX  DOWNWARD FLUX   NET FLUX    HEATING RATE
          mb          W/m2          W/m2          W/m2        W/m2          W/m2       degree/day
  51    .06700        1.0658        0.0000       47.3109       47.3109      46.245015       0.00000
  50    .07753        1.0658        0.0000       47.3108       47.3108      46.244958       0.04553
  49    .09103        1.0658        0.0000       47.3107       47.3107      46.244885       0.04583
  48    0.1069        1.0658        0.0000       47.3106       47.3106      46.244798       0.04614
  47    0.1255        1.0658        0.0000       47.3105       47.3105      46.244695       0.04645
  46    0.1487        1.0658        0.0000       47.3104       47.3104      46.244562       0.04852
  45    0.1794        1.0658        0.0000       47.3102       47.3102      46.244376       0.05127
  44    0.2165        1.0658        0.0000       47.3100       47.3100      46.244148       0.05167
  43    0.2613        1.0658        0.0000       47.3097       47.3097      46.243872       0.05210
  42    0.3336        1.0658        0.0000       47.3092       47.3092      46.243403       0.05471
  41    0.4307        1.0658        0.0000       47.3085       47.3086      46.242768       0.05521
  40    0.5894        1.0658        0.0001       47.3074       47.3075      46.241708       0.05633
  39     1.339        1.0657        0.0001       47.3022       47.3023      46.236616       0.05733
  38     1.782        1.0657        0.0002       47.2991       47.2993      46.233646       0.05655
  37     2.292        1.0656        0.0002       47.2956       47.2959      46.230270       0.05591
  36     2.964        1.0655        0.0003       47.2912       47.2915      46.225952       0.05421
  35     3.853        1.0655        0.0004       47.2855       47.2859      46.220418       0.05252
  34     5.035        1.0653        0.0005       47.2780       47.2786      46.213237       0.05129
  33     6.613        1.0652        0.0007       47.2683       47.2690      46.203850       0.05019
  32     8.786        1.0650        0.0009       47.2556       47.2565      46.191551       0.04776
  31     11.80        1.0646        0.0013       47.2380       47.2393      46.174648       0.04732
  30     15.07        1.0643        0.0016       47.2201       47.2217      46.157361       0.04463
  29     18.79        1.0639        0.0020       47.2008       47.2028      46.138883       0.04190
  28     23.16        1.0635        0.0025       47.1795       47.1820      46.118494       0.03942
  27     28.12        1.0630        0.0030       47.1565       47.1595      46.096503       0.03738
  26     33.73        1.0624        0.0036       47.1324       47.1360      46.073585       0.03446
  25     40.54        1.0617        0.0043       47.1054       47.1097      46.047952       0.03180
  24     48.69        1.0609        0.0052       47.0754       47.0806      46.019705       0.02923
  23     57.69        1.0600        0.0061       47.0449       47.0510      45.991090       0.02682
  22     68.43        1.0589        0.0072       47.0110       47.0182      45.959362       0.02494
  21     81.20        1.0576        0.0086       46.9729       46.9814      45.923881       0.02345
  20     96.49        1.0560        0.0102       46.9294       46.9396      45.883558       0.02226
  19     114.6        1.0542        0.0121       46.8790       46.8911      45.836952       0.02176
  18     136.5        1.0520        0.0144       46.8200       46.8343      45.782370       0.02099
  17     162.9        1.0493        0.0170       46.7361       46.7532      45.703822       0.02511
  16     196.4        1.0460        0.0205       46.5703       46.5908      45.544812       0.04002
  15     218.7        1.0437        0.0227       46.3473       46.3700      45.326285       0.08297
  14     243.0        1.0414        0.0250       45.9299       45.9549      44.913519       0.14316
  13     269.0        1.0389        0.0273       45.1708       45.1981      44.159189       0.24470
  12     297.5        1.0364        0.0295       44.0115       44.0410      43.004599       0.34244
  11     328.5        1.0338        0.0317       42.7242       42.7559      41.722144       0.34870
  10     361.9        1.0311        0.0338       41.3539       41.3878      40.356681       0.34548
   9     398.1        1.0285        0.0359       39.7953       39.8312      38.802712       0.36204
   8     437.6        1.0259        0.0377       37.9948       38.0325      37.006605       0.38402
   7     480.5        1.0235        0.0394       36.0647       36.1041      35.080589       0.37826
   6     533.0        1.0211        0.0410       33.7773       33.8183      32.797155       0.36733
   5     589.8        1.0195        0.0423       31.4082       31.4505      30.430936       0.35122
   4     651.6        1.0197        0.0431       28.8834       28.9265      27.906752       0.34519
   3     718.7        1.0228        0.0436       26.4104       26.4539      25.431117       0.31112
   2     792.3        1.0316        0.0438       24.0056       24.0494      23.017788       0.27678
   1     891.5        1.0581        0.0438       21.2348       21.2786      20.220536       0.23803
   0    1013.0        1.1345        0.0438       18.6150       18.6589      17.524334       0.18721



 Wavenumbers:  7700. -  8050. cm-1, ATM      1
 LEVEL PRESSURE   UPWARD FLUX   DIFDOWN FLUX  DIRDOWN FLUX  DOWNWARD FLUX   NET FLUX    HEATING RATE
          mb          W/m2          W/m2          W/m2        W/m2          W/m2       degree/day
  51    .06700        2.2462        0.0000       11.1810       11.1810       8.934811       0.00000
  50    .07753        2.2462        0.0000       11.1809       11.1809       8.934792       0.01540
  49    .09103        2.2462        0.0000       11.1809       11.1809       8.934768       0.01509
  48    0.1069        2.2462        0.0000       11.1809       11.1809       8.934740       0.01477
  47    0.1255        2.2462        0.0000       11.1809       11.1809       8.934708       0.01446
  46    0.1487        2.2462        0.0000       11.1808       11.1808       8.934668       0.01467
  45    0.1794        2.2462        0.0000       11.1808       11.1808       8.934613       0.01509
  44    0.2165        2.2462        0.0000       11.1807       11.1807       8.934548       0.01481
  43    0.2613        2.2462        0.0000       11.1806       11.1806       8.934471       0.01453
  42    0.3336        2.2462        0.0000       11.1805       11.1805       8.934343       0.01487
  41    0.4307        2.2462        0.0000       11.1803       11.1804       8.934174       0.01470
  40    0.5894        2.2462        0.0000       11.1801       11.1801       8.933898       0.01469
  39     1.339        2.2463        0.0001       11.1788       11.1789       8.932591       0.01471
  38     1.782        2.2463        0.0001       11.1781       11.1781       8.931824       0.01461
  37     2.292        2.2464        0.0001       11.1772       11.1773       8.930936       0.01471
  36     2.964        2.2464        0.0001       11.1761       11.1762       8.929770       0.01464
  35     3.853        2.2465        0.0002       11.1746       11.1748       8.928229       0.01462
  34     5.035        2.2466        0.0002       11.1726       11.1728       8.926184       0.01461
  33     6.613        2.2468        0.0003       11.1700       11.1703       8.923452       0.01460
  32     8.786        2.2470        0.0004       11.1664       11.1668       8.919773       0.01429
  31     11.80        2.2473        0.0005       11.1613       11.1618       8.914515       0.01472
  30     15.07        2.2477        0.0007       11.1558       11.1565       8.908878       0.01456
  29     18.79        2.2480        0.0009       11.1497       11.1505       8.902519       0.01442
  28     23.16        2.2485        0.0011       11.1425       11.1436       8.895106       0.01433
  27     28.12        2.2490        0.0013       11.1343       11.1356       8.886648       0.01438
  26     33.73        2.2495        0.0015       11.1252       11.1267       8.877208       0.01419
  25     40.54        2.2502        0.0019       11.1142       11.1161       8.865840       0.01410
  24     48.69        2.2510        0.0022       11.1010       11.1032       8.852190       0.01413
  23     57.69        2.2520        0.0026       11.0866       11.0892       8.837267       0.01399
  22     68.43        2.2531        0.0031       11.0695       11.0727       8.819591       0.01390
  21     81.20        2.2544        0.0037       11.0494       11.0531       8.798670       0.01382
  20     96.49        2.2560        0.0044       11.0255       11.0299       8.773937       0.01365
  19     114.6        2.2579        0.0052       10.9975       11.0028       8.744843       0.01358
  18     136.5        2.2602        0.0062       10.9648       10.9709       8.710732       0.01312
  17     162.9        2.2630        0.0073       10.9263       10.9336       8.670619       0.01282
  16     196.4        2.2667        0.0088       10.8773       10.8861       8.619380       0.01290
  15     218.7        2.2692        0.0098       10.8455       10.8553       8.586160       0.01261
  14     243.0        2.2719        0.0108       10.8114       10.8223       8.550381       0.01241
  13     269.0        2.2749        0.0120       10.7749       10.7869       8.511926       0.01247
  12     297.5        2.2783        0.0132       10.7357       10.7489       8.470628       0.01225
  11     328.5        2.2820        0.0145       10.6937       10.7083       8.426251       0.01207
  10     361.9        2.2862        0.0160       10.6489       10.6648       8.378638       0.01205
   9     398.1        2.2909        0.0175       10.6008       10.6183       8.327411       0.01193
   8     437.6        2.2961        0.0191       10.5491       10.5682       8.272103       0.01183
   7     480.5        2.3021        0.0209       10.4934       10.5143       8.212277       0.01175
   6     533.0        2.3099        0.0231       10.4243       10.4473       8.137461       0.01204
   5     589.8        2.3191        0.0254       10.3479       10.3733       8.054166       0.01236
   4     651.6        2.3303        0.0278       10.2613       10.2892       7.958881       0.01303
   3     718.7        2.3442        0.0304       10.1618       10.1922       7.847995       0.01394
   2     792.3        2.3621        0.0332       10.0439       10.0771       7.714988       0.01525
   1     891.5        2.3927        0.0368        9.8626        9.8994       7.506747       0.01772
   0    1013.0        2.4417        0.0409        9.6103        9.6512       7.209542       0.02064



 Wavenumbers:  8050. - 12850. cm-1, ATM      1
 LEVEL PRESSURE   UPWARD FLUX   DIFDOWN FLUX  DIRDOWN FLUX  DOWNWARD FLUX   NET FLUX    HEATING RATE
          mb          W/m2          W/m2          W/m2        W/m2          W/m2       degree/day
  51    .06700       70.3302        0.0000      156.5418      156.5418      86.211555       0.00000
  50    .07753       70.3302        0.0000      156.5417      156.5417      86.211555       0.00000
  49    .09103       70.3302        0.0001      156.5417      156.5417      86.211555      -0.00000
  48    0.1069       70.3301        0.0001      156.5416      156.5417      86.211555       0.00000
  47    0.1255       70.3301        0.0002      156.5415      156.5417      86.211555      -0.00000
  46    0.1487       70.3301        0.0002      156.5414      156.5416      86.211555      -0.00000
  45    0.1794       70.3300        0.0003      156.5413      156.5416      86.211555       0.00000
  44    0.2165       70.3300        0.0004      156.5412      156.5416      86.211555      -0.00000
  43    0.2613       70.3299        0.0005      156.5410      156.5415      86.211555      -0.00000
  42    0.3336       70.3298        0.0007      156.5407      156.5414      86.211555       0.00000
  41    0.4307       70.3297        0.0010      156.5403      156.5413      86.211555      -0.00000
  40    0.5894       70.3295        0.0014      156.5397      156.5411      86.211555       0.00000
  39     1.339       70.3285        0.0033      156.5367      156.5401      86.211555      -0.00000
  38     1.782       70.3279        0.0045      156.5350      156.5395      86.211555      -0.00000
  37     2.292       70.3273        0.0058      156.5330      156.5388      86.211555       0.00000
  36     2.964       70.3264        0.0076      156.5303      156.5379      86.211555       0.00000
  35     3.853       70.3252        0.0099      156.5268      156.5368      86.211555       0.00000
  34     5.035       70.3236        0.0130      156.5222      156.5352      86.211555       0.00000
  33     6.613       70.3216        0.0171      156.5160      156.5331      86.211555      -0.00000
  32     8.786       70.3188        0.0227      156.5076      156.5303      86.211555       0.00000
  31     11.80       70.3148        0.0306      156.4957      156.5263      86.211555       0.00000
  30     15.07       70.3104        0.0392      156.4828      156.5220      86.211555       0.00000
  29     18.79       70.3056        0.0489      156.4682      156.5171      86.211555       0.00000
  28     23.16       70.2999        0.0602      156.4512      156.5114      86.211555      -0.00000
  27     28.12       70.2933        0.0732      156.4317      156.5049      86.211555       0.00000
  26     33.73       70.2860        0.0877      156.4099      156.4975      86.211555       0.00000
  25     40.54       70.2771        0.1053      156.3834      156.4887      86.211555       0.00000
  24     48.69       70.2664        0.1265      156.3515      156.4780      86.211555       0.00000
  23     57.69       70.2547        0.1498      156.3164      156.4662      86.211555       0.00000
  22     68.43       70.2406        0.1776      156.2746      156.4522      86.211555       0.00000
  21     81.20       70.2239        0.2108      156.2246      156.4354      86.211555      -0.00000
  20     96.49       70.2039        0.2505      156.1649      156.4154      86.211555       0.00000
  19     114.6       70.1802        0.2976      156.0879      156.3856      86.205388       0.00288
  18     136.5       70.1521        0.3536      155.9962      156.3498      86.197735       0.00294
  17     162.9       70.1185        0.4205      155.8831      156.3035      86.185017       0.00407
  16     196.4       70.0749        0.5074      155.7199      156.2273      86.152357       0.00822
  15     218.7       70.0464        0.5645      155.5733      156.1378      86.091395       0.02315
  14     243.0       70.0157        0.6266      155.3367      155.9633      85.947552       0.04989
  13     269.0       69.9833        0.6937      154.9514      155.6451      85.661847       0.09268
  12     297.5       69.9499        0.7659      154.3896      155.1555      85.205629       0.13531
  11     328.5       69.9160        0.8437      153.7151      154.5588      84.642837       0.15302
  10     361.9       69.8827        0.9272      152.9087      153.8359      83.953290       0.17446
   9     398.1       69.8517        1.0164      151.8986      152.9150      83.063361       0.20733
   8     437.6       69.8262        1.1112      150.6031      151.7143      81.888163       0.25126
   7     480.5       69.8100        1.2112      149.0014      150.2126      80.402671       0.29175
   6     533.0       69.8109        1.3321      146.7375      148.0696      78.258665       0.34490
   5     589.8       69.8502        1.4583      143.8730      145.3313      75.481084       0.41228
   4     651.6       69.9721        1.5873      140.0955      141.6828      71.710747       0.51560
   3     718.7       70.2338        1.7178      135.5278      137.2456      67.011784       0.59053
   2     792.3       70.7612        1.8465      130.0690      131.9156      61.154396       0.67178
   1     891.5       72.1298        2.0014      122.1273      124.1287      51.998837       0.77909
   0    1013.0       75.5135        2.1665      112.9512      115.1178      39.604289       0.86062



 Wavenumbers: 12850. - 16000. cm-1, ATM      1
 LEVEL PRESSURE   UPWARD FLUX   DIFDOWN FLUX  DIRDOWN FLUX  DOWNWARD FLUX   NET FLUX    HEATING RATE
          mb          W/m2          W/m2          W/m2        W/m2          W/m2       degree/day
  51    .06700       74.6811        0.0000       98.0872       98.0872      23.406099       0.00000
  50    .07753       74.6811        0.0001       98.0864       98.0864      23.405308       0.63364
  49    .09103       74.6811        0.0002       98.0853       98.0854      23.404316       0.62045
  48    0.1069       74.6811        0.0003       98.0841       98.0843      23.403175       0.60699
  47    0.1255       74.6811        0.0004       98.0826       98.0830      23.401866       0.59381
  46    0.1487       74.6812        0.0005       98.0809       98.0814      23.400213       0.60237
  45    0.1794       74.6812        0.0007       98.0784       98.0792      23.397966       0.61694
  44    0.2165       74.6813        0.0009       98.0756       98.0766      23.395323       0.60113
  43    0.2613       74.6813        0.0012       98.0723       98.0736      23.392217       0.58552
  42    0.3336       74.6816        0.0017       98.0670       98.0687      23.387150       0.59077
  41    0.4307       74.6819        0.0023       98.0602       98.0625      23.380602       0.56935
  40    0.5894       74.6826        0.0033       98.0496       98.0529      23.370293       0.54819
  39     1.339       74.6886        0.0080       98.0043       98.0123      23.323754       0.52394
  38     1.782       74.6941        0.0108       97.9793       97.9900      23.295926       0.52980
  37     2.292       74.7024        0.0140       97.9498       97.9637      23.261343       0.57278
  36     2.964       74.7161        0.0182       97.9088       97.9270      23.210847       0.63388
  35     3.853       74.7383        0.0237       97.8503       97.8740      23.135736       0.71282
  34     5.035       74.7717        0.0311       97.7680       97.7991      23.027316       0.77451
  33     6.613       74.8184        0.0409       97.6562       97.6971      22.878656       0.79473
  32     8.786       74.8792        0.0541       97.5107       97.5648      22.685598       0.74977
  31     11.80       74.9583        0.0730       97.3179       97.3909      22.432619       0.70826
  30     15.07       75.0340        0.0933       97.1283       97.2216      22.187640       0.63249
  29     18.79       75.1113        0.1162       96.9300       97.0462      21.934925       0.57298
  28     23.16       75.1921        0.1429       96.7166       96.8595      21.667413       0.51728
  27     28.12       75.2733        0.1734       96.4935       96.6669      21.393604       0.46546
  26     33.73       75.3484        0.2076       96.2731       96.4807      21.132330       0.39283
  25     40.54       75.4206        0.2489       96.0408       96.2896      20.869033       0.32665
  24     48.69       75.4898        0.2986       95.7946       96.0932      20.603372       0.27492
  23     57.69       75.5485        0.3533       95.5573       95.9106      20.362058       0.22620
  22     68.43       75.5996        0.4184       95.3106       95.7290      20.129443       0.18287
  21     81.20       75.6347        0.4961       95.0643       95.5605      19.925776       0.13458
  20     96.49       75.6527        0.5888       94.8153       95.4041      19.751415       0.09623
  19     114.6       75.6754        0.7000       94.5411       95.2411      19.565687       0.08672
  18     136.5       75.6914        0.8319       94.2320       95.0639      19.372497       0.07429
  17     162.9       75.7004        0.9888       93.8753       94.8641      19.163777       0.06672
  16     196.4       75.6906        1.1924       93.4347       94.6270      18.936385       0.05724
  15     218.7       75.6766        1.3260       93.1513       94.4773      18.800751       0.05150
  14     243.0       75.6579        1.4713       92.8439       94.3153      18.657347       0.04974
  13     269.0       75.6345        1.6287       92.5111       94.1399      18.505329       0.04931
  12     297.5       75.6068        1.7988       92.1495       93.9483      18.341507       0.04859
  11     328.5       75.5766        1.9827       91.7554       93.7380      18.161477       0.04895
  10     361.9       75.5445        2.1805       91.3262       93.5067      17.962286       0.05040
   9     398.1       75.5116        2.3935       90.8575       93.2510      17.739403       0.05193
   8     437.6       75.4804        2.6220       90.3418       92.9638      17.483441       0.05473
   7     480.5       75.4530        2.8668       89.7728       92.6396      17.186569       0.05830
   6     533.0       75.4318        3.1678       89.0428       92.2107      16.778886       0.06558
   5     589.8       75.4324        3.4914       88.2038       91.6952      16.262809       0.07660
   4     651.6       75.4819        3.8372       87.1979       91.0352      15.553251       0.09703
   3     718.7       75.5979        4.2037       86.0161       90.2198      14.621885       0.11705
   2     792.3       75.8376        4.5870       84.5970       89.1840      13.346418       0.14628
   1     891.5       76.4348        5.0858       82.4374       87.5232      11.088447       0.19214
   0    1013.0       77.6998        5.6583       79.6182       85.2765       7.576717       0.24384



 Wavenumbers: 16000. - 22650. cm-1, ATM      1
 LEVEL PRESSURE   UPWARD FLUX   DIFDOWN FLUX  DIRDOWN FLUX  DOWNWARD FLUX   NET FLUX    HEATING RATE
          mb          W/m2          W/m2          W/m2        W/m2          W/m2       degree/day
  51    .06700      137.7166        0.0000      156.3892      156.3892      18.672662       0.00000
  50    .07753      137.7166        0.0004      156.3887      156.3891      18.672516       0.11698
  49    .09103      137.7165        0.0009      156.3879      156.3888      18.672304       0.13268
  48    0.1069      137.7165        0.0015      156.3871      156.3885      18.672020       0.15130
  47    0.1255      137.7165        0.0021      156.3861      156.3882      18.671639       0.17246
  46    0.1487      137.7166        0.0029      156.3847      156.3876      18.671079       0.20436
  45    0.1794      137.7167        0.0041      156.3828      156.3869      18.670202       0.24062
  44    0.2165      137.7169        0.0054      156.3805      156.3859      18.669013       0.27043
  43    0.2613      137.7172        0.0070      156.3776      156.3846      18.667400       0.30403
  42    0.3336      137.7179        0.0096      156.3726      156.3822      18.664334       0.35753
  41    0.4307      137.7190        0.0130      156.3657      156.3787      18.659711       0.40191
  40    0.5894      137.7215        0.0187      156.3537      156.3724      18.650896       0.46880
  39     1.339      137.7431        0.0454      156.2834      156.3289      18.585765       0.73325
  38     1.782      137.7632        0.0612      156.2324      156.2935      18.530282       1.05631
  37     2.292      137.7935        0.0793      156.1641      156.2434      18.449969       1.33018
  36     2.964      137.8438        0.1032      156.0605      156.1637      18.319864       1.63322
  35     3.853      137.9253        0.1347      155.9041      156.0388      18.113421       1.95918
  34     5.035      138.0484        0.1765      155.6774      155.8539      17.805432       2.20015
  33     6.613      138.2205        0.2323      155.3656      155.5979      17.377428       2.28811
  32     8.786      138.4445        0.3074      154.9577      155.2650      16.820522       2.16282
  31     11.80      138.7359        0.4146      154.4153      154.8299      16.093941       2.03420
  30     15.07      139.0149        0.5296      153.8804      154.4099      15.395036       1.80444
  29     18.79      139.2996        0.6592      153.3191      153.9783      14.678766       1.62400
  28     23.16      139.5968        0.8105      152.7126      153.5230      13.926199       1.45522
  27     28.12      139.8956        0.9831      152.0755      153.0586      13.163022       1.29735
  26     33.73      140.1709        1.1762      151.4409      152.6171      12.446218       1.07773
  25     40.54      140.4351        1.4092      150.7637      152.1729      11.737806       0.87886
  24     48.69      140.6871        1.6898      150.0338      151.7236      11.036518       0.72572
  23     57.69      140.8997        1.9976      149.3151      151.3128      10.413046       0.58441
  22     68.43      141.0837        2.3639      148.5476      150.9115       9.827810       0.46007
  21     81.20      141.2078        2.7999      147.7517      150.5516       9.343718       0.31988
  20     96.49      141.2677        3.3189      146.9127      150.2315       8.963852       0.20966
  19     114.6      141.2936        3.9333      145.9763      149.9096       8.616001       0.16242
  18     136.5      141.2937        4.6588      144.9088      149.5675       8.273830       0.13157
  17     162.9      141.2660        5.5186      143.6785      149.1971       7.931100       0.10955
  16     196.4      141.1700        6.6278      142.1651      148.7928       7.622879       0.07758
  15     218.7      141.0849        7.3526      141.2033      148.5559       7.471048       0.05764
  14     243.0      140.9823        8.1370      140.1753      148.3124       7.330044       0.04890
  13     269.0      140.8606        8.9832      139.0797      148.0629       7.202263       0.04145
  12     297.5      140.7192        9.8932      137.9141      147.8072       7.088086       0.03386
  11     328.5      140.5617       10.8711      136.6676      147.5387       6.977009       0.03020
  10     361.9      140.3880       11.9180      135.3392      147.2572       6.869174       0.02728
   9     398.1      140.1975       13.0378      133.9235      146.9612       6.763716       0.02457
   8     437.6      139.9911       14.2324      132.4163      146.6486       6.657551       0.02270
   7     480.5      139.7682       15.5039      130.8147      146.3186       6.550412       0.02104
   6     533.0      139.4937       17.0567      128.8599      145.9166       6.422863       0.02052
   5     589.8      139.2015       18.7154      126.7679      145.4834       6.281873       0.02093
   4     651.6      138.8974       20.4818      124.5274      145.0092       6.111777       0.02326
   3     718.7      138.5872       22.3573      122.1285      144.4858       5.898535       0.02680
   2     792.3      138.2868       24.3398      119.5548      143.8946       5.607814       0.03334
   1     891.5      137.9582       26.9706      116.0566      143.0272       5.069003       0.04585
   0    1013.0      137.6895       30.0608      111.8404      141.9012       4.211684       0.05953



 Wavenumbers: 22650. - 29000. cm-1, ATM      1
 LEVEL PRESSURE   UPWARD FLUX   DIFDOWN FLUX  DIRDOWN FLUX  DOWNWARD FLUX   NET FLUX    HEATING RATE
          mb          W/m2          W/m2          W/m2        W/m2          W/m2       degree/day
  51    .06700       57.9790        0.0000       59.0156       59.0156       1.036632       0.00000
  50    .07753       57.9789        0.0005       59.0151       59.0155       1.036632       0.00000
  49    .09103       57.9788        0.0010       59.0144       59.0154       1.036632      -0.00000
  48    0.1069       57.9786        0.0017       59.0136       59.0153       1.036632      -0.00000
  47    0.1255       57.9785        0.0025       59.0127       59.0151       1.036632       0.00000
  46    0.1487       57.9783        0.0034       59.0115       59.0149       1.036632      -0.00000
  45    0.1794       57.9780        0.0048       59.0099       59.0147       1.036632      -0.00000
  44    0.2165       57.9777        0.0063       59.0080       59.0144       1.036632       0.00000
  43    0.2613       57.9774        0.0082       59.0058       59.0140       1.036632       0.00000
  42    0.3336       57.9768        0.0112       59.0022       59.0134       1.036632       0.00000
  41    0.4307       57.9759        0.0153       58.9973       59.0126       1.036632      -0.00000
  40    0.5894       57.9746        0.0219       58.9894       59.0113       1.036632       0.00000
  39     1.339       57.9684        0.0533       58.9518       59.0050       1.036632       0.00000
  38     1.782       57.9648        0.0717       58.9297       59.0014       1.036632      -0.00000
  37     2.292       57.9605        0.0930       58.9042       58.9972       1.036632       0.00000
  36     2.964       57.9550        0.1210       58.8706       58.9916       1.036632       0.00000
  35     3.853       57.9477        0.1579       58.8264       58.9843       1.036632      -0.00000
  34     5.035       57.9379        0.2070       58.7676       58.9746       1.036632       0.00000
  33     6.613       57.9249        0.2725       58.6891       58.9616       1.036632       0.00000
  32     8.786       57.9074        0.3607       58.5834       58.9441       1.036632       0.00000
  31     11.80       57.8825        0.4866       58.4324       58.9191       1.036632      -0.00000
  30     15.07       57.8557        0.6217       58.2706       58.8923       1.036632       0.00000
  29     18.79       57.8255        0.7739       58.0882       58.8621       1.036632       0.00000
  28     23.16       57.7903        0.9512       57.8757       58.8269       1.036632      -0.00000
  27     28.12       57.7501        1.1534       57.6333       58.7868       1.036632       0.00000
  26     33.73       57.7054        1.3789       57.3631       58.7420       1.036632       0.00000
  25     40.54       57.6515        1.6502       57.0379       58.6881       1.036632       0.00000
  24     48.69       57.5868        1.9756       56.6479       58.6235       1.036632       0.00000
  23     57.69       57.5162        2.3308       56.2221       58.5529       1.036632       0.00000
  22     68.43       57.4327        2.7508       55.7186       58.4694       1.036632       0.00000
  21     81.20       57.3341        3.2468       55.1239       58.3707       1.036632       0.00000
  20     96.49       57.2177        3.8315       54.4228       58.2543       1.036632      -0.00000
  19     114.6       57.0812        4.5169       53.6010       58.1178       1.036632       0.00000
  18     136.5       56.9218        5.3167       52.6418       57.9584       1.036632       0.00000
  17     162.9       56.7352        6.2515       51.5203       57.7719       1.036632      -0.00000
  16     196.4       56.4986        7.4358       50.0994       57.5352       1.036632      -0.00000
  15     218.7       56.3463        8.1967       49.1863       57.3830       1.036632       0.00000
  14     243.0       56.1836        9.0090       48.2113       57.2203       1.036632       0.00000
  13     269.0       56.0105        9.8722       47.1749       57.0472       1.036632       0.00000
  12     297.5       55.8271       10.7855       46.0783       56.8638       1.036632      -0.00000
  11     328.5       55.6331       11.7502       44.9195       56.6697       1.036632       0.00000
  10     361.9       55.4289       12.7637       43.7018       56.4656       1.036632      -0.00000
   9     398.1       55.2145       13.8261       42.4250       56.2512       1.036632       0.00000
   8     437.6       54.9902       14.9352       41.0916       56.0269       1.036632      -0.00000
   7     480.5       54.7564       16.0886       39.7045       55.7931       1.036632       0.00000
   6     533.0       54.4777       17.4601       38.0543       55.5143       1.036632       0.00000
   5     589.8       54.1879       18.8814       36.3431       55.2245       1.036632      -0.00000
   4     651.6       53.8882       20.3453       34.5795       54.9249       1.036632       0.00000
   3     718.7       53.5797       21.8461       32.7702       54.6164       1.036632       0.00000
   2     792.3       53.2639       23.3750       30.9256       54.3006       1.036632      -0.00000
   1     891.5       52.8599       25.3188       28.5778       53.8965       1.036632       0.00000
   0    1013.0       52.4073       27.4774       25.9665       53.4439       1.036632      -0.00000



 Wavenumbers: 29000. - 38000. cm-1, ATM      1
 LEVEL PRESSURE   UPWARD FLUX   DIFDOWN FLUX  DIRDOWN FLUX  DOWNWARD FLUX   NET FLUX    HEATING RATE
          mb          W/m2          W/m2          W/m2        W/m2          W/m2       degree/day
  51    .06700        8.6465        0.0000       20.8114       20.8114      12.164826       0.00000
  50    .07753        8.6463        0.0003       20.8070       20.8074      12.161019       3.05142
  49    .09103        8.6461        0.0007       20.8009       20.8016      12.155482       3.46070
  48    0.1069        8.6459        0.0012       20.7928       20.7939      12.148073       3.94412
  47    0.1255        8.6456        0.0017       20.7820       20.7837      12.138168       4.49014
  46    0.1487        8.6452        0.0024       20.7665       20.7688      12.123606       5.30820
  45    0.1794        8.6448        0.0033       20.7424       20.7457      12.100942       6.22176
  44    0.2165        8.6442        0.0043       20.7103       20.7147      12.070421       6.94308
  43    0.2613        8.6437        0.0056       20.6675       20.6731      12.029428       7.72695
  42    0.3336        8.6428        0.0077       20.5880       20.5956      11.952871       8.92580
  41    0.4307        8.6417        0.0104       20.4722       20.4826      11.840924       9.73351
  40    0.5894        8.6401        0.0147       20.2637       20.2783      11.638252      10.77785
  39     1.339        8.6366        0.0330       19.0984       19.1314      10.494862      12.87250
  38     1.782        8.6369        0.0426       18.4394       18.4820       9.845011      12.37211
  37     2.292        8.6395        0.0528       17.7714       17.8242       9.184771      10.93530
  36     2.964        8.6458        0.0655       17.0421       17.1076       8.461813       9.07531
  35     3.853        8.6583        0.0814       16.2678       16.3492       7.690894       7.31616
  34     5.035        8.6790        0.1014       15.4803       15.5818       6.902784       5.62993
  33     6.613        8.7091        0.1271       14.7157       14.8428       6.133733       4.11135
  32     8.786        8.7488        0.1608       13.9936       14.1543       5.405479       2.82828
  31     11.80        8.8007        0.2076       13.2835       13.4912       4.690430       2.00191
  30     15.07        8.8507        0.2562       12.7394       12.9956       4.144850       1.40858
  29     18.79        8.9023        0.3100       12.2666       12.5766       3.674337       1.06680
  28     23.16        8.9571        0.3713       11.8300       12.2013       3.244203       0.83174
  27     28.12        9.0131        0.4398       11.4279       11.8677       2.854558       0.66237
  26     33.73        9.0648        0.5154       11.0695       11.5848       2.520068       0.50292
  25     40.54        9.1136        0.6056       10.7209       11.3265       2.212937       0.38103
  24     48.69        9.1594        0.7127       10.3742       11.0869       1.927443       0.29544
  23     57.69        9.1968        0.8286       10.0549       10.8835       1.686662       0.22570
  22     68.43        9.2267        0.9645        9.7327       10.6972       1.470576       0.16987
  21     81.20        9.2401        1.1250        9.4134       10.5384       1.298325       0.11382
  20     96.49        9.2351        1.3136        9.0887       10.4023       1.167244       0.07235
  19     114.6        9.2196        1.5314        8.7388       10.2702       1.050602       0.05446
  18     136.5        9.1966        1.7805        8.3549       10.1353       0.938721       0.04302
  17     162.9        9.1661        2.0642        7.9311        9.9954       0.829220       0.03500
  16     196.4        9.1160        2.4155        7.4333        9.8489       0.732884       0.02425
  15     218.7        9.0801        2.6365        7.1295        9.7660       0.685917       0.01783
  14     243.0        9.0408        2.8673        6.8161        9.6834       0.642563       0.01504
  13     269.0        8.9980        3.1073        6.4943        9.6016       0.603649       0.01262
  12     297.5        8.9516        3.3552        6.1657        9.5209       0.569357       0.01017
  11     328.5        8.9031        3.6102        5.8295        9.4396       0.536539       0.00892
  10     361.9        8.8529        3.8696        5.4886        9.3582       0.505341       0.00789
   9     398.1        8.8011        4.1330        5.1440        9.2769       0.475789       0.00688
   8     437.6        8.7484        4.3987        4.7969        9.1957       0.447316       0.00609
   7     480.5        8.6948        4.6648        4.4504        9.1151       0.420303       0.00531
   6     533.0        8.6331        4.9677        4.0563        9.0240       0.390874       0.00473
   5     589.8        8.5719        5.2661        3.6682        8.9343       0.362401       0.00423
   4     651.6        8.5120        5.5561        3.2905        8.8466       0.334566       0.00381
   3     718.7        8.4539        5.8361        2.9252        8.7613       0.307326       0.00342
   2     792.3        8.3984        6.1027        2.5764        8.6791       0.280688       0.00306
   1     891.5        8.3334        6.4153        2.1659        8.5812       0.247835       0.00280
   0    1013.0        8.2689        6.7279        1.7526        8.4805       0.211610       0.00252



 Wavenumbers: 38000. - 50000. cm-1, ATM      1
 LEVEL PRESSURE   UPWARD FLUX   DIFDOWN FLUX  DIRDOWN FLUX  DOWNWARD FLUX   NET FLUX    HEATING RATE
          mb          W/m2          W/m2          W/m2        W/m2          W/m2       degree/day
  51    .06700        0.0061        0.0000        1.2836        1.2836       1.277518       0.00000
  50    .07753        0.0061        0.0001        1.2812        1.2812       1.275183       1.87150
  49    .09103        0.0060        0.0002        1.2777        1.2778       1.271851       2.08247
  48    0.1069        0.0059        0.0002        1.2731        1.2734       1.267473       2.33059
  47    0.1255        0.0058        0.0004        1.2672        1.2675       1.261717       2.60908
  46    0.1487        0.0057        0.0005        1.2586        1.2591       1.253391       3.03499
  45    0.1794        0.0055        0.0007        1.2455        1.2462       1.240623       3.50520
  44    0.2165        0.0054        0.0009        1.2282        1.2291       1.223697       3.85037
  43    0.2613        0.0052        0.0011        1.2054        1.2065       1.201348       4.21261
  42    0.3336        0.0049        0.0015        1.1639        1.1654       1.160524       4.75970
  41    0.4307        0.0045        0.0020        1.1051        1.1070       1.102565       5.03943
  40    0.5894        0.0039        0.0026        1.0039        1.0064       1.002524       5.32007
  39     1.339        0.0022        0.0035        0.5438        0.5473       0.545104       5.14971
  38     1.782        0.0016        0.0032        0.3635        0.3666       0.365006       3.42879
  37     2.292        0.0012        0.0027        0.2356        0.2383       0.237058       2.11916
  36     2.964        0.0009        0.0022        0.1455        0.1477       0.146786       1.13318
  35     3.853        0.0006        0.0017        0.0858        0.0875       0.086906       0.56828
  34     5.035        0.0004        0.0013        0.0488        0.0501       0.049701       0.26578
  33     6.613        0.0003        0.0010        0.0273        0.0282       0.027974       0.11615
  32     8.786        0.0002        0.0007        0.0144        0.0151       0.014928       0.05067
  31     11.80        0.0001        0.0004        0.0065        0.0070       0.006903       0.02247
  30     15.07        0.0000        0.0003        0.0031        0.0034       0.003329       0.00923
  29     18.79        0.0000        0.0002        0.0014        0.0016       0.001583       0.00396
  28     23.16        0.0000        0.0001        0.0006        0.0007       0.000720       0.00167
  27     28.12        0.0000        0.0001        0.0003        0.0003       0.000317       0.00069
  26     33.73        0.0000        0.0000        0.0001        0.0001       0.000140       0.00027
  25     40.54        0.0000        0.0000        0.0000        0.0001       0.000057       0.00010
  24     48.69        0.0000        0.0000        0.0000        0.0000       0.000021       0.00004
  23     57.69        0.0000        0.0000        0.0000        0.0000       0.000008       0.00001
  22     68.43        0.0000        0.0000        0.0000        0.0000       0.000003       0.00000
  21     81.20        0.0000        0.0000        0.0000        0.0000       0.000001       0.00000
  20     96.49        0.0000        0.0000        0.0000        0.0000       0.000000       0.00000
  19     114.6        0.0000        0.0000        0.0000        0.0000       0.000000       0.00000
  18     136.5        0.0000        0.0000        0.0000        0.0000       0.000000       0.00000
  17     162.9        0.0000        0.0000        0.0000        0.0000       0.000000       0.00000
  16     196.4        0.0000        0.0000        0.0000        0.0000       0.000000       0.00000
  15     218.7        0.0000        0.0000        0.0000        0.0000       0.000000       0.00000
  14     243.0        0.0000        0.0000        0.0000        0.0000       0.000000       0.00000
  13     269.0        0.0000        0.0000        0.0000        0.0000       0.000000       0.00000
  12     297.5        0.0000        0.0000        0.0000        0.0000       0.000000       0.00000
  11     328.5        0.0000        0.0000        0.0000        0.0000       0.000000       0.00000
  10     361.9        0.0000        0.0000        0.0000        0.0000       0.000000       0.00000
   9     398.1        0.0000        0.0000        0.0000        0.0000       0.000000       0.00000
   8     437.6        0.0000        0.0000        0.0000        0.0000       0.000000       0.00000
   7     480.5        0.0000        0.0000        0.0000        0.0000       0.000000       0.00000
   6     533.0        0.0000        0.0000        0.0000        0.0000       0.000000       0.00000
   5     589.8        0.0000        0.0000        0.0000        0.0000       0.000000       0.00000
   4     651.6        0.0000        0.0000        0.0000        0.0000       0.000000       0.00000
   3     718.7        0.0000        0.0000        0.0000        0.0000       0.000000       0.00000
   2     792.3        0.0000        0.0000        0.0000        0.0000       0.000000       0.00000
   1     891.5        0.0000        0.0000        0.0000        0.0000       0.000000       0.00000
   0    1013.0        0.0000        0.0000        0.0000        0.0000       0.000000       0.00000



 Wavenumbers:   820. -  2600. cm-1, ATM      1
 LEVEL PRESSURE   UPWARD FLUX   DIFDOWN FLUX  DIRDOWN FLUX  DOWNWARD FLUX   NET FLUX    HEATING RATE
          mb          W/m2          W/m2          W/m2        W/m2          W/m2       degree/day
  51    .06700        0.0120        0.0000        6.0047        6.0047       5.992611       0.00000
  50    .07753        0.0120        0.0000        6.0008        6.0008       5.988758       3.08819
  49    .09103        0.0120        0.0000        5.9999        5.9999       5.987873       0.55356
  48    0.1069        0.0120        0.0000        5.9989        5.9989       5.986884       0.52650
  47    0.1255        0.0120        0.0000        5.9978        5.9978       5.985766       0.50647
  46    0.1487        0.0120        0.0000        5.9964        5.9964       5.984410       0.49454
  45    0.1794        0.0120        0.0000        5.9947        5.9947       5.982690       0.47197
  44    0.2165        0.0120        0.0000        5.9929        5.9929       5.980848       0.41908
  43    0.2613        0.0120        0.0000        5.9909        5.9909       5.978889       0.36930
  42    0.3336        0.0120        0.0000        5.9880        5.9880       5.976011       0.33553
  41    0.4307        0.0120        0.0000        5.9846        5.9846       5.972542       0.30162
  40    0.5894        0.0120        0.0000        5.9791        5.9791       5.967037       0.29273
  39     1.339        0.0120        0.0000        5.9536        5.9536       5.941553       0.28691
  38     1.782        0.0120        0.0000        5.9395        5.9395       5.927416       0.26914
  37     2.292        0.0120        0.0000        5.9237        5.9237       5.911667       0.26085
  36     2.964        0.0120        0.0000        5.9039        5.9039       5.891895       0.24820
  35     3.853        0.0120        0.0000        5.8793        5.8793       5.867241       0.23396
  34     5.035        0.0120        0.0000        5.8487        5.8487       5.836682       0.21830
  33     6.613        0.0120        0.0000        5.8108        5.8108       5.798722       0.20293
  32     8.786        0.0120        0.0000        5.7631        5.7631       5.751105       0.18493
  31     11.80        0.0120        0.0000        5.7039        5.7039       5.691856       0.16588
  30     15.07        0.0120        0.0000        5.6539        5.6539       5.641826       0.12917
  29     18.79        0.0120        0.0000        5.6127        5.6127       5.600699       0.09325
  28     23.16        0.0120        0.0000        5.5794        5.5794       5.567332       0.06452
  27     28.12        0.0120        0.0000        5.5518        5.5518       5.539775       0.04685
  26     33.73        0.0120        0.0000        5.5268        5.5268       5.514731       0.03765
  25     40.54        0.0120        0.0000        5.4993        5.4993       5.487297       0.03404
  24     48.69        0.0120        0.0000        5.4678        5.4678       5.455764       0.03263
  23     57.69        0.0120        0.0000        5.4340        5.4340       5.421984       0.03166
  22     68.43        0.0120        0.0000        5.3947        5.3948       5.382719       0.03087
  21     81.20        0.0120        0.0000        5.3497        5.3497       5.337694       0.02975
  20     96.49        0.0120        0.0000        5.2982        5.2982       5.286191       0.02843
  19     114.6        0.0120        0.0000        5.2389        5.2389       5.226880       0.02769
  18     136.5        0.0120        0.0000        5.1716        5.1717       5.159636       0.02586
  17     162.9        0.0120        0.0000        5.0890        5.0890       5.077020       0.02641
  16     196.4        0.0120        0.0000        4.9668        4.9668       4.954809       0.03076
  15     218.7        0.0120        0.0000        4.8585        4.8585       4.846448       0.04114
  14     243.0        0.0120        0.0000        4.7078        4.7079       4.695833       0.05224
  13     269.0        0.0120        0.0000        4.5343        4.5343       4.522250       0.05631
  12     297.5        0.0120        0.0000        4.3419        4.3420       4.329926       0.05704
  11     328.5        0.0120        0.0000        4.1281        4.1281       4.116093       0.05814
  10     361.9        0.0121        0.0000        3.8786        3.8787       3.866613       0.06312
   9     398.1        0.0121        0.0000        3.6159        3.6159       3.603867       0.06121
   8     437.6        0.0121        0.0000        3.3759        3.3759       3.363781       0.05133
   7     480.5        0.0121        0.0000        3.1957        3.1958       3.183645       0.03538
   6     533.0        0.0122        0.0000        3.0467        3.0467       3.034515       0.02399
   5     589.8        0.0123        0.0000        2.9023        2.9023       2.890050       0.02144
   4     651.6        0.0124        0.0000        2.7183        2.7184       2.705949       0.02518
   3     718.7        0.0127        0.0000        2.5058        2.5059       2.493196       0.02674
   2     792.3        0.0131        0.0000        2.2756        2.2757       2.262543       0.02645
   1     891.5        0.0143        0.0000        1.9621        1.9621       1.947831       0.02678
   0    1013.0        0.0173        0.0000        1.5468        1.5469       1.529547       0.02904

  Modules and versions used in this calculation:

       rrtmg_sw.1col.f90:  $Revision$                    rrtmg_sw_init.f90:  $Revision$        
     rrtmgsw_cldprop.f90:  $Revision$                  rrtmgsw_cldprmc.f90:  NOT USED          
     rrtmg_sw_reftra.f90:  $Revision$                  rrtmg_sw_spcvrt.f90:  NOT USED          
     rrtmg_sw_spcvmc.f90:  NOT USED                    rrtmgsw_setcoef.f90:  NOT USED          
     rrtmg_sw_taumol.f90:  $Revision$                  rrtmg_sw_vrtqdr.f90:  NOT USED          
                rrtatm.f:  NOT USED                             util_xxx.f:  NOT USED          
                 extra.f:  NOT USED                       rrtmg_sw_k_g.f90:  $Revision$        

