

 Wavenumbers:   820. - 50000. cm-1, ATM      1
 LEVEL PRESSURE   UPWARD FLUX   DIFDOWN FLUX  DIRDOWN FLUX  DOWNWARD FLUX   NET FLUX    HEATING RATE
          mb          W/m2          W/m2          W/m2        W/m2          W/m2       degree/day
  51    .06700      393.1662        0.0000      617.8126      617.8126     224.646386       0.00000
  50    .07753      393.1658        0.0013      617.7947      617.7961     224.630247      12.93563
  49    .09103      393.1654        0.0030      617.7778      617.7808     224.615439       9.25558
  48    0.1069      393.1649        0.0050      617.7581      617.7631     224.598179       9.18743
  47    0.1255      393.1644        0.0072      617.7340      617.7412     224.576837       9.67570
  46    0.1487      393.1638        0.0101      617.7009      617.7109     224.547154      10.81971
  45    0.1794      393.1631        0.0139      617.6521      617.6660     224.502927      12.14132
  44    0.2165      393.1623        0.0184      617.5895      617.6079     224.445611      13.03843
  43    0.2613      393.1616        0.0238      617.5089      617.5327     224.371105      14.04412
  42    0.3336      393.1607        0.0326      617.3641      617.3968     224.236031      15.74826
  41    0.4307      393.1600        0.0443      617.1591      617.2034     224.043424      16.74677
  40    0.5894      393.1598        0.0631      616.8005      616.8635     223.703761      18.06282
  39     1.339      393.1769        0.1479      614.9443      615.0922     221.915333      20.13445
  38     1.782      393.1995        0.1957      613.9670      614.1627     220.963219      18.12672
  37     2.292      393.2371        0.2501      613.0059      613.2560     220.018810      15.64187
  36     2.964      393.3037        0.3207      611.9577      612.2784     218.974654      13.10732
  35     3.853      393.4156        0.4134      610.8024      611.2158     217.800137      11.14638
  34     5.035      393.5879        0.5356      609.5327      610.0684     216.480484       9.42705
  33     6.613      393.8305        0.6979      608.1464      608.8444     215.013877       7.84048
  32     8.786      394.1465        0.9156      606.6250      607.5407     213.394188       6.29029
  31     11.80      394.5556        1.2256      604.8486      606.0743     211.518699       5.25078
  30     15.07      394.9448        1.5564      603.2440      604.8004     209.855609       4.29377
  29     18.79      395.3397        1.9286      601.6511      603.5797     208.240066       3.66293
  28     23.16      395.7494        2.3611      599.9927      602.3538     206.604355       3.16294
  27     28.12      396.1576        2.8533      598.2881      601.1414     204.983726       2.75496
  26     33.73      396.5262        3.4021      596.5951      599.9972     203.470935       2.27452
  25     40.54      396.8687        4.0628      594.7727      598.8355     201.966756       1.86610
  24     48.69      397.1819        4.8556      592.7865      597.6421     200.460109       1.55914
  23     57.69      397.4293        5.7222      590.7959      596.5181     199.088774       1.28542
  22     68.43      397.6190        6.7489      588.6191      595.3680     197.749017       1.05323
  21     81.20      397.6991        7.9662      586.2690      594.2352     196.536050       0.80151
  20     96.49      397.6593        9.4075      583.6961      593.1036     195.444254       0.60259
  19     114.6      397.5598       11.1032      580.7708      591.8741     194.314264       0.52763
  18     136.5      397.3966       13.0889      577.4359      590.5248     193.128193       0.45607
  17     162.9      397.1634       15.4192      573.5624      588.9817     191.818253       0.41871
  16     196.4      396.7718       18.3911      568.5907      586.9818     190.210001       0.40482
  15     218.7      396.4845       20.3126      565.0572      585.3698     188.885286       0.50295
  14     243.0      396.1617       22.3736      560.7495      583.1232     186.961468       0.66724
  13     269.0      395.8022       24.5756      555.3947      579.9703     184.168065       0.90617
  12     297.5      395.4075       26.9191      548.9964      575.9155     180.507938       1.08555
  11     328.5      394.9856       29.4107      542.0895      571.5003     176.514691       1.08575
  10     361.9      394.5396       32.0467      534.6242      566.6709     172.131360       1.10903
   9     398.1      394.0731       34.8316      526.4204      561.2520     167.178927       1.15381
   8     437.6      393.5955       37.7640      517.3907      555.1547     161.559202       1.20153
   7     480.5      393.1153       40.8422      507.7216      548.5638     155.448467       1.20013
   6     533.0      392.5826       44.5434      495.9006      540.4440     147.861435       1.22051
   5     589.8      392.1109       48.4277      483.0788      531.5065     139.395625       1.25660
   4     651.6      391.8035       52.4827      468.6907      521.1734     129.369931       1.37104
   3     718.7      391.7719       56.7005      453.2257      509.9262     118.154292       1.40950
   2     792.3      392.2829       61.0594      436.4928      497.5522     105.269334       1.47776
   1     891.5      394.3531       66.6928      413.9344      480.6273      86.274129       1.61640
   0    1013.0      400.2180       73.1031      388.4125      461.5156      61.297595       1.73425



 Wavenumbers:  2600. -  3250. cm-1, ATM      1
 LEVEL PRESSURE   UPWARD FLUX   DIFDOWN FLUX  DIRDOWN FLUX  DOWNWARD FLUX   NET FLUX    HEATING RATE
          mb          W/m2          W/m2          W/m2        W/m2          W/m2       degree/day
  51    .06700        0.0239        0.0000        5.4450        5.4450       5.421106       0.00000
  50    .07753        0.0239        0.0000        5.4450        5.4450       5.421098       0.00640
  49    .09103        0.0239        0.0000        5.4450        5.4450       5.421088       0.00627
  48    0.1069        0.0239        0.0000        5.4450        5.4450       5.421076       0.00613
  47    0.1255        0.0239        0.0000        5.4450        5.4450       5.421063       0.00599
  46    0.1487        0.0239        0.0000        5.4450        5.4450       5.421046       0.00608
  45    0.1794        0.0239        0.0000        5.4450        5.4450       5.421024       0.00625
  44    0.2165        0.0239        0.0000        5.4449        5.4449       5.420997       0.00612
  43    0.2613        0.0239        0.0000        5.4449        5.4449       5.420965       0.00600
  42    0.3336        0.0239        0.0000        5.4448        5.4448       5.420912       0.00617
  41    0.4307        0.0239        0.0000        5.4448        5.4448       5.420841       0.00620
  40    0.5894        0.0239        0.0000        5.4446        5.4446       5.420721       0.00637
  39     1.339        0.0239        0.0000        5.4439        5.4439       5.420014       0.00797
  38     1.782        0.0239        0.0000        5.4434        5.4434       5.419471       0.01034
  37     2.292        0.0239        0.0000        5.4427        5.4427       5.418755       0.01186
  36     2.964        0.0239        0.0000        5.4416        5.4416       5.417716       0.01304
  35     3.853        0.0239        0.0000        5.4402        5.4402       5.416239       0.01402
  34     5.035        0.0239        0.0000        5.4381        5.4381       5.414183       0.01468
  33     6.613        0.0239        0.0000        5.4353        5.4353       5.411402       0.01487
  32     8.786        0.0239        0.0000        5.4317        5.4317       5.407770       0.01411
  31     11.80        0.0239        0.0000        5.4269        5.4269       5.402990       0.01338
  30     15.07        0.0239        0.0000        5.4224        5.4224       5.398464       0.01169
  29     18.79        0.0239        0.0000        5.4180        5.4180       5.394053       0.01000
  28     23.16        0.0239        0.0000        5.4135        5.4135       5.389568       0.00867
  27     28.12        0.0239        0.0000        5.4088        5.4088       5.384921       0.00790
  26     33.73        0.0239        0.0000        5.4036        5.4036       5.379682       0.00788
  25     40.54        0.0239        0.0000        5.3966        5.3967       5.372743       0.00861
  24     48.69        0.0239        0.0000        5.3872        5.3872       5.363270       0.00980
  23     57.69        0.0239        0.0000        5.3754        5.3754       5.351491       0.01104
  22     68.43        0.0239        0.0000        5.3599        5.3599       5.336010       0.01217
  21     81.20        0.0239        0.0000        5.3401        5.3401       5.316186       0.01310
  20     96.49        0.0239        0.0000        5.3155        5.3155       5.291634       0.01355
  19     114.6        0.0239        0.0000        5.2853        5.2853       5.261455       0.01409
  18     136.5        0.0239        0.0000        5.2504        5.2505       5.226573       0.01341
  17     162.9        0.0239        0.0001        5.2111        5.2111       5.187265       0.01256
  16     196.4        0.0239        0.0001        5.1640        5.1641       5.140232       0.01184
  15     218.7        0.0239        0.0001        5.1331        5.1332       5.109314       0.01174
  14     243.0        0.0239        0.0001        5.0962        5.0963       5.072430       0.01279
  13     269.0        0.0239        0.0001        5.0511        5.0512       5.027311       0.01464
  12     297.5        0.0239        0.0001        4.9956        4.9957       4.971824       0.01646
  11     328.5        0.0239        0.0001        4.9304        4.9305       4.906584       0.01774
  10     361.9        0.0239        0.0001        4.8511        4.8512       4.827297       0.02006
   9     398.1        0.0240        0.0001        4.7507        4.7508       4.726855       0.02340
   8     437.6        0.0240        0.0001        4.6220        4.6222       4.598165       0.02751
   7     480.5        0.0241        0.0001        4.4625        4.4626       4.438540       0.03135
   6     533.0        0.0242        0.0002        4.2460        4.2462       4.221985       0.03484
   5     589.8        0.0244        0.0002        3.9954        3.9956       3.971166       0.03723
   4     651.6        0.0247        0.0002        3.7089        3.7090       3.684314       0.03923
   3     718.7        0.0252        0.0002        3.4018        3.4020       3.376795       0.03865
   2     792.3        0.0260        0.0002        3.0564        3.0566       3.030607       0.03970
   1     891.5        0.0278        0.0002        2.5828        2.5830       2.555167       0.04046
   0    1013.0        0.0321        0.0001        2.0845        2.0847       2.052558       0.03490



 Wavenumbers:  3250. -  4000. cm-1, ATM      1
 LEVEL PRESSURE   UPWARD FLUX   DIFDOWN FLUX  DIRDOWN FLUX  DOWNWARD FLUX   NET FLUX    HEATING RATE
          mb          W/m2          W/m2          W/m2        W/m2          W/m2       degree/day
  51    .06700        0.0005        0.0000        9.1795        9.1795       9.179064       0.00000
  50    .07753        0.0005        0.0000        9.1747        9.1747       9.174221       3.88148
  49    .09103        0.0005        0.0000        9.1713        9.1713       9.170834       2.11747
  48    0.1069        0.0005        0.0000        9.1688        9.1688       9.168309       1.34402
  47    0.1255        0.0005        0.0000        9.1665        9.1665       9.166049       1.02422
  46    0.1487        0.0005        0.0000        9.1641        9.1641       9.163608       0.88991
  45    0.1794        0.0005        0.0000        9.1612        9.1612       9.160730       0.79008
  44    0.2165        0.0005        0.0000        9.1583        9.1583       9.157810       0.66430
  43    0.2613        0.0005        0.0000        9.1553        9.1553       9.154837       0.56041
  42    0.3336        0.0005        0.0000        9.1511        9.1511       9.150658       0.48723
  41    0.4307        0.0005        0.0000        9.1464        9.1464       9.145890       0.41459
  40    0.5894        0.0005        0.0000        9.1393        9.1394       9.138884       0.37255
  39     1.339        0.0005        0.0000        9.1127        9.1127       9.112270       0.29962
  38     1.782        0.0005        0.0000        9.1011        9.1011       9.100682       0.22062
  37     2.292        0.0005        0.0000        9.0901        9.0901       9.089615       0.18329
  36     2.964        0.0005        0.0000        9.0776        9.0776       9.077186       0.15603
  35     3.853        0.0005        0.0000        9.0629        9.0629       9.062395       0.14036
  34     5.035        0.0005        0.0000        9.0441        9.0441       9.043657       0.13386
  33     6.613        0.0005        0.0000        9.0191        9.0191       9.018655       0.13366
  32     8.786        0.0005        0.0000        8.9843        8.9843       8.983871       0.13509
  31     11.80        0.0005        0.0000        8.9327        8.9327       8.932255       0.14451
  30     15.07        0.0004        0.0000        8.8758        8.8759       8.875410       0.14676
  29     18.79        0.0004        0.0000        8.8110        8.8110       8.810583       0.14698
  28     23.16        0.0004        0.0000        8.7365        8.7366       8.736138       0.14395
  27     28.12        0.0004        0.0000        8.6554        8.6555       8.655025       0.13789
  26     33.73        0.0004        0.0000        8.5719        8.5719       8.571525       0.12554
  25     40.54        0.0004        0.0001        8.4812        8.4812       8.480802       0.11255
  24     48.69        0.0004        0.0001        8.3838        8.3839       8.383500       0.10069
  23     57.69        0.0004        0.0001        8.2861        8.2862       8.285765       0.09161
  22     68.43        0.0004        0.0001        8.1751        8.1751       8.174769       0.08726
  21     81.20        0.0004        0.0001        8.0457        8.0458       8.045410       0.08548
  20     96.49        0.0003        0.0001        7.8949        7.8950       7.894707       0.08318
  19     114.6        0.0003        0.0001        7.7162        7.7163       7.715998       0.08344
  18     136.5        0.0003        0.0002        7.5193        7.5194       7.519154       0.07569
  17     162.9        0.0003        0.0002        7.2913        7.2915       7.291263       0.07284
  16     196.4        0.0002        0.0002        6.9660        6.9662       6.965990       0.08187
  15     218.7        0.0002        0.0002        6.6648        6.6650       6.664801       0.11435
  14     243.0        0.0002        0.0002        6.2619        6.2622       6.262007       0.13970
  13     269.0        0.0002        0.0003        5.7576        5.7579       5.757708       0.16359
  12     297.5        0.0001        0.0003        5.1719        5.1722       5.172017       0.17371
  11     328.5        0.0001        0.0002        4.5757        4.5760       4.575858       0.16209
  10     361.9        0.0001        0.0002        3.9995        3.9998       3.999683       0.14578
   9     398.1        0.0001        0.0002        3.4655        3.4657       3.465628       0.12442
   8     437.6        0.0001        0.0002        2.9740        2.9742       2.974182       0.10507
   7     480.5        0.0001        0.0002        2.5307        2.5309       2.530811       0.08708
   6     533.0        0.0000        0.0002        2.0614        2.0616       2.061518       0.07549
   5     589.8        0.0000        0.0002        1.6150        1.6151       1.615095       0.06626
   4     651.6        0.0000        0.0001        1.1565        1.1566       1.156563       0.06271
   3     718.7        0.0000        0.0001        0.7390        0.7391       0.739089       0.05246
   2     792.3        0.0000        0.0001        0.3985        0.3985       0.398508       0.03906
   1     891.5        0.0000        0.0000        0.1139        0.1139       0.113924       0.02422
   0    1013.0        0.0002        0.0000        0.0094        0.0094       0.009144       0.00728



 Wavenumbers:  4000. -  4650. cm-1, ATM      1
 LEVEL PRESSURE   UPWARD FLUX   DIFDOWN FLUX  DIRDOWN FLUX  DOWNWARD FLUX   NET FLUX    HEATING RATE
          mb          W/m2          W/m2          W/m2        W/m2          W/m2       degree/day
  51    .06700        1.1518        0.0000       10.7795       10.7795       9.627719       0.00000
  50    .07753        1.1518        0.0000       10.7795       10.7795       9.627718       0.00080
  49    .09103        1.1518        0.0000       10.7795       10.7795       9.627717       0.00078
  48    0.1069        1.1518        0.0000       10.7795       10.7795       9.627715       0.00076
  47    0.1255        1.1518        0.0000       10.7795       10.7795       9.627714       0.00075
  46    0.1487        1.1518        0.0000       10.7795       10.7795       9.627711       0.00076
  45    0.1794        1.1518        0.0000       10.7795       10.7795       9.627709       0.00078
  44    0.2165        1.1518        0.0000       10.7795       10.7795       9.627705       0.00076
  43    0.2613        1.1518        0.0000       10.7795       10.7795       9.627701       0.00075
  42    0.3336        1.1518        0.0000       10.7795       10.7795       9.627695       0.00077
  41    0.4307        1.1518        0.0000       10.7795       10.7795       9.627686       0.00077
  40    0.5894        1.1518        0.0000       10.7795       10.7795       9.627671       0.00080
  39     1.339        1.1518        0.0000       10.7794       10.7794       9.627582       0.00101
  38     1.782        1.1518        0.0000       10.7793       10.7793       9.627512       0.00133
  37     2.292        1.1518        0.0000       10.7792       10.7792       9.627418       0.00156
  36     2.964        1.1518        0.0000       10.7791       10.7791       9.627278       0.00176
  35     3.853        1.1518        0.0000       10.7789       10.7789       9.627070       0.00197
  34     5.035        1.1518        0.0000       10.7786       10.7786       9.626763       0.00219
  33     6.613        1.1518        0.0000       10.7781       10.7781       9.626312       0.00241
  32     8.786        1.1518        0.0000       10.7774       10.7774       9.625646       0.00259
  31     11.80        1.1518        0.0000       10.7763       10.7764       9.624600       0.00293
  30     15.07        1.1518        0.0001       10.7751       10.7751       9.623373       0.00317
  29     18.79        1.1518        0.0001       10.7736       10.7737       9.621890       0.00336
  28     23.16        1.1518        0.0001       10.7717       10.7718       9.620050       0.00356
  27     28.12        1.1517        0.0001       10.7695       10.7696       9.617823       0.00378
  26     33.73        1.1517        0.0001       10.7667       10.7668       9.615080       0.00413
  25     40.54        1.1517        0.0002       10.7629       10.7631       9.611361       0.00461
  24     48.69        1.1517        0.0002       10.7579       10.7581       9.606411       0.00512
  23     57.69        1.1517        0.0002       10.7520       10.7522       9.600547       0.00550
  22     68.43        1.1516        0.0003       10.7446       10.7449       9.593208       0.00577
  21     81.20        1.1516        0.0003       10.7355       10.7358       9.584184       0.00596
  20     96.49        1.1516        0.0004       10.7245       10.7248       9.573221       0.00605
  19     114.6        1.1516        0.0004       10.7107       10.7111       9.559541       0.00639
  18     136.5        1.1516        0.0005       10.6942       10.6947       9.543096       0.00632
  17     162.9        1.1516        0.0006       10.6740       10.6746       9.522995       0.00643
  16     196.4        1.1517        0.0007       10.6464       10.6471       9.495385       0.00695
  15     218.7        1.1518        0.0008       10.6255       10.6263       9.474465       0.00794
  14     243.0        1.1520        0.0009       10.5980       10.5989       9.446972       0.00954
  13     269.0        1.1523        0.0010       10.5611       10.5621       9.409808       0.01206
  12     297.5        1.1527        0.0011       10.5119       10.5130       9.360289       0.01469
  11     328.5        1.1534        0.0012       10.4499       10.4511       9.297650       0.01703
  10     361.9        1.1543        0.0013       10.3702       10.3715       9.217157       0.02037
   9     398.1        1.1555        0.0014       10.2678       10.2692       9.113731       0.02410
   8     437.6        1.1569        0.0016       10.1390       10.1406       8.983620       0.02782
   7     480.5        1.1587        0.0017        9.9877        9.9894       8.830641       0.03004
   6     533.0        1.1615        0.0018        9.7937        9.7955       8.634049       0.03163
   5     589.8        1.1653        0.0020        9.5752        9.5772       8.411869       0.03298
   4     651.6        1.1711        0.0022        9.2958        9.2979       8.126814       0.03898
   3     718.7        1.1802        0.0023        8.9267        8.9290       7.748763       0.04751
   2     792.3        1.1953        0.0024        8.4542        8.4566       7.261285       0.05591
   1     891.5        1.2301        0.0025        7.7948        7.7973       6.567244       0.05906
   0    1013.0        1.3110        0.0026        7.0767        7.0793       5.768290       0.05548



 Wavenumbers:  4650. -  5150. cm-1, ATM      1
 LEVEL PRESSURE   UPWARD FLUX   DIFDOWN FLUX  DIRDOWN FLUX  DOWNWARD FLUX   NET FLUX    HEATING RATE
          mb          W/m2          W/m2          W/m2        W/m2          W/m2       degree/day
  51    .06700        0.2947        0.0000       10.2033       10.2033       9.908667       0.00000
  50    .07753        0.2947        0.0000       10.2031       10.2031       9.908431       0.18901
  49    .09103        0.2947        0.0000       10.2028       10.2028       9.908137       0.18428
  48    0.1069        0.2947        0.0000       10.2025       10.2025       9.907800       0.17931
  47    0.1255        0.2947        0.0000       10.2021       10.2021       9.907415       0.17426
  46    0.1487        0.2947        0.0000       10.2016       10.2016       9.906934       0.17536
  45    0.1794        0.2947        0.0000       10.2010       10.2010       9.906284       0.17850
  44    0.2165        0.2947        0.0000       10.2002       10.2002       9.905524       0.17277
  43    0.2613        0.2947        0.0000       10.1993       10.1993       9.904639       0.16690
  42    0.3336        0.2947        0.0000       10.1979       10.1979       9.903207       0.16702
  41    0.4307        0.2947        0.0000       10.1960       10.1960       9.901366       0.16002
  40    0.5894        0.2947        0.0000       10.1932       10.1932       9.898492       0.15283
  39     1.339        0.2947        0.0000       10.1816       10.1816       9.886901       0.13050
  38     1.782        0.2947        0.0000       10.1760       10.1760       9.881373       0.10525
  37     2.292        0.2947        0.0000       10.1706       10.1706       9.875917       0.09037
  36     2.964        0.2947        0.0000       10.1646       10.1647       9.869994       0.07434
  35     3.853        0.2947        0.0000       10.1584       10.1584       9.863781       0.05896
  34     5.035        0.2946        0.0000       10.1521       10.1521       9.857448       0.04525
  33     6.613        0.2946        0.0000       10.1456       10.1456       9.850994       0.03450
  32     8.786        0.2946        0.0000       10.1386       10.1386       9.843988       0.02721
  31     11.80        0.2946        0.0001       10.1295       10.1296       9.834958       0.02528
  30     15.07        0.2946        0.0001       10.1196       10.1197       9.825092       0.02547
  29     18.79        0.2946        0.0001       10.1076       10.1077       9.813101       0.02719
  28     23.16        0.2946        0.0001       10.0923       10.0924       9.797821       0.02955
  27     28.12        0.2945        0.0002       10.0731       10.0733       9.778759       0.03240
  26     33.73        0.2945        0.0002       10.0500       10.0502       9.755706       0.03466
  25     40.54        0.2945        0.0002       10.0201       10.0204       9.725861       0.03703
  24     48.69        0.2945        0.0003        9.9820        9.9822       9.687770       0.03942
  23     57.69        0.2944        0.0003        9.9384        9.9388       9.644333       0.04072
  22     68.43        0.2944        0.0004        9.8858        9.8861       9.591739       0.04135
  21     81.20        0.2943        0.0004        9.8234        9.8239       9.529536       0.04110
  20     96.49        0.2943        0.0005        9.7518        9.7523       9.457974       0.03950
  19     114.6        0.2943        0.0006        9.6719        9.6725       9.378268       0.03722
  18     136.5        0.2942        0.0007        9.5858        9.5865       9.292298       0.03306
  17     162.9        0.2942        0.0008        9.4940        9.4949       9.200707       0.02928
  16     196.4        0.2942        0.0010        9.3883        9.3893       9.095129       0.02658
  15     218.7        0.2942        0.0011        9.3229        9.3240       9.029874       0.02477
  14     243.0        0.2942        0.0012        9.2520        9.2532       8.959019       0.02457
  13     269.0        0.2943        0.0014        9.1717        9.1730       8.878755       0.02604
  12     297.5        0.2944        0.0015        9.0763        9.0778       8.783362       0.02829
  11     328.5        0.2946        0.0016        8.9650        8.9666       8.671973       0.03029
  10     361.9        0.2949        0.0018        8.8349        8.8367       8.541754       0.03295
   9     398.1        0.2954        0.0019        8.6820        8.6839       8.388568       0.03569
   8     437.6        0.2960        0.0021        8.5028        8.5049       8.208906       0.03841
   7     480.5        0.2968        0.0022        8.2948        8.2970       8.000260       0.04098
   6     533.0        0.2980        0.0024        8.0209        8.0233       7.725232       0.04424
   5     589.8        0.2998        0.0025        7.7063        7.7089       7.409020       0.04694
   4     651.6        0.3026        0.0027        7.3412        7.3439       7.041342       0.05028
   3     718.7        0.3066        0.0028        6.9387        6.9415       6.634808       0.05109
   2     792.3        0.3129        0.0029        6.5066        6.5095       6.196541       0.05026
   1     891.5        0.3262        0.0030        5.9361        5.9391       5.612838       0.04967
   0    1013.0        0.3533        0.0030        5.3025        5.3055       4.952224       0.04587



 Wavenumbers:  5150. -  6150. cm-1, ATM      1
 LEVEL PRESSURE   UPWARD FLUX   DIFDOWN FLUX  DIRDOWN FLUX  DOWNWARD FLUX   NET FLUX    HEATING RATE
          mb          W/m2          W/m2          W/m2        W/m2          W/m2       degree/day
  51    .06700        2.5020        0.0000       25.5798       25.5798      23.077784       0.00000
  50    .07753        2.5020        0.0000       25.5798       25.5798      23.077744       0.03156
  49    .09103        2.5020        0.0000       25.5797       25.5797      23.077693       0.03205
  48    0.1069        2.5020        0.0000       25.5797       25.5797      23.077632       0.03256
  47    0.1255        2.5020        0.0000       25.5796       25.5796      23.077559       0.03306
  46    0.1487        2.5020        0.0000       25.5795       25.5795      23.077464       0.03483
  45    0.1794        2.5020        0.0000       25.5794       25.5794      23.077328       0.03708
  44    0.2165        2.5020        0.0000       25.5792       25.5792      23.077163       0.03764
  43    0.2613        2.5020        0.0000       25.5790       25.5790      23.076960       0.03822
  42    0.3336        2.5020        0.0000       25.5786       25.5786      23.076614       0.04038
  41    0.4307        2.5020        0.0000       25.5782       25.5782      23.076143       0.04092
  40    0.5894        2.5020        0.0000       25.5774       25.5774      23.075355       0.04193
  39     1.339        2.5020        0.0000       25.5735       25.5736      23.071557       0.04276
  38     1.782        2.5020        0.0000       25.5713       25.5713      23.069347       0.04208
  37     2.292        2.5020        0.0001       25.5688       25.5688      23.066846       0.04142
  36     2.964        2.5020        0.0001       25.5656       25.5656      23.063669       0.03988
  35     3.853        2.5020        0.0001       25.5615       25.5616      23.059633       0.03831
  34     5.035        2.5019        0.0001       25.5562       25.5564      23.054436       0.03712
  33     6.613        2.5019        0.0002       25.5494       25.5496      23.047697       0.03603
  32     8.786        2.5019        0.0002       25.5406       25.5408      23.038966       0.03391
  31     11.80        2.5018        0.0003       25.5287       25.5290      23.027163       0.03304
  30     15.07        2.5018        0.0004       25.5167       25.5171      23.015334       0.03054
  29     18.79        2.5017        0.0005       25.5042       25.5047      23.002974       0.02802
  28     23.16        2.5016        0.0006       25.4907       25.4913      22.989668       0.02573
  27     28.12        2.5015        0.0007       25.4764       25.4772      22.975648       0.02383
  26     33.73        2.5015        0.0009       25.4620       25.4629      22.961457       0.02134
  25     40.54        2.5014        0.0011       25.4463       25.4473      22.945964       0.01922
  24     48.69        2.5012        0.0013       25.4294       25.4306      22.929407       0.01713
  23     57.69        2.5011        0.0015       25.4126       25.4141      22.913002       0.01538
  22     68.43        2.5010        0.0018       25.3944       25.3962      22.895226       0.01397
  21     81.20        2.5009        0.0021       25.3744       25.3766      22.875701       0.01290
  20     96.49        2.5007        0.0025       25.3519       25.3545      22.853792       0.01209
  19     114.6        2.5005        0.0030       25.3262       25.3292      22.828695       0.01172
  18     136.5        2.5003        0.0036       25.2962       25.2998      22.799509       0.01122
  17     162.9        2.5000        0.0042       25.2521       25.2563      22.756343       0.01380
  16     196.4        2.4997        0.0051       25.1593       25.1644      22.664716       0.02306
  15     218.7        2.4995        0.0056       25.0159       25.0216      22.522086       0.05415
  14     243.0        2.4993        0.0062       24.7089       24.7151      22.215803       0.10623
  13     269.0        2.4992        0.0067       24.1619       24.1686      21.669411       0.17725
  12     297.5        2.4991        0.0073       23.4544       23.4616      20.962516       0.20966
  11     328.5        2.4992        0.0078       22.7355       22.7433      20.244099       0.19534
  10     361.9        2.4993        0.0083       21.9224       21.9307      19.431436       0.20561
   9     398.1        2.4996        0.0088       20.9939       21.0027      18.503110       0.21628
   8     437.6        2.5001        0.0092       19.9833       19.9926      17.492439       0.21609
   7     480.5        2.5010        0.0097       18.9483       18.9580      16.456987       0.20336
   6     533.0        2.5025        0.0101       17.7796       17.7897      15.287206       0.18818
   5     589.8        2.5051        0.0106       16.6726       16.6831      14.178036       0.16464
   4     651.6        2.5099        0.0110       15.6343       15.6453      13.135410       0.14258
   3     718.7        2.5184        0.0115       14.7738       14.7853      12.266884       0.10915
   2     792.3        2.5342        0.0121       14.0291       14.0412      11.507040       0.08715
   1     891.5        2.5746        0.0128       13.0822       13.0950      10.520424       0.08396
   0    1013.0        2.6882        0.0135       12.0384       12.0519       9.363730       0.08032



 Wavenumbers:  6150. -  7700. cm-1, ATM      1
 LEVEL PRESSURE   UPWARD FLUX   DIFDOWN FLUX  DIRDOWN FLUX  DOWNWARD FLUX   NET FLUX    HEATING RATE
          mb          W/m2          W/m2          W/m2        W/m2          W/m2       degree/day
  51    .06700        3.9047        0.0000       47.3109       47.3109      43.406111       0.00000
  50    .07753        3.9047        0.0000       47.3108       47.3108      43.406055       0.04553
  49    .09103        3.9047        0.0000       47.3107       47.3107      43.405981       0.04583
  48    0.1069        3.9047        0.0000       47.3106       47.3106      43.405895       0.04614
  47    0.1255        3.9047        0.0000       47.3105       47.3105      43.405792       0.04645
  46    0.1487        3.9047        0.0000       47.3104       47.3104      43.405659       0.04852
  45    0.1794        3.9047        0.0000       47.3102       47.3102      43.405472       0.05127
  44    0.2165        3.9047        0.0000       47.3100       47.3100      43.405245       0.05167
  43    0.2613        3.9047        0.0000       47.3097       47.3097      43.404969       0.05210
  42    0.3336        3.9047        0.0000       47.3092       47.3092      43.404500       0.05471
  41    0.4307        3.9047        0.0000       47.3085       47.3086      43.403865       0.05521
  40    0.5894        3.9047        0.0001       47.3074       47.3075      43.402805       0.05633
  39     1.339        3.9046        0.0001       47.3022       47.3023      43.397713       0.05733
  38     1.782        3.9046        0.0002       47.2991       47.2993      43.394743       0.05655
  37     2.292        3.9045        0.0002       47.2956       47.2959      43.391367       0.05591
  36     2.964        3.9045        0.0003       47.2912       47.2915      43.387049       0.05421
  35     3.853        3.9044        0.0004       47.2855       47.2859      43.381514       0.05252
  34     5.035        3.9043        0.0006       47.2780       47.2786      43.374334       0.05129
  33     6.613        3.9041        0.0007       47.2683       47.2690      43.364947       0.05019
  32     8.786        3.9039        0.0010       47.2556       47.2565      43.352648       0.04776
  31     11.80        3.9036        0.0013       47.2380       47.2393      43.335745       0.04732
  30     15.07        3.9033        0.0017       47.2201       47.2217      43.318458       0.04463
  29     18.79        3.9029        0.0021       47.2008       47.2029      43.299979       0.04190
  28     23.16        3.9025        0.0026       47.1795       47.1821      43.279591       0.03943
  27     28.12        3.9020        0.0031       47.1565       47.1596      43.257599       0.03738
  26     33.73        3.9014        0.0037       47.1324       47.1361      43.234680       0.03446
  25     40.54        3.9008        0.0045       47.1054       47.1098      43.209047       0.03180
  24     48.69        3.9000        0.0054       47.0754       47.0808      43.180799       0.02923
  23     57.69        3.8991        0.0063       47.0449       47.0513      43.152183       0.02682
  22     68.43        3.8981        0.0075       47.0110       47.0185      43.120454       0.02494
  21     81.20        3.8968        0.0089       46.9729       46.9818      43.084971       0.02345
  20     96.49        3.8953        0.0106       46.9294       46.9400      43.044646       0.02226
  19     114.6        3.8936        0.0126       46.8790       46.8916      42.998037       0.02176
  18     136.5        3.8915        0.0149       46.8200       46.8349      42.943448       0.02099
  17     162.9        3.8890        0.0177       46.7361       46.7539      42.864891       0.02511
  16     196.4        3.8857        0.0214       46.5703       46.5916      42.705856       0.04003
  15     218.7        3.8837        0.0237       46.3473       46.3710      42.487300       0.08298
  14     243.0        3.8815        0.0261       45.9299       45.9559      42.074478       0.14318
  13     269.0        3.8792        0.0285       45.1708       45.1993      41.320038       0.24474
  12     297.5        3.8770        0.0308       44.0115       44.0422      40.165234       0.34250
  11     328.5        3.8749        0.0331       42.7242       42.7573      38.882432       0.34879
  10     361.9        3.8729        0.0354       41.3539       41.3893      37.516428       0.34561
   9     398.1        3.8712        0.0376       39.7953       39.8329      35.961626       0.36223
   8     437.6        3.8701        0.0396       37.9948       38.0344      34.164227       0.38430
   7     480.5        3.8699        0.0414       36.0647       36.1061      32.236271       0.37864
   6     533.0        3.8712        0.0433       33.7773       33.8205      29.949345       0.36789
   5     589.8        3.8757        0.0448       31.4082       31.4530      27.577265       0.35209
   4     651.6        3.8869        0.0458       28.8834       28.9292      25.042301       0.34666
   3     718.7        3.9095        0.0466       26.4104       26.4570      22.547511       0.31353
   2     792.3        3.9536        0.0471       24.0056       24.0527      20.099046       0.28081
   1     891.5        4.0687        0.0475       21.2348       21.2823      17.213609       0.24554
   0    1013.0        4.3784        0.0479       18.6150       18.6630      14.284592       0.20338



 Wavenumbers:  7700. -  8050. cm-1, ATM      1
 LEVEL PRESSURE   UPWARD FLUX   DIFDOWN FLUX  DIRDOWN FLUX  DOWNWARD FLUX   NET FLUX    HEATING RATE
          mb          W/m2          W/m2          W/m2        W/m2          W/m2       degree/day
  51    .06700        5.5423        0.0000       11.1810       11.1810       5.638712       0.00000
  50    .07753        5.5423        0.0000       11.1809       11.1809       5.638690       0.01714
  49    .09103        5.5423        0.0000       11.1809       11.1809       5.638663       0.01679
  48    0.1069        5.5423        0.0000       11.1809       11.1809       5.638632       0.01644
  47    0.1255        5.5423        0.0000       11.1809       11.1809       5.638597       0.01609
  46    0.1487        5.5423        0.0000       11.1808       11.1808       5.638552       0.01633
  45    0.1794        5.5423        0.0000       11.1808       11.1808       5.638491       0.01680
  44    0.2165        5.5423        0.0000       11.1807       11.1807       5.638418       0.01648
  43    0.2613        5.5423        0.0000       11.1806       11.1806       5.638333       0.01617
  42    0.3336        5.5423        0.0000       11.1805       11.1805       5.638191       0.01655
  41    0.4307        5.5424        0.0000       11.1803       11.1804       5.638002       0.01637
  40    0.5894        5.5424        0.0000       11.1801       11.1801       5.637695       0.01635
  39     1.339        5.5426        0.0001       11.1788       11.1789       5.636241       0.01637
  38     1.782        5.5428        0.0001       11.1781       11.1782       5.635386       0.01626
  37     2.292        5.5429        0.0001       11.1772       11.1773       5.634397       0.01638
  36     2.964        5.5431        0.0002       11.1761       11.1762       5.633099       0.01630
  35     3.853        5.5434        0.0002       11.1746       11.1748       5.631384       0.01628
  34     5.035        5.5438        0.0003       11.1726       11.1729       5.629106       0.01627
  33     6.613        5.5442        0.0004       11.1700       11.1703       5.626063       0.01627
  32     8.786        5.5449        0.0005       11.1664       11.1669       5.621965       0.01592
  31     11.80        5.5458        0.0006       11.1613       11.1619       5.616105       0.01640
  30     15.07        5.5468        0.0008       11.1558       11.1567       5.609820       0.01623
  29     18.79        5.5480        0.0010       11.1497       11.1507       5.602728       0.01608
  28     23.16        5.5493        0.0013       11.1425       11.1438       5.594455       0.01600
  27     28.12        5.5508        0.0015       11.1343       11.1358       5.585011       0.01605
  26     33.73        5.5525        0.0018       11.1252       11.1270       5.574464       0.01586
  25     40.54        5.5546        0.0022       11.1142       11.1164       5.561753       0.01577
  24     48.69        5.5572        0.0026       11.1010       11.1036       5.546475       0.01581
  23     57.69        5.5599        0.0031       11.0866       11.0897       5.529755       0.01567
  22     68.43        5.5633        0.0037       11.0695       11.0732       5.509925       0.01559
  21     81.20        5.5673        0.0044       11.0494       11.0537       5.486421       0.01553
  20     96.49        5.5721        0.0052       11.0255       11.0307       5.458584       0.01536
  19     114.6        5.5779        0.0061       10.9975       11.0037       5.425770       0.01532
  18     136.5        5.5849        0.0073       10.9648       10.9721       5.387201       0.01483
  17     162.9        5.5932        0.0086       10.9263       10.9349       5.341709       0.01454
  16     196.4        5.6043        0.0104       10.8773       10.8877       5.283381       0.01468
  15     218.7        5.6117        0.0116       10.8455       10.8571       5.245432       0.01441
  14     243.0        5.6198        0.0128       10.8114       10.8243       5.204439       0.01422
  13     269.0        5.6288        0.0142       10.7749       10.7890       5.160237       0.01434
  12     297.5        5.6387        0.0156       10.7357       10.7513       5.112597       0.01413
  11     328.5        5.6497        0.0172       10.6937       10.7109       5.061206       0.01397
  10     361.9        5.6619        0.0189       10.6489       10.6678       5.005833       0.01401
   9     398.1        5.6755        0.0207       10.6008       10.6215       4.945977       0.01395
   8     437.6        5.6907        0.0227       10.5491       10.5718       4.881015       0.01389
   7     480.5        5.7079        0.0248       10.4934       10.5182       4.810372       0.01387
   6     533.0        5.7302        0.0274       10.4243       10.4517       4.721492       0.01430
   5     589.8        5.7562        0.0301       10.3479       10.3780       4.621854       0.01479
   4     651.6        5.7874        0.0331       10.2613       10.2944       4.507048       0.01570
   3     718.7        5.8256        0.0363       10.1618       10.1980       4.372382       0.01692
   2     792.3        5.8741        0.0396       10.0439       10.0835       4.209417       0.01869
   1     891.5        5.9554        0.0440        9.8626        9.9066       3.951142       0.02198
   0    1013.0        6.0839        0.0490        9.6103        9.6593       3.575405       0.02609



 Wavenumbers:  8050. - 12850. cm-1, ATM      1
 LEVEL PRESSURE   UPWARD FLUX   DIFDOWN FLUX  DIRDOWN FLUX  DOWNWARD FLUX   NET FLUX    HEATING RATE
          mb          W/m2          W/m2          W/m2        W/m2          W/m2       degree/day
  51    .06700       92.4021        0.0000      156.5418      156.5418      64.139612       0.00000
  50    .07753       92.4021        0.0000      156.5417      156.5417      64.139612      -0.00000
  49    .09103       92.4021        0.0001      156.5417      156.5417      64.139612      -0.00000
  48    0.1069       92.4021        0.0001      156.5416      156.5417      64.139612       0.00000
  47    0.1255       92.4021        0.0002      156.5415      156.5417      64.139612      -0.00000
  46    0.1487       92.4020        0.0002      156.5414      156.5417      64.139612       0.00000
  45    0.1794       92.4020        0.0003      156.5413      156.5416      64.139612       0.00000
  44    0.2165       92.4020        0.0004      156.5412      156.5416      64.139612      -0.00000
  43    0.2613       92.4019        0.0006      156.5410      156.5415      64.139612       0.00000
  42    0.3336       92.4018        0.0008      156.5407      156.5415      64.139612       0.00000
  41    0.4307       92.4017        0.0010      156.5403      156.5413      64.139612      -0.00000
  40    0.5894       92.4016        0.0015      156.5397      156.5412      64.139612       0.00000
  39     1.339       92.4007        0.0036      156.5367      156.5403      64.139612       0.00000
  38     1.782       92.4002        0.0048      156.5350      156.5398      64.139612      -0.00000
  37     2.292       92.3997        0.0063      156.5330      156.5393      64.139612       0.00000
  36     2.964       92.3989        0.0082      156.5303      156.5385      64.139612       0.00000
  35     3.853       92.3979        0.0107      156.5268      156.5375      64.139612      -0.00000
  34     5.035       92.3966        0.0140      156.5222      156.5362      64.139612       0.00000
  33     6.613       92.3948        0.0185      156.5160      156.5345      64.139612      -0.00000
  32     8.786       92.3925        0.0245      156.5076      156.5321      64.139612       0.00000
  31     11.80       92.3891        0.0330      156.4957      156.5287      64.139612       0.00000
  30     15.07       92.3854        0.0423      156.4828      156.5250      64.139612       0.00000
  29     18.79       92.3813        0.0527      156.4682      156.5209      64.139612      -0.00000
  28     23.16       92.3765        0.0649      156.4512      156.5161      64.139612      -0.00000
  27     28.12       92.3710        0.0789      156.4317      156.5106      64.139612      -0.00000
  26     33.73       92.3648        0.0945      156.4099      156.5044      64.139612       0.00000
  25     40.54       92.3573        0.1135      156.3834      156.4969      64.139612       0.00000
  24     48.69       92.3482        0.1363      156.3515      156.4879      64.139612       0.00000
  23     57.69       92.3383        0.1615      156.3164      156.4779      64.139612       0.00000
  22     68.43       92.3264        0.1915      156.2746      156.4660      64.139612      -0.00000
  21     81.20       92.3123        0.2273      156.2246      156.4519      64.139612      -0.00000
  20     96.49       92.2954        0.2700      156.1649      156.4350      64.139612       0.00000
  19     114.6       92.2754        0.3209      156.0879      156.4088      64.133404       0.00290
  18     136.5       92.2517        0.3813      155.9962      156.3774      64.125703       0.00296
  17     162.9       92.2235        0.4533      155.8831      156.3364      64.112919       0.00409
  16     196.4       92.1868        0.5470      155.7199      156.2670      64.080148       0.00825
  15     218.7       92.1629        0.6087      155.5733      156.1820      64.019075       0.02319
  14     243.0       92.1373        0.6756      155.3367      156.0123      63.875008       0.04997
  13     269.0       92.1107        0.7481      154.9514      155.6995      63.588816       0.09284
  12     297.5       92.0841        0.8261      154.3896      155.2157      63.131572       0.13561
  11     328.5       92.0582        0.9101      153.7151      154.6252      62.567029       0.15350
  10     361.9       92.0345        1.0004      152.9087      153.9091      61.874639       0.17518
   9     398.1       92.0154        1.0969      151.8986      152.9955      60.980168       0.20839
   8     437.6       92.0050        1.1996      150.6031      151.8027      59.797711       0.25282
   7     480.5       92.0085        1.3081      149.0014      150.3095      58.301017       0.29395
   6     533.0       92.0403        1.4395      146.7375      148.1770      56.136736       0.34816
   5     589.8       92.1247        1.5771      143.8730      145.4501      53.325362       0.41730
   4     651.6       92.3203        1.7184      140.0955      141.8139      49.493625       0.52400
   3     718.7       92.7025        1.8621      135.5278      137.3898      44.687323       0.60402
   2     792.3       93.4374        2.0047      130.0690      132.0737      38.636342       0.69398
   1     891.5       95.2956        2.1778      122.1273      124.3051      29.009532       0.81920
   0    1013.0       99.8240        2.3642      112.9512      115.3155      15.491465       0.93863



 Wavenumbers: 12850. - 16000. cm-1, ATM      1
 LEVEL PRESSURE   UPWARD FLUX   DIFDOWN FLUX  DIRDOWN FLUX  DOWNWARD FLUX   NET FLUX    HEATING RATE
          mb          W/m2          W/m2          W/m2        W/m2          W/m2       degree/day
  51    .06700       79.4415        0.0000       98.0872       98.0872      18.645743       0.00000
  50    .07753       79.4415        0.0001       98.0864       98.0864      18.644952       0.63450
  49    .09103       79.4415        0.0002       98.0853       98.0855      18.643957       0.62143
  48    0.1069       79.4415        0.0003       98.0841       98.0843      18.642815       0.60810
  47    0.1255       79.4415        0.0004       98.0826       98.0830      18.641502       0.59507
  46    0.1487       79.4415        0.0005       98.0809       98.0814      18.639846       0.60386
  45    0.1794       79.4416        0.0007       98.0784       98.0792      18.637592       0.61870
  44    0.2165       79.4417        0.0010       98.0756       98.0766      18.634941       0.60311
  43    0.2613       79.4418        0.0013       98.0723       98.0736      18.631823       0.58774
  42    0.3336       79.4420        0.0017       98.0670       98.0687      18.626733       0.59339
  41    0.4307       79.4424        0.0023       98.0602       98.0625      18.620151       0.57230
  40    0.5894       79.4432        0.0034       98.0496       98.0529      18.609778       0.55162
  39     1.339       79.4497        0.0082       98.0043       98.0125      18.562761       0.52932
  38     1.782       79.4557        0.0110       97.9793       97.9903      18.534526       0.53755
  37     2.292       79.4647        0.0143       97.9498       97.9640      18.499353       0.58255
  36     2.964       79.4795        0.0185       97.9088       97.9274      18.447901       0.64588
  35     3.853       79.5033        0.0242       97.8503       97.8745      18.371274       0.72721
  34     5.035       79.5391        0.0317       97.7680       97.7997      18.260587       0.79070
  33     6.613       79.5892        0.0418       97.6562       97.6979      18.108772       0.81160
  32     8.786       79.6544        0.0553       97.5107       97.5659      17.911597       0.76576
  31     11.80       79.7392        0.0746       97.3179       97.3924      17.653224       0.72336
  30     15.07       79.8206        0.0953       97.1283       97.2236      17.403036       0.64594
  29     18.79       79.9037        0.1187       96.9300       97.0487      17.144957       0.58514
  28     23.16       79.9908        0.1460       96.7166       96.8625      16.871782       0.52823
  27     28.12       80.0784        0.1772       96.4935       96.6706      16.592200       0.47527
  26     33.73       80.1597        0.2121       96.2731       96.4852      16.325473       0.40103
  25     40.54       80.2383        0.2542       96.0408       96.2950      16.056754       0.33338
  24     48.69       80.3140        0.3051       95.7946       96.0996      15.785692       0.28051
  23     57.69       80.3787        0.3609       95.5573       95.9182      15.539548       0.23072
  22     68.43       80.4357        0.4275       95.3106       95.7381      15.302376       0.18645
  21     81.20       80.4763        0.5069       95.0643       95.5713      15.094920       0.13708
  20     96.49       80.4994        0.6017       94.8153       95.4169      14.917565       0.09789
  19     114.6       80.5282        0.7154       94.5411       95.2564      14.728223       0.08841
  18     136.5       80.5508        0.8502       94.2320       95.0822      14.531456       0.07566
  17     162.9       80.5669        1.0107       93.8753       94.8860      14.319131       0.06787
  16     196.4       80.5651        1.2189       93.4347       94.6536      14.088446       0.05807
  15     218.7       80.5558        1.3557       93.1513       94.5069      13.951152       0.05213
  14     243.0       80.5421        1.5043       92.8439       94.3482      13.806164       0.05029
  13     269.0       80.5238        1.6653       92.5111       94.1765      13.652637       0.04980
  12     297.5       80.5015        1.8394       92.1495       93.9889      13.487351       0.04902
  11     328.5       80.4771        2.0275       91.7554       93.7829      13.305763       0.04937
  10     361.9       80.4514        2.2300       91.3262       93.5562      13.104871       0.05083
   9     398.1       80.4255        2.4480       90.8575       93.3055      12.880054       0.05238
   8     437.6       80.4020        2.6820       90.3418       93.0238      12.621759       0.05523
   7     480.5       80.3835        2.9327       89.7728       92.7055      12.321992       0.05887
   6     533.0       80.3739        3.2410       89.0428       92.2839      11.909946       0.06629
   5     589.8       80.3888        3.5726       88.2038       91.7764      11.387630       0.07753
   4     651.6       80.4569        3.9271       87.1979       91.1250      10.668161       0.09839
   3     718.7       80.5971        4.3029       86.0161       90.3191       9.721971       0.11891
   2     792.3       80.8704        4.6962       84.5970       89.2933       8.422913       0.14899
   1     891.5       81.5312        5.2085       82.4374       87.6459       6.114755       0.19641
   0    1013.0       82.9092        5.7970       79.6182       85.4152       2.506026       0.25057



 Wavenumbers: 16000. - 22650. cm-1, ATM      1
 LEVEL PRESSURE   UPWARD FLUX   DIFDOWN FLUX  DIRDOWN FLUX  DOWNWARD FLUX   NET FLUX    HEATING RATE
          mb          W/m2          W/m2          W/m2        W/m2          W/m2       degree/day
  51    .06700      140.4376        0.0000      156.3892      156.3892      15.951605       0.00000
  50    .07753      140.4376        0.0004      156.3887      156.3891      15.951458       0.11797
  49    .09103      140.4376        0.0009      156.3879      156.3888      15.951244       0.13381
  48    0.1069      140.4376        0.0015      156.3871      156.3885      15.950957       0.15258
  47    0.1255      140.4376        0.0021      156.3861      156.3882      15.950574       0.17392
  46    0.1487      140.4377        0.0030      156.3847      156.3877      15.950008       0.20610
  45    0.1794      140.4378        0.0041      156.3828      156.3869      15.949124       0.24267
  44    0.2165      140.4380        0.0054      156.3805      156.3859      15.947926       0.27273
  43    0.2613      140.4383        0.0070      156.3776      156.3846      15.946299       0.30661
  42    0.3336      140.4391        0.0096      156.3726      156.3823      15.943206       0.36057
  41    0.4307      140.4403        0.0131      156.3657      156.3788      15.938545       0.40532
  40    0.5894      140.4429        0.0188      156.3537      156.3725      15.929654       0.47279
  39     1.339      140.4652        0.0458      156.2834      156.3292      15.863970       0.73949
  38     1.782      140.4860        0.0616      156.2324      156.2940      15.808015       1.06529
  37     2.292      140.5170        0.0799      156.1641      156.2440      15.727019       1.34149
  36     2.964      140.5687        0.1040      156.0605      156.1645      15.595806       1.64712
  35     3.853      140.6522        0.1357      155.9041      156.0398      15.387604       1.97588
  34     5.035      140.7782        0.1778      155.6774      155.8552      15.076985       2.21894
  33     6.613      140.9543        0.2340      155.3656      155.5996      14.645318       2.30769
  32     8.786      141.1837        0.3097      154.9577      155.2673      14.083629       2.18140
  31     11.80      141.4822        0.4177      154.4153      154.8330      13.350782       2.05174
  30     15.07      141.7681        0.5336      153.8804      154.4140      12.645820       1.82007
  29     18.79      142.0600        0.6642      153.3191      153.9833      11.923313       1.63815
  28     23.16      142.3650        0.8166      152.7126      153.5292      11.164159       1.46796
  27     28.12      142.6719        0.9906      152.0755      153.0661      10.394266       1.30877
  26     33.73      142.9550        1.1852      151.4409      152.6261       9.671121       1.08727
  25     40.54      143.2273        1.4200      150.7637      152.1837       8.956408       0.88668
  24     48.69      143.4878        1.7028      150.0338      151.7366       8.248847       0.73221
  23     57.69      143.7084        2.0130      149.3151      151.3282       7.619767       0.58967
  22     68.43      143.9005        2.3822      148.5476      150.9298       7.029240       0.46423
  21     81.20      144.0326        2.8216      147.7517      150.5733       6.540746       0.32279
  20     96.49      144.1000        3.3448      146.9127      150.2574       6.157409       0.21157
  19     114.6      144.1341        3.9641      145.9763      149.9404       5.806349       0.16392
  18     136.5      144.1432        4.6955      144.9088      149.6042       5.461002       0.13279
  17     162.9      144.1257        5.5623      143.6785      149.2408       5.115072       0.11057
  16     196.4      144.0418        6.6807      142.1651      148.8457       4.803950       0.07831
  15     218.7      143.9642        7.4115      141.2033      148.6148       4.650681       0.05819
  14     243.0      143.8695        8.2025      140.1753      148.3779       4.508336       0.04937
  13     269.0      143.7562        9.0559      139.0797      148.1356       4.379334       0.04185
  12     297.5      143.6236        9.9736      137.9141      147.8877       4.264064       0.03419
  11     328.5      143.4757       10.9600      136.6676      147.6276       4.151920       0.03049
  10     361.9      143.3122       12.0160      135.3392      147.3552       4.043049       0.02755
   9     398.1      143.1325       13.1457      133.9235      147.0691       3.936577       0.02481
   8     437.6      142.9378       14.3509      132.4163      146.7672       3.829395       0.02292
   7     480.5      142.7274       15.6339      130.8147      146.4486       3.721232       0.02124
   6     533.0      142.4685       17.2010      128.8599      146.0609       3.592475       0.02071
   5     589.8      142.1931       18.8753      126.7679      145.6433       3.450159       0.02112
   4     651.6      141.9075       20.6585      124.5274      145.1860       3.278483       0.02348
   3     718.7      141.6175       22.5523      122.1285      144.6808       3.063267       0.02705
   2     792.3      141.3396       24.5546      119.5548      144.1095       2.769823       0.03365
   1     891.5      141.0434       27.2125      116.0566      143.2691       2.225777       0.04630
   0    1013.0      140.8165       30.3357      111.8404      142.1761       1.359591       0.06014



 Wavenumbers: 22650. - 29000. cm-1, ATM      1
 LEVEL PRESSURE   UPWARD FLUX   DIFDOWN FLUX  DIRDOWN FLUX  DOWNWARD FLUX   NET FLUX    HEATING RATE
          mb          W/m2          W/m2          W/m2        W/m2          W/m2       degree/day
  51    .06700       58.6794        0.0000       59.0156       59.0156       0.336234       0.00000
  50    .07753       58.6793        0.0005       59.0151       59.0155       0.336234      -0.00000
  49    .09103       58.6792        0.0010       59.0144       59.0154       0.336234       0.00000
  48    0.1069       58.6790        0.0017       59.0136       59.0153       0.336234      -0.00000
  47    0.1255       58.6789        0.0025       59.0127       59.0151       0.336234       0.00000
  46    0.1487       58.6787        0.0035       59.0115       59.0149       0.336234       0.00000
  45    0.1794       58.6785        0.0048       59.0099       59.0147       0.336234       0.00000
  44    0.2165       58.6782        0.0063       59.0080       59.0144       0.336234       0.00000
  43    0.2613       58.6778        0.0082       59.0058       59.0140       0.336234      -0.00000
  42    0.3336       58.6772        0.0113       59.0022       59.0134       0.336234      -0.00000
  41    0.4307       58.6764        0.0154       58.9973       59.0127       0.336234       0.00000
  40    0.5894       58.6751        0.0220       58.9894       59.0114       0.336234      -0.00000
  39     1.339       58.6691        0.0535       58.9518       59.0053       0.336234       0.00000
  38     1.782       58.6655        0.0720       58.9297       59.0017       0.336234       0.00000
  37     2.292       58.6614        0.0934       58.9042       58.9976       0.336234      -0.00000
  36     2.964       58.6560        0.1216       58.8706       58.9922       0.336234       0.00000
  35     3.853       58.6488        0.1587       58.8264       58.9851       0.336234       0.00000
  34     5.035       58.6393        0.2080       58.7676       58.9756       0.336234      -0.00000
  33     6.613       58.6267        0.2738       58.6891       58.9629       0.336234       0.00000
  32     8.786       58.6096        0.3624       58.5834       58.9458       0.336234      -0.00000
  31     11.80       58.5852        0.4890       58.4324       58.9215       0.336234      -0.00000
  30     15.07       58.5591        0.6247       58.2706       58.8953       0.336234       0.00000
  29     18.79       58.5296        0.7776       58.0882       58.8659       0.336234      -0.00000
  28     23.16       58.4953        0.9559       57.8757       58.8315       0.336234       0.00000
  27     28.12       58.4562        1.1591       57.6333       58.7924       0.336234      -0.00000
  26     33.73       58.4125        1.3857       57.3631       58.7488       0.336234       0.00000
  25     40.54       58.3600        1.6584       57.0379       58.6962       0.336234       0.00000
  24     48.69       58.2970        1.9854       56.6479       58.6332       0.336234      -0.00000
  23     57.69       58.2282        2.3424       56.2221       58.5645       0.336234       0.00000
  22     68.43       58.1469        2.7645       55.7186       58.4831       0.336234       0.00000
  21     81.20       58.0508        3.2631       55.1239       58.3870       0.336234       0.00000
  20     96.49       57.9375        3.8509       54.4228       58.2737       0.336234       0.00000
  19     114.6       57.8046        4.5399       53.6010       58.1409       0.336234      -0.00000
  18     136.5       57.6496        5.3440       52.6418       57.9858       0.336234       0.00000
  17     162.9       57.4682        6.2841       51.5203       57.8044       0.336234       0.00000
  16     196.4       57.2383        7.4751       50.0994       57.5745       0.336234       0.00000
  15     218.7       57.0905        8.2405       49.1863       57.4267       0.336234      -0.00000
  14     243.0       56.9326        9.0576       48.2113       57.2689       0.336234       0.00000
  13     269.0       56.7648        9.9261       47.1749       57.1010       0.336234      -0.00000
  12     297.5       56.5871       10.8451       46.0783       56.9234       0.336234      -0.00000
  11     328.5       56.3993       11.8160       44.9195       56.7356       0.336234       0.00000
  10     361.9       56.2019       12.8363       43.7018       56.5381       0.336234       0.00000
   9     398.1       55.9947       13.9059       42.4250       56.3310       0.336234       0.00000
   8     437.6       55.7783       15.0229       41.0916       56.1145       0.336234       0.00000
   7     480.5       55.5529       16.1847       39.7045       55.8892       0.336234       0.00000
   6     533.0       55.2847       17.5667       38.0543       55.6209       0.336234      -0.00000
   5     589.8       55.0063       18.9994       36.3431       55.3425       0.336234       0.00000
   4     651.6       54.7190       20.4757       34.5795       55.0552       0.336234       0.00000
   3     718.7       54.4240       21.9900       32.7702       54.7602       0.336234       0.00000
   2     792.3       54.1227       23.5334       30.9256       54.4590       0.336234       0.00000
   1     891.5       53.7386       25.4971       28.5778       54.0749       0.336234      -0.00000
   0    1013.0       53.3104       27.6802       25.9665       53.6466       0.336234       0.00000



 Wavenumbers: 29000. - 38000. cm-1, ATM      1
 LEVEL PRESSURE   UPWARD FLUX   DIFDOWN FLUX  DIRDOWN FLUX  DOWNWARD FLUX   NET FLUX    HEATING RATE
          mb          W/m2          W/m2          W/m2        W/m2          W/m2       degree/day
  51    .06700        8.7675        0.0000       20.8114       20.8114      12.043900       0.00000
  50    .07753        8.7673        0.0003       20.8070       20.8074      12.040092       3.05155
  49    .09103        8.7670        0.0007       20.8009       20.8016      12.034555       3.46085
  48    0.1069        8.7668        0.0012       20.7928       20.7939      12.027145       3.94429
  47    0.1255        8.7665        0.0017       20.7820       20.7837      12.017241       4.49034
  46    0.1487        8.7662        0.0024       20.7665       20.7688      12.002677       5.30844
  45    0.1794        8.7657        0.0033       20.7424       20.7457      11.980013       6.22204
  44    0.2165        8.7652        0.0044       20.7103       20.7147      11.949490       6.94340
  43    0.2613        8.7646        0.0056       20.6675       20.6731      11.908495       7.72732
  42    0.3336        8.7637        0.0077       20.5880       20.5957      11.831934       8.92625
  41    0.4307        8.7626        0.0104       20.4722       20.4826      11.719982       9.73402
  40    0.5894        8.7611        0.0147       20.2637       20.2784      11.517298      10.77846
  39     1.339        8.7577        0.0331       19.0984       19.1315      10.373821      12.87347
  38     1.782        8.7582        0.0427       18.4394       18.4821       9.723897      12.37351
  37     2.292        8.7609        0.0530       17.7714       17.8244       9.063552      10.93703
  36     2.964        8.7674        0.0657       17.0421       17.1078       8.340428       9.07739
  35     3.853        8.7802        0.0816       16.2678       16.3495       7.569250       7.31863
  34     5.035        8.8014        0.1018       15.4803       15.5821       6.780756       5.63267
  33     6.613        8.8321        0.1276       14.7157       14.8433       6.011175       4.11418
  32     8.786        8.8727        0.1614       13.9936       14.1549       5.282230       2.83096
  31     11.80        8.9257        0.2084       13.2835       13.4920       4.566271       2.00446
  30     15.07        8.9768        0.2573       12.7394       12.9966       4.019802       1.41088
  29     18.79        9.0296        0.3114       12.2666       12.5780       3.548360       1.06890
  28     23.16        9.0857        0.3729       11.8300       12.2029       3.117225       0.83368
  27     28.12        9.1432        0.4418       11.4279       11.8697       2.726534       0.66415
  26     33.73        9.1962        0.5178       11.0695       11.5872       2.391030       0.50444
  25     40.54        9.2466        0.6085       10.7209       11.3294       2.082863       0.38232
  24     48.69        9.2941        0.7162       10.3742       11.0904       1.796306       0.29654
  23     57.69        9.3331        0.8328       10.0549       10.8876       1.554544       0.22662
  22     68.43        9.3647        0.9695        9.7327       10.7022       1.337503       0.17062
  21     81.20        9.3799        1.1309        9.4134       10.5443       1.164433       0.11436
  20     96.49        9.3768        1.3207        9.0887       10.4094       1.032685       0.07272
  19     114.6        9.3634        1.5400        8.7388       10.2788       0.915412       0.05476
  18     136.5        9.3427        1.7907        8.3549       10.1456       0.802884       0.04327
  17     162.9        9.3149        2.0765        7.9311       10.0076       0.692704       0.03522
  16     196.4        9.2681        2.4305        7.4333        9.8638       0.595724       0.02441
  15     218.7        9.2343        2.6532        7.1295        9.7827       0.548423       0.01796
  14     243.0        9.1973        2.8860        6.8161        9.7021       0.504745       0.01515
  13     269.0        9.1569        3.1281        6.4943        9.6224       0.465525       0.01272
  12     297.5        9.1131        3.3783        6.1657        9.5440       0.430951       0.01025
  11     328.5        9.0673        3.6357        5.8295        9.4652       0.397849       0.00900
  10     361.9        9.0201        3.8979        5.4886        9.3865       0.366367       0.00797
   9     398.1        8.9716        4.1642        5.1440        9.3082       0.336531       0.00695
   8     437.6        8.9223        4.4331        4.7969        9.2301       0.307768       0.00615
   7     480.5        8.8725        4.7026        4.4504        9.1530       0.280466       0.00536
   6     533.0        8.8154        5.0099        4.0563        9.0661       0.250702       0.00479
   5     589.8        8.7592        5.3129        3.6682        8.9811       0.221883       0.00428
   4     651.6        8.7048        5.6079        3.2905        8.8984       0.193686       0.00386
   3     718.7        8.6526        5.8935        2.9252        8.8187       0.166068       0.00347
   2     792.3        8.6035        6.1661        2.5764        8.7425       0.139033       0.00310
   1     891.5        8.5472        6.4869        2.1659        8.6529       0.105652       0.00284
   0    1013.0        8.4935        6.8097        1.7526        8.5623       0.068789       0.00256



 Wavenumbers: 38000. - 50000. cm-1, ATM      1
 LEVEL PRESSURE   UPWARD FLUX   DIFDOWN FLUX  DIRDOWN FLUX  DOWNWARD FLUX   NET FLUX    HEATING RATE
          mb          W/m2          W/m2          W/m2        W/m2          W/m2       degree/day
  51    .06700        0.0061        0.0000        1.2836        1.2836       1.277518       0.00000
  50    .07753        0.0061        0.0001        1.2812        1.2812       1.275183       1.87150
  49    .09103        0.0060        0.0002        1.2777        1.2778       1.271851       2.08247
  48    0.1069        0.0059        0.0002        1.2731        1.2734       1.267473       2.33059
  47    0.1255        0.0058        0.0004        1.2672        1.2675       1.261717       2.60908
  46    0.1487        0.0057        0.0005        1.2586        1.2591       1.253391       3.03499
  45    0.1794        0.0055        0.0007        1.2455        1.2462       1.240623       3.50520
  44    0.2165        0.0054        0.0009        1.2282        1.2291       1.223697       3.85037
  43    0.2613        0.0052        0.0011        1.2054        1.2065       1.201348       4.21261
  42    0.3336        0.0049        0.0015        1.1639        1.1654       1.160524       4.75970
  41    0.4307        0.0045        0.0020        1.1051        1.1070       1.102565       5.03943
  40    0.5894        0.0039        0.0026        1.0039        1.0064       1.002524       5.32007
  39     1.339        0.0022        0.0035        0.5438        0.5473       0.545104       5.14971
  38     1.782        0.0016        0.0032        0.3635        0.3666       0.365006       3.42879
  37     2.292        0.0012        0.0027        0.2356        0.2383       0.237058       2.11916
  36     2.964        0.0009        0.0022        0.1455        0.1477       0.146786       1.13318
  35     3.853        0.0006        0.0017        0.0858        0.0875       0.086906       0.56828
  34     5.035        0.0004        0.0013        0.0488        0.0501       0.049701       0.26578
  33     6.613        0.0003        0.0010        0.0273        0.0282       0.027974       0.11615
  32     8.786        0.0002        0.0007        0.0144        0.0151       0.014928       0.05067
  31     11.80        0.0001        0.0004        0.0065        0.0070       0.006903       0.02247
  30     15.07        0.0000        0.0003        0.0031        0.0034       0.003329       0.00923
  29     18.79        0.0000        0.0002        0.0014        0.0016       0.001583       0.00396
  28     23.16        0.0000        0.0001        0.0006        0.0007       0.000720       0.00167
  27     28.12        0.0000        0.0001        0.0003        0.0003       0.000317       0.00069
  26     33.73        0.0000        0.0000        0.0001        0.0001       0.000140       0.00027
  25     40.54        0.0000        0.0000        0.0000        0.0001       0.000057       0.00010
  24     48.69        0.0000        0.0000        0.0000        0.0000       0.000021       0.00004
  23     57.69        0.0000        0.0000        0.0000        0.0000       0.000008       0.00001
  22     68.43        0.0000        0.0000        0.0000        0.0000       0.000003       0.00000
  21     81.20        0.0000        0.0000        0.0000        0.0000       0.000001       0.00000
  20     96.49        0.0000        0.0000        0.0000        0.0000       0.000000       0.00000
  19     114.6        0.0000        0.0000        0.0000        0.0000       0.000000       0.00000
  18     136.5        0.0000        0.0000        0.0000        0.0000       0.000000       0.00000
  17     162.9        0.0000        0.0000        0.0000        0.0000       0.000000       0.00000
  16     196.4        0.0000        0.0000        0.0000        0.0000       0.000000       0.00000
  15     218.7        0.0000        0.0000        0.0000        0.0000       0.000000       0.00000
  14     243.0        0.0000        0.0000        0.0000        0.0000       0.000000       0.00000
  13     269.0        0.0000        0.0000        0.0000        0.0000       0.000000       0.00000
  12     297.5        0.0000        0.0000        0.0000        0.0000       0.000000       0.00000
  11     328.5        0.0000        0.0000        0.0000        0.0000       0.000000       0.00000
  10     361.9        0.0000        0.0000        0.0000        0.0000       0.000000       0.00000
   9     398.1        0.0000        0.0000        0.0000        0.0000       0.000000       0.00000
   8     437.6        0.0000        0.0000        0.0000        0.0000       0.000000       0.00000
   7     480.5        0.0000        0.0000        0.0000        0.0000       0.000000       0.00000
   6     533.0        0.0000        0.0000        0.0000        0.0000       0.000000       0.00000
   5     589.8        0.0000        0.0000        0.0000        0.0000       0.000000       0.00000
   4     651.6        0.0000        0.0000        0.0000        0.0000       0.000000       0.00000
   3     718.7        0.0000        0.0000        0.0000        0.0000       0.000000       0.00000
   2     792.3        0.0000        0.0000        0.0000        0.0000       0.000000       0.00000
   1     891.5        0.0000        0.0000        0.0000        0.0000       0.000000       0.00000
   0    1013.0        0.0000        0.0000        0.0000        0.0000       0.000000       0.00000



 Wavenumbers:   820. -  2600. cm-1, ATM      1
 LEVEL PRESSURE   UPWARD FLUX   DIFDOWN FLUX  DIRDOWN FLUX  DOWNWARD FLUX   NET FLUX    HEATING RATE
          mb          W/m2          W/m2          W/m2        W/m2          W/m2       degree/day
  51    .06700        0.0120        0.0000        6.0047        6.0047       5.992611       0.00000
  50    .07753        0.0120        0.0000        6.0008        6.0008       5.988758       3.08819
  49    .09103        0.0120        0.0000        5.9999        5.9999       5.987873       0.55356
  48    0.1069        0.0120        0.0000        5.9989        5.9989       5.986884       0.52650
  47    0.1255        0.0120        0.0000        5.9978        5.9978       5.985766       0.50647
  46    0.1487        0.0120        0.0000        5.9964        5.9964       5.984410       0.49454
  45    0.1794        0.0120        0.0000        5.9947        5.9947       5.982690       0.47197
  44    0.2165        0.0120        0.0000        5.9929        5.9929       5.980848       0.41908
  43    0.2613        0.0120        0.0000        5.9909        5.9909       5.978889       0.36930
  42    0.3336        0.0120        0.0000        5.9880        5.9880       5.976011       0.33553
  41    0.4307        0.0120        0.0000        5.9846        5.9846       5.972542       0.30162
  40    0.5894        0.0120        0.0000        5.9791        5.9791       5.967037       0.29273
  39     1.339        0.0120        0.0000        5.9536        5.9536       5.941553       0.28691
  38     1.782        0.0120        0.0000        5.9395        5.9395       5.927416       0.26914
  37     2.292        0.0120        0.0000        5.9237        5.9237       5.911667       0.26085
  36     2.964        0.0120        0.0000        5.9039        5.9039       5.891895       0.24820
  35     3.853        0.0120        0.0000        5.8793        5.8793       5.867241       0.23396
  34     5.035        0.0120        0.0000        5.8487        5.8487       5.836682       0.21830
  33     6.613        0.0120        0.0000        5.8108        5.8108       5.798722       0.20293
  32     8.786        0.0120        0.0000        5.7631        5.7631       5.751105       0.18493
  31     11.80        0.0120        0.0000        5.7039        5.7039       5.691856       0.16588
  30     15.07        0.0120        0.0000        5.6539        5.6539       5.641826       0.12917
  29     18.79        0.0120        0.0000        5.6127        5.6127       5.600699       0.09325
  28     23.16        0.0120        0.0000        5.5794        5.5794       5.567332       0.06452
  27     28.12        0.0120        0.0000        5.5518        5.5518       5.539775       0.04685
  26     33.73        0.0120        0.0000        5.5268        5.5268       5.514731       0.03765
  25     40.54        0.0120        0.0000        5.4993        5.4993       5.487297       0.03404
  24     48.69        0.0120        0.0000        5.4678        5.4678       5.455764       0.03263
  23     57.69        0.0120        0.0000        5.4340        5.4340       5.421984       0.03166
  22     68.43        0.0120        0.0000        5.3947        5.3948       5.382719       0.03087
  21     81.20        0.0120        0.0000        5.3497        5.3497       5.337694       0.02975
  20     96.49        0.0120        0.0000        5.2982        5.2982       5.286191       0.02843
  19     114.6        0.0120        0.0000        5.2389        5.2389       5.226880       0.02769
  18     136.5        0.0120        0.0000        5.1716        5.1717       5.159636       0.02586
  17     162.9        0.0120        0.0000        5.0890        5.0890       5.077020       0.02641
  16     196.4        0.0120        0.0000        4.9668        4.9668       4.954809       0.03076
  15     218.7        0.0120        0.0000        4.8585        4.8585       4.846448       0.04114
  14     243.0        0.0120        0.0000        4.7078        4.7079       4.695833       0.05224
  13     269.0        0.0120        0.0000        4.5343        4.5343       4.522250       0.05631
  12     297.5        0.0120        0.0000        4.3419        4.3420       4.329926       0.05704
  11     328.5        0.0120        0.0000        4.1281        4.1281       4.116093       0.05814
  10     361.9        0.0121        0.0000        3.8786        3.8787       3.866613       0.06312
   9     398.1        0.0121        0.0000        3.6159        3.6159       3.603867       0.06121
   8     437.6        0.0121        0.0000        3.3759        3.3759       3.363781       0.05133
   7     480.5        0.0121        0.0000        3.1957        3.1958       3.183645       0.03538
   6     533.0        0.0122        0.0000        3.0467        3.0467       3.034515       0.02399
   5     589.8        0.0123        0.0000        2.9023        2.9023       2.890050       0.02144
   4     651.6        0.0124        0.0000        2.7183        2.7184       2.705949       0.02518
   3     718.7        0.0127        0.0000        2.5058        2.5059       2.493196       0.02674
   2     792.3        0.0131        0.0000        2.2756        2.2757       2.262543       0.02645
   1     891.5        0.0143        0.0000        1.9621        1.9621       1.947831       0.02678
   0    1013.0        0.0173        0.0000        1.5468        1.5469       1.529547       0.02904

  Modules and versions used in this calculation:

       rrtmg_sw.1col.f90:  $Revision$                    rrtmg_sw_init.f90:  $Revision$        
     rrtmgsw_cldprop.f90:  $Revision$                  rrtmgsw_cldprmc.f90:  NOT USED          
     rrtmg_sw_reftra.f90:  $Revision$                  rrtmg_sw_spcvrt.f90:  NOT USED          
     rrtmg_sw_spcvmc.f90:  NOT USED                    rrtmgsw_setcoef.f90:  NOT USED          
     rrtmg_sw_taumol.f90:  $Revision$                  rrtmg_sw_vrtqdr.f90:  NOT USED          
                rrtatm.f:  NOT USED                             util_xxx.f:  NOT USED          
                 extra.f:  NOT USED                       rrtmg_sw_k_g.f90:  $Revision$        

