

 Wavenumbers:   820. - 50000. cm-1, ATM      1
 LEVEL PRESSURE   UPWARD FLUX   DIFDOWN FLUX  DIRDOWN FLUX  DOWNWARD FLUX   NET FLUX    HEATING RATE
          mb          W/m2          W/m2          W/m2        W/m2          W/m2       degree/day
  51    .06700      380.9354        0.0000      617.8126      617.8126     236.877146       0.00000
  50    .07753      380.9351        0.0013      617.7947      617.7961     236.861009      12.93370
  49    .09103      380.9346        0.0030      617.7778      617.7808     236.846205       9.25336
  48    0.1069      380.9341        0.0050      617.7581      617.7630     236.828950       9.18486
  47    0.1255      380.9336        0.0072      617.7340      617.7412     236.807614       9.67275
  46    0.1487      380.9329        0.0100      617.7009      617.7109     236.777940      10.81617
  45    0.1794      380.9322        0.0138      617.6521      617.6659     236.733729      12.13712
  44    0.2165      380.9314        0.0183      617.5895      617.6078     236.676434      13.03367
  43    0.2613      380.9306        0.0237      617.5089      617.5326     236.601956      14.03874
  42    0.3336      380.9296        0.0324      617.3641      617.3966     236.466937      15.74189
  41    0.4307      380.9287        0.0440      617.1591      617.2031     236.274412      16.73958
  40    0.5894      380.9282        0.0627      616.8005      616.8631     235.934908      18.05439
  39     1.339      380.9436        0.1470      614.9443      615.0913     234.147664      20.12113
  38     1.782      380.9649        0.1945      613.9670      614.1615     233.196563      18.10743
  37     2.292      381.0007        0.2484      613.0059      613.2543     232.253622      15.61755
  36     2.964      381.0644        0.3186      611.9577      612.2763     231.211847      13.07742
  35     3.853      381.1719        0.4106      610.8024      611.2130     230.041115      11.11047
  34     5.035      381.3376        0.5320      609.5327      610.0647     228.727116       9.38666
  33     6.613      381.5712        0.6931      608.1464      608.8396     227.268381       7.79840
  32     8.786      381.8754        0.9093      606.6250      607.5343     225.658957       6.25042
  31     11.80      382.2688        1.2171      604.8486      606.0657     223.796902       5.21317
  30     15.07      382.6426        1.5454      603.2440      604.7894     222.146781       4.26029
  29     18.79      383.0215        1.9149      601.6511      603.5660     220.544577       3.63269
  28     23.16      383.4140        2.3442      599.9927      602.3369     218.922934       3.13573
  27     28.12      383.8042        2.8328      598.2881      601.1209     217.316626       2.73062
  26     33.73      384.1553        3.3775      596.5951      599.9726     215.817322       2.25424
  25     40.54      384.4795        4.0332      594.7727      598.8059     214.326483       1.84955
  24     48.69      384.7735        4.8201      592.7865      597.6066     212.833031       1.54549
  23     57.69      385.0026        5.6801      590.7959      596.4760     211.473379       1.27447
  22     68.43      385.1736        6.6990      588.6191      595.3181     210.144479       1.04469
  21     81.20      385.2356        7.9068      586.2690      594.1758     208.940243       0.79574
  20     96.49      385.1780        9.3369      583.6961      593.0330     207.854922       0.59902
  19     114.6      385.0576       11.0191      580.7708      591.7899     206.732298       0.52419
  18     136.5      384.8714       12.9886      577.4359      590.4245     205.553104       0.45343
  17     162.9      384.6126       15.2997      573.5624      588.8622     204.249555       0.41667
  16     196.4      384.1914       18.2465      568.5907      586.8372     202.645788       0.40369
  15     218.7      383.8863       20.1514      565.0572      585.2087     201.322353       0.50246
  14     243.0      383.5452       22.1944      560.7495      582.9439     199.398778       0.66716
  13     269.0      383.1671       24.3767      555.3947      579.7714     196.604255       0.90653
  12     297.5      382.7541       26.6989      548.9964      575.6953     192.941210       1.08642
  11     328.5      382.3134       29.1674      542.0895      571.2569     188.943511       1.08696
  10     361.9      381.8485       31.7783      534.6242      566.4025     184.554044       1.11058
   9     398.1      381.3627       34.5360      526.4204      560.9565     179.593719       1.15564
   8     437.6      380.8656       37.4392      517.3907      554.8299     173.964285       1.20361
   7     480.5      380.3653       40.4858      507.7216      548.2074     167.842042       1.20239
   6     533.0      379.8092       44.1477      495.9006      540.0483     160.239098       1.22307
   5     589.8      379.3147       47.9893      483.0788      531.0682     151.753453       1.25955
   4     651.6      378.9867       51.9981      468.6907      520.6888     141.702070       1.37455
   3     718.7      378.9411       56.1658      453.2257      509.3916     130.450520       1.41401
   2     792.3      379.4515       60.4711      436.4928      496.9639     117.512381       1.48386
   1     891.5      381.5719       66.0323      413.9344      479.9667      98.394834       1.62681
   0    1013.0      387.7341       72.3560      388.4125      460.7685      73.034346       1.76091



 Wavenumbers:  2600. -  3250. cm-1, ATM      1
 LEVEL PRESSURE   UPWARD FLUX   DIFDOWN FLUX  DIRDOWN FLUX  DOWNWARD FLUX   NET FLUX    HEATING RATE
          mb          W/m2          W/m2          W/m2        W/m2          W/m2       degree/day
  51    .06700        1.0265        0.0000        5.4450        5.4450       4.418554       0.00000
  50    .07753        1.0265        0.0000        5.4450        5.4450       4.418546       0.00640
  49    .09103        1.0265        0.0000        5.4450        5.4450       4.418536       0.00627
  48    0.1069        1.0265        0.0000        5.4450        5.4450       4.418525       0.00613
  47    0.1255        1.0265        0.0000        5.4450        5.4450       4.418512       0.00599
  46    0.1487        1.0265        0.0000        5.4450        5.4450       4.418495       0.00608
  45    0.1794        1.0265        0.0000        5.4450        5.4450       4.418472       0.00625
  44    0.2165        1.0265        0.0000        5.4449        5.4449       4.418445       0.00612
  43    0.2613        1.0265        0.0000        5.4449        5.4449       4.418413       0.00600
  42    0.3336        1.0265        0.0000        5.4448        5.4448       4.418361       0.00617
  41    0.4307        1.0265        0.0000        5.4448        5.4448       4.418289       0.00620
  40    0.5894        1.0265        0.0000        5.4446        5.4446       4.418170       0.00637
  39     1.339        1.0265        0.0000        5.4439        5.4439       4.417462       0.00797
  38     1.782        1.0265        0.0000        5.4434        5.4434       4.416919       0.01034
  37     2.292        1.0265        0.0000        5.4427        5.4427       4.416203       0.01186
  36     2.964        1.0265        0.0000        5.4416        5.4416       4.415164       0.01304
  35     3.853        1.0265        0.0000        5.4402        5.4402       4.413687       0.01402
  34     5.035        1.0265        0.0000        5.4381        5.4381       4.411632       0.01468
  33     6.613        1.0265        0.0000        5.4353        5.4353       4.408850       0.01487
  32     8.786        1.0265        0.0000        5.4317        5.4317       4.405218       0.01411
  31     11.80        1.0265        0.0000        5.4269        5.4269       4.400438       0.01338
  30     15.07        1.0265        0.0000        5.4224        5.4224       4.395911       0.01169
  29     18.79        1.0265        0.0000        5.4180        5.4180       4.391498       0.01000
  28     23.16        1.0265        0.0000        5.4135        5.4135       4.387011       0.00868
  27     28.12        1.0265        0.0000        5.4088        5.4088       4.382362       0.00790
  26     33.73        1.0265        0.0000        5.4036        5.4036       4.377119       0.00788
  25     40.54        1.0265        0.0000        5.3966        5.3967       4.370173       0.00862
  24     48.69        1.0265        0.0000        5.3872        5.3872       4.360691       0.00981
  23     57.69        1.0265        0.0000        5.3754        5.3754       4.348898       0.01105
  22     68.43        1.0265        0.0000        5.3599        5.3599       4.333398       0.01219
  21     81.20        1.0265        0.0000        5.3401        5.3401       4.313547       0.01312
  20     96.49        1.0266        0.0000        5.3155        5.3155       4.288955       0.01357
  19     114.6        1.0266        0.0000        5.2853        5.2854       4.258723       0.01412
  18     136.5        1.0267        0.0001        5.2504        5.2505       4.223765       0.01344
  17     162.9        1.0268        0.0001        5.2111        5.2112       4.184346       0.01260
  16     196.4        1.0270        0.0001        5.1640        5.1641       4.137121       0.01189
  15     218.7        1.0272        0.0001        5.1331        5.1332       4.106004       0.01181
  14     243.0        1.0275        0.0001        5.0962        5.0963       4.068777       0.01291
  13     269.0        1.0281        0.0001        5.0511        5.0512       4.023131       0.01481
  12     297.5        1.0289        0.0001        4.9956        4.9957       3.966853       0.01669
  11     328.5        1.0300        0.0001        4.9304        4.9305       3.900523       0.01804
  10     361.9        1.0315        0.0001        4.8511        4.8512       3.819757       0.02043
   9     398.1        1.0335        0.0001        4.7507        4.7508       3.717311       0.02387
   8     437.6        1.0363        0.0002        4.6220        4.6222       3.585904       0.02810
   7     480.5        1.0400        0.0002        4.4625        4.4626       3.422616       0.03207
   6     533.0        1.0460        0.0002        4.2460        4.2462       3.200251       0.03577
   5     589.8        1.0548        0.0002        3.9954        3.9956       2.940833       0.03851
   4     651.6        1.0686        0.0002        3.7089        3.7091       2.640408       0.04108
   3     718.7        1.0901        0.0002        3.4018        3.4020       2.311874       0.04129
   2     792.3        1.1253        0.0002        3.0564        3.0566       1.931310       0.04365
   1     891.5        1.2049        0.0002        2.5828        2.5830       1.378089       0.04708
   0    1013.0        1.3920        0.0002        2.0845        2.0847       0.692731       0.04759



 Wavenumbers:  3250. -  4000. cm-1, ATM      1
 LEVEL PRESSURE   UPWARD FLUX   DIFDOWN FLUX  DIRDOWN FLUX  DOWNWARD FLUX   NET FLUX    HEATING RATE
          mb          W/m2          W/m2          W/m2        W/m2          W/m2       degree/day
  51    .06700        0.0005        0.0000        9.1795        9.1795       9.178998       0.00000
  50    .07753        0.0005        0.0000        9.1747        9.1747       9.174155       3.88148
  49    .09103        0.0005        0.0000        9.1713        9.1713       9.170767       2.11747
  48    0.1069        0.0005        0.0000        9.1688        9.1688       9.168242       1.34402
  47    0.1255        0.0005        0.0000        9.1665        9.1665       9.165983       1.02422
  46    0.1487        0.0005        0.0000        9.1641        9.1641       9.163542       0.88991
  45    0.1794        0.0005        0.0000        9.1612        9.1612       9.160664       0.79008
  44    0.2165        0.0005        0.0000        9.1583        9.1583       9.157744       0.66430
  43    0.2613        0.0005        0.0000        9.1553        9.1553       9.154770       0.56041
  42    0.3336        0.0005        0.0000        9.1511        9.1511       9.150591       0.48723
  41    0.4307        0.0005        0.0000        9.1464        9.1464       9.145823       0.41459
  40    0.5894        0.0005        0.0000        9.1393        9.1394       9.138818       0.37255
  39     1.339        0.0005        0.0000        9.1127        9.1127       9.112204       0.29962
  38     1.782        0.0005        0.0000        9.1011        9.1011       9.100616       0.22062
  37     2.292        0.0005        0.0000        9.0901        9.0901       9.089549       0.18329
  36     2.964        0.0005        0.0000        9.0776        9.0776       9.077119       0.15603
  35     3.853        0.0005        0.0000        9.0629        9.0629       9.062329       0.14036
  34     5.035        0.0005        0.0000        9.0441        9.0441       9.043590       0.13386
  33     6.613        0.0005        0.0000        9.0191        9.0191       9.018589       0.13366
  32     8.786        0.0005        0.0000        8.9843        8.9843       8.983805       0.13509
  31     11.80        0.0005        0.0000        8.9327        8.9327       8.932189       0.14451
  30     15.07        0.0005        0.0000        8.8758        8.8759       8.875344       0.14676
  29     18.79        0.0005        0.0000        8.8110        8.8110       8.810517       0.14698
  28     23.16        0.0005        0.0000        8.7365        8.7366       8.736072       0.14395
  27     28.12        0.0005        0.0000        8.6554        8.6555       8.654959       0.13789
  26     33.73        0.0005        0.0000        8.5719        8.5719       8.571459       0.12554
  25     40.54        0.0005        0.0001        8.4812        8.4812       8.480735       0.11255
  24     48.69        0.0005        0.0001        8.3838        8.3839       8.383434       0.10069
  23     57.69        0.0005        0.0001        8.2861        8.2862       8.285699       0.09161
  22     68.43        0.0004        0.0001        8.1751        8.1751       8.174702       0.08726
  21     81.20        0.0004        0.0001        8.0457        8.0458       8.045344       0.08548
  20     96.49        0.0004        0.0001        7.8949        7.8950       7.894641       0.08318
  19     114.6        0.0004        0.0001        7.7162        7.7163       7.715931       0.08344
  18     136.5        0.0004        0.0002        7.5193        7.5194       7.519088       0.07569
  17     162.9        0.0003        0.0002        7.2913        7.2915       7.291196       0.07284
  16     196.4        0.0003        0.0002        6.9660        6.9662       6.965924       0.08187
  15     218.7        0.0003        0.0002        6.6648        6.6650       6.664735       0.11435
  14     243.0        0.0003        0.0002        6.2619        6.2622       6.261941       0.13970
  13     269.0        0.0002        0.0003        5.7576        5.7579       5.757642       0.16359
  12     297.5        0.0002        0.0003        5.1719        5.1722       5.171951       0.17371
  11     328.5        0.0002        0.0002        4.5757        4.5760       4.575791       0.16209
  10     361.9        0.0002        0.0002        3.9995        3.9998       3.999616       0.14578
   9     398.1        0.0002        0.0002        3.4655        3.4657       3.465560       0.12442
   8     437.6        0.0001        0.0002        2.9740        2.9742       2.974112       0.10507
   7     480.5        0.0001        0.0002        2.5307        2.5309       2.530740       0.08708
   6     533.0        0.0001        0.0002        2.0614        2.0616       2.061444       0.07549
   5     589.8        0.0001        0.0002        1.6150        1.6151       1.615014       0.06626
   4     651.6        0.0001        0.0001        1.1565        1.1566       1.156468       0.06271
   3     718.7        0.0001        0.0001        0.7390        0.7391       0.738965       0.05247
   2     792.3        0.0002        0.0001        0.3985        0.3985       0.398304       0.03907
   1     891.5        0.0007        0.0000        0.1139        0.1139       0.113299       0.02425
   0    1013.0        0.0063        0.0000        0.0094        0.0094       0.003118       0.00765



 Wavenumbers:  4000. -  4650. cm-1, ATM      1
 LEVEL PRESSURE   UPWARD FLUX   DIFDOWN FLUX  DIRDOWN FLUX  DOWNWARD FLUX   NET FLUX    HEATING RATE
          mb          W/m2          W/m2          W/m2        W/m2          W/m2       degree/day
  51    .06700        4.1457        0.0000       10.7795       10.7795       6.633803       0.00000
  50    .07753        4.1457        0.0000       10.7795       10.7795       6.633802       0.00080
  49    .09103        4.1457        0.0000       10.7795       10.7795       6.633800       0.00078
  48    0.1069        4.1457        0.0000       10.7795       10.7795       6.633799       0.00076
  47    0.1255        4.1457        0.0000       10.7795       10.7795       6.633797       0.00075
  46    0.1487        4.1457        0.0000       10.7795       10.7795       6.633795       0.00076
  45    0.1794        4.1457        0.0000       10.7795       10.7795       6.633792       0.00078
  44    0.2165        4.1457        0.0000       10.7795       10.7795       6.633789       0.00076
  43    0.2613        4.1457        0.0000       10.7795       10.7795       6.633785       0.00075
  42    0.3336        4.1457        0.0000       10.7795       10.7795       6.633779       0.00077
  41    0.4307        4.1457        0.0000       10.7795       10.7795       6.633770       0.00077
  40    0.5894        4.1457        0.0000       10.7795       10.7795       6.633755       0.00080
  39     1.339        4.1457        0.0000       10.7794       10.7794       6.633665       0.00101
  38     1.782        4.1457        0.0000       10.7793       10.7793       6.633596       0.00133
  37     2.292        4.1457        0.0000       10.7792       10.7792       6.633502       0.00156
  36     2.964        4.1457        0.0000       10.7791       10.7791       6.633361       0.00176
  35     3.853        4.1457        0.0000       10.7789       10.7789       6.633153       0.00197
  34     5.035        4.1457        0.0000       10.7786       10.7786       6.632847       0.00219
  33     6.613        4.1457        0.0000       10.7781       10.7781       6.632395       0.00241
  32     8.786        4.1457        0.0000       10.7774       10.7774       6.631728       0.00259
  31     11.80        4.1457        0.0001       10.7763       10.7764       6.630681       0.00293
  30     15.07        4.1457        0.0001       10.7751       10.7752       6.629453       0.00317
  29     18.79        4.1457        0.0001       10.7736       10.7737       6.627968       0.00337
  28     23.16        4.1457        0.0001       10.7717       10.7718       6.626124       0.00357
  27     28.12        4.1457        0.0001       10.7695       10.7696       6.623892       0.00379
  26     33.73        4.1457        0.0001       10.7667       10.7668       6.621141       0.00414
  25     40.54        4.1457        0.0002       10.7629       10.7631       6.617410       0.00463
  24     48.69        4.1457        0.0002       10.7579       10.7581       6.612440       0.00514
  23     57.69        4.1457        0.0003       10.7520       10.7523       6.606550       0.00552
  22     68.43        4.1457        0.0003       10.7446       10.7449       6.599171       0.00580
  21     81.20        4.1458        0.0004       10.7355       10.7359       6.590088       0.00600
  20     96.49        4.1459        0.0004       10.7245       10.7249       6.579040       0.00610
  19     114.6        4.1460        0.0005       10.7107       10.7112       6.565233       0.00645
  18     136.5        4.1462        0.0006       10.6942       10.6948       6.548607       0.00639
  17     162.9        4.1465        0.0007       10.6740       10.6747       6.528236       0.00651
  16     196.4        4.1471        0.0009       10.6464       10.6472       6.500155       0.00707
  15     218.7        4.1476        0.0010       10.6255       10.6264       6.478799       0.00811
  14     243.0        4.1485        0.0011       10.5980       10.5991       6.450652       0.00976
  13     269.0        4.1498        0.0012       10.5611       10.5623       6.412500       0.01238
  12     297.5        4.1517        0.0013       10.5119       10.5132       6.361517       0.01512
  11     328.5        4.1544        0.0014       10.4499       10.4513       6.296861       0.01758
  10     361.9        4.1580        0.0016       10.3702       10.3717       6.213730       0.02103
   9     398.1        4.1624        0.0017       10.2678       10.2695       6.107037       0.02486
   8     437.6        4.1680        0.0019       10.1390       10.1408       5.972851       0.02869
   7     480.5        4.1749        0.0020        9.9877        9.9897       5.814830       0.03103
   6     533.0        4.1851        0.0022        9.7937        9.7959       5.610758       0.03283
   5     589.8        4.1993        0.0024        9.5752        9.5775       5.378229       0.03451
   4     651.6        4.2208        0.0026        9.2958        9.2984       5.077527       0.04112
   3     718.7        4.2542        0.0028        8.9267        8.9295       4.675275       0.05055
   2     792.3        4.3091        0.0029        8.4542        8.4571       4.148017       0.06047
   1     891.5        4.4351        0.0031        7.7948        7.7979       3.362831       0.06682
   0    1013.0        4.7275        0.0033        7.0767        7.0799       2.352399       0.07016



 Wavenumbers:  4650. -  5150. cm-1, ATM      1
 LEVEL PRESSURE   UPWARD FLUX   DIFDOWN FLUX  DIRDOWN FLUX  DOWNWARD FLUX   NET FLUX    HEATING RATE
          mb          W/m2          W/m2          W/m2        W/m2          W/m2       degree/day
  51    .06700        2.9195        0.0000       10.2033       10.2033       7.283879       0.00000
  50    .07753        2.9195        0.0000       10.2031       10.2031       7.283644       0.18901
  49    .09103        2.9195        0.0000       10.2028       10.2028       7.283349       0.18428
  48    0.1069        2.9195        0.0000       10.2025       10.2025       7.283012       0.17931
  47    0.1255        2.9195        0.0000       10.2021       10.2021       7.282627       0.17426
  46    0.1487        2.9195        0.0000       10.2016       10.2016       7.282146       0.17536
  45    0.1794        2.9195        0.0000       10.2010       10.2010       7.281496       0.17850
  44    0.2165        2.9195        0.0000       10.2002       10.2002       7.280737       0.17277
  43    0.2613        2.9195        0.0000       10.1993       10.1993       7.279851       0.16690
  42    0.3336        2.9195        0.0000       10.1979       10.1979       7.278419       0.16702
  41    0.4307        2.9195        0.0000       10.1960       10.1960       7.276578       0.16002
  40    0.5894        2.9195        0.0000       10.1932       10.1932       7.273704       0.15283
  39     1.339        2.9195        0.0000       10.1816       10.1816       7.262113       0.13050
  38     1.782        2.9195        0.0000       10.1760       10.1760       7.256584       0.10526
  37     2.292        2.9195        0.0000       10.1706       10.1706       7.251128       0.09037
  36     2.964        2.9195        0.0000       10.1646       10.1647       7.245205       0.07435
  35     3.853        2.9194        0.0000       10.1584       10.1584       7.238991       0.05897
  34     5.035        2.9194        0.0000       10.1521       10.1521       7.232656       0.04526
  33     6.613        2.9194        0.0000       10.1456       10.1456       7.226199       0.03452
  32     8.786        2.9194        0.0001       10.1386       10.1386       7.219189       0.02723
  31     11.80        2.9194        0.0001       10.1295       10.1296       7.210149       0.02531
  30     15.07        2.9194        0.0001       10.1196       10.1197       7.200271       0.02550
  29     18.79        2.9194        0.0001       10.1076       10.1077       7.188263       0.02722
  28     23.16        2.9194        0.0002       10.0923       10.0924       7.172959       0.02959
  27     28.12        2.9195        0.0002       10.0731       10.0733       7.153864       0.03246
  26     33.73        2.9195        0.0002       10.0500       10.0503       7.130767       0.03473
  25     40.54        2.9195        0.0003       10.0201       10.0204       7.100860       0.03710
  24     48.69        2.9196        0.0003        9.9820        9.9823       7.062681       0.03951
  23     57.69        2.9197        0.0004        9.9384        9.9388       7.019131       0.04082
  22     68.43        2.9198        0.0004        9.8858        9.8862       6.966380       0.04147
  21     81.20        2.9200        0.0005        9.8234        9.8240       6.903960       0.04125
  20     96.49        2.9203        0.0006        9.7518        9.7524       6.832100       0.03966
  19     114.6        2.9207        0.0007        9.6719        9.6726       6.751984       0.03741
  18     136.5        2.9212        0.0009        9.5858        9.5867       6.665449       0.03327
  17     162.9        2.9220        0.0010        9.4940        9.4951       6.573077       0.02953
  16     196.4        2.9232        0.0012        9.3883        9.3895       6.466300       0.02688
  15     218.7        2.9242        0.0013        9.3229        9.3242       6.400093       0.02514
  14     243.0        2.9255        0.0015        9.2520        9.2534       6.327991       0.02501
  13     269.0        2.9272        0.0016        9.1717        9.1733       6.246027       0.02659
  12     297.5        2.9298        0.0018        9.0763        9.0781       6.148220       0.02901
  11     328.5        2.9332        0.0019        8.9650        8.9669       6.033675       0.03114
  10     361.9        2.9376        0.0021        8.8349        8.8370       5.899390       0.03398
   9     398.1        2.9434        0.0023        8.6820        8.6843       5.740937       0.03692
   8     437.6        2.9508        0.0025        8.5028        8.5053       5.554462       0.03987
   7     480.5        2.9605        0.0027        8.2948        8.2975       5.337028       0.04270
   6     533.0        2.9751        0.0029        8.0209        8.0238       5.048720       0.04638
   5     589.8        2.9951        0.0031        7.7063        7.7094       4.714274       0.04964
   4     651.6        3.0244        0.0033        7.3412        7.3445       4.320088       0.05391
   3     718.7        3.0675        0.0035        6.9387        6.9421       3.874648       0.05598
   2     792.3        3.1327        0.0036        6.5066        6.5102       3.377481       0.05702
   1     891.5        3.2686        0.0038        5.9361        5.9399       2.671255       0.06010
   0    1013.0        3.5434        0.0040        5.3025        5.3064       1.763019       0.06306



 Wavenumbers:  5150. -  6150. cm-1, ATM      1
 LEVEL PRESSURE   UPWARD FLUX   DIFDOWN FLUX  DIRDOWN FLUX  DOWNWARD FLUX   NET FLUX    HEATING RATE
          mb          W/m2          W/m2          W/m2        W/m2          W/m2       degree/day
  51    .06700        7.4578        0.0000       25.5798       25.5798      18.121979       0.00000
  50    .07753        7.4578        0.0000       25.5798       25.5798      18.121939       0.03159
  49    .09103        7.4578        0.0000       25.5797       25.5797      18.121888       0.03207
  48    0.1069        7.4578        0.0000       25.5797       25.5797      18.121827       0.03258
  47    0.1255        7.4578        0.0000       25.5796       25.5796      18.121754       0.03308
  46    0.1487        7.4578        0.0000       25.5795       25.5795      18.121658       0.03485
  45    0.1794        7.4578        0.0000       25.5794       25.5794      18.121523       0.03710
  44    0.2165        7.4578        0.0000       25.5792       25.5792      18.121358       0.03766
  43    0.2613        7.4578        0.0000       25.5790       25.5790      18.121155       0.03824
  42    0.3336        7.4578        0.0000       25.5786       25.5786      18.120808       0.04040
  41    0.4307        7.4578        0.0000       25.5782       25.5782      18.120337       0.04094
  40    0.5894        7.4578        0.0000       25.5774       25.5774      18.119548       0.04195
  39     1.339        7.4578        0.0000       25.5735       25.5736      18.115748       0.04278
  38     1.782        7.4578        0.0001       25.5713       25.5714      18.113536       0.04212
  37     2.292        7.4578        0.0001       25.5688       25.5688      18.111032       0.04147
  36     2.964        7.4578        0.0001       25.5656       25.5657      18.107851       0.03993
  35     3.853        7.4578        0.0001       25.5615       25.5616      18.103809       0.03836
  34     5.035        7.4578        0.0001       25.5562       25.5564      18.098603       0.03719
  33     6.613        7.4578        0.0002       25.5494       25.5496      18.091851       0.03610
  32     8.786        7.4578        0.0003       25.5406       25.5409      18.083101       0.03398
  31     11.80        7.4577        0.0003       25.5287       25.5290      18.071268       0.03313
  30     15.07        7.4577        0.0004       25.5167       25.5171      18.059403       0.03063
  29     18.79        7.4577        0.0006       25.5042       25.5047      18.047000       0.02812
  28     23.16        7.4577        0.0007       25.4907       25.4914      18.033640       0.02583
  27     28.12        7.4577        0.0008       25.4764       25.4773      18.019554       0.02394
  26     33.73        7.4577        0.0010       25.4620       25.4630      18.005281       0.02146
  25     40.54        7.4578        0.0012       25.4463       25.4474      17.989676       0.01936
  24     48.69        7.4578        0.0014       25.4294       25.4308      17.972969       0.01729
  23     57.69        7.4579        0.0017       25.4126       25.4143      17.956383       0.01555
  22     68.43        7.4581        0.0020       25.3944       25.3964      17.938378       0.01415
  21     81.20        7.4582        0.0024       25.3744       25.3768      17.918567       0.01309
  20     96.49        7.4585        0.0028       25.3519       25.3548      17.896305       0.01229
  19     114.6        7.4588        0.0034       25.3262       25.3296      17.870776       0.01192
  18     136.5        7.4592        0.0040       25.2962       25.3002      17.841061       0.01143
  17     162.9        7.4596        0.0048       25.2521       25.2569      17.797245       0.01401
  16     196.4        7.4603        0.0057       25.1593       25.1650      17.704743       0.02328
  15     218.7        7.4608        0.0064       25.0159       25.0223      17.561507       0.05438
  14     243.0        7.4614        0.0070       24.7089       24.7159      17.254518       0.10647
  13     269.0        7.4622        0.0076       24.1619       24.1695      16.707286       0.17752
  12     297.5        7.4633        0.0082       23.4544       23.4626      15.999356       0.20996
  11     328.5        7.4646        0.0089       22.7355       22.7443      15.279686       0.19568
  10     361.9        7.4664        0.0095       21.9224       21.9319      14.465503       0.20600
   9     398.1        7.4687        0.0101       20.9939       21.0040      13.535310       0.21671
   8     437.6        7.4717        0.0107       19.9833       19.9940      12.522280       0.21659
   7     480.5        7.4757        0.0112       18.9483       18.9595      11.483846       0.20394
   6     533.0        7.4820        0.0119       17.7796       17.7914      10.309468       0.18892
   5     589.8        7.4915        0.0125       16.6726       16.6851       9.193551       0.16564
   4     651.6        7.5076        0.0131       15.6343       15.6474       8.139774       0.14411
   3     718.7        7.5350        0.0138       14.7738       14.7876       7.252620       0.11149
   2     792.3        7.5841        0.0147       14.0291       14.0438       6.459690       0.09094
   1     891.5        7.7076        0.0157       13.0822       13.0979       5.390308       0.09100
   0    1013.0        8.0505        0.0167       12.0384       12.0551       4.004590       0.09622



 Wavenumbers:  6150. -  7700. cm-1, ATM      1
 LEVEL PRESSURE   UPWARD FLUX   DIFDOWN FLUX  DIRDOWN FLUX  DOWNWARD FLUX   NET FLUX    HEATING RATE
          mb          W/m2          W/m2          W/m2        W/m2          W/m2       degree/day
  51    .06700       10.9890        0.0000       47.3109       47.3109      36.321835       0.00000
  50    .07753       10.9890        0.0000       47.3108       47.3108      36.321778       0.04553
  49    .09103       10.9890        0.0000       47.3107       47.3107      36.321705       0.04583
  48    0.1069       10.9890        0.0000       47.3106       47.3106      36.321618       0.04614
  47    0.1255       10.9890        0.0000       47.3105       47.3105      36.321516       0.04645
  46    0.1487       10.9890        0.0000       47.3104       47.3104      36.321383       0.04852
  45    0.1794       10.9890        0.0000       47.3102       47.3102      36.321196       0.05127
  44    0.2165       10.9890        0.0000       47.3100       47.3100      36.320969       0.05167
  43    0.2613       10.9890        0.0000       47.3097       47.3097      36.320693       0.05210
  42    0.3336       10.9890        0.0000       47.3092       47.3092      36.320223       0.05471
  41    0.4307       10.9890        0.0000       47.3085       47.3086      36.319588       0.05521
  40    0.5894       10.9890        0.0001       47.3074       47.3075      36.318529       0.05633
  39     1.339       10.9889        0.0002       47.3022       47.3023      36.313437       0.05733
  38     1.782       10.9889        0.0002       47.2991       47.2993      36.310467       0.05655
  37     2.292       10.9888        0.0003       47.2956       47.2959      36.307091       0.05591
  36     2.964       10.9888        0.0004       47.2912       47.2915      36.302773       0.05421
  35     3.853       10.9887        0.0005       47.2855       47.2859      36.297238       0.05252
  34     5.035       10.9886        0.0006       47.2780       47.2786      36.290058       0.05129
  33     6.613       10.9884        0.0008       47.2683       47.2691      36.280670       0.05019
  32     8.786       10.9883        0.0011       47.2556       47.2566      36.268371       0.04777
  31     11.80       10.9880        0.0014       47.2380       47.2395      36.251468       0.04732
  30     15.07       10.9877        0.0018       47.2201       47.2219      36.234181       0.04463
  29     18.79       10.9874        0.0023       47.2008       47.2031      36.215702       0.04190
  28     23.16       10.9870        0.0028       47.1795       47.1823      36.195312       0.03943
  27     28.12       10.9866        0.0034       47.1565       47.1599      36.173320       0.03739
  26     33.73       10.9861        0.0041       47.1324       47.1365      36.150400       0.03446
  25     40.54       10.9855        0.0049       47.1054       47.1103      36.124766       0.03180
  24     48.69       10.9848        0.0059       47.0754       47.0813      36.096515       0.02923
  23     57.69       10.9840        0.0070       47.0449       47.0519      36.067897       0.02683
  22     68.43       10.9831        0.0083       47.0110       47.0193      36.036165       0.02495
  21     81.20       10.9820        0.0098       46.9729       46.9827      36.000678       0.02345
  20     96.49       10.9807        0.0116       46.9294       46.9410      35.960347       0.02226
  19     114.6       10.9791        0.0138       46.8790       46.8928      35.913728       0.02177
  18     136.5       10.9772        0.0164       46.8200       46.8364      35.859127       0.02100
  17     162.9       10.9750        0.0195       46.7361       46.7556      35.780546       0.02512
  16     196.4       10.9722        0.0234       46.5703       46.5937      35.621450       0.04005
  15     218.7       10.9705        0.0260       46.3473       46.3733      35.402821       0.08301
  14     243.0       10.9687        0.0287       45.9299       45.9585      34.989860       0.14323
  13     269.0       10.9670        0.0314       45.1708       45.2021      34.235143       0.24483
  12     297.5       10.9656        0.0339       44.0115       44.0454      33.079806       0.34266
  11     328.5       10.9647        0.0366       42.7242       42.7608      31.796139       0.34903
  10     361.9       10.9644        0.0392       41.3539       41.3932      30.428786       0.34595
   9     398.1       10.9652        0.0418       39.7953       39.8371      28.871905       0.36272
   8     437.6       10.9677        0.0443       37.9948       38.0390      27.071284       0.38498
   7     480.5       10.9727        0.0465       36.0647       36.1112      25.138486       0.37959
   6     533.0       10.9834        0.0489       33.7773       33.8262      22.842851       0.36929
   5     589.8       11.0031        0.0511       31.4082       31.4592      20.456149       0.35426
   4     651.6       11.0418        0.0527       28.8834       28.9361      17.894297       0.35034
   3     718.7       11.1128        0.0542       26.4104       26.4646      15.351725       0.31953
   2     792.3       11.2454        0.0554       24.0056       24.0610      12.815617       0.29086
   1     891.5       11.5813        0.0567       21.2348       21.2915       9.710212       0.26425
   0    1013.0       12.4727        0.0582       18.6150       18.6732       6.200506       0.24370



 Wavenumbers:  7700. -  8050. cm-1, ATM      1
 LEVEL PRESSURE   UPWARD FLUX   DIFDOWN FLUX  DIRDOWN FLUX  DOWNWARD FLUX   NET FLUX    HEATING RATE
          mb          W/m2          W/m2          W/m2        W/m2          W/m2       degree/day
  51    .06700        5.8772        0.0000       11.1810       11.1810       5.303770       0.00000
  50    .07753        5.8772        0.0000       11.1809       11.1809       5.303748       0.01731
  49    .09103        5.8772        0.0000       11.1809       11.1809       5.303721       0.01697
  48    0.1069        5.8772        0.0000       11.1809       11.1809       5.303690       0.01661
  47    0.1255        5.8772        0.0000       11.1809       11.1809       5.303654       0.01626
  46    0.1487        5.8772        0.0000       11.1808       11.1808       5.303609       0.01649
  45    0.1794        5.8772        0.0000       11.1808       11.1808       5.303547       0.01697
  44    0.2165        5.8772        0.0000       11.1807       11.1807       5.303474       0.01665
  43    0.2613        5.8773        0.0000       11.1806       11.1806       5.303387       0.01634
  42    0.3336        5.8773        0.0000       11.1805       11.1805       5.303243       0.01672
  41    0.4307        5.8773        0.0000       11.1803       11.1804       5.303053       0.01653
  40    0.5894        5.8774        0.0000       11.1801       11.1801       5.302743       0.01652
  39     1.339        5.8776        0.0001       11.1788       11.1789       5.301273       0.01654
  38     1.782        5.8778        0.0001       11.1781       11.1782       5.300410       0.01643
  37     2.292        5.8779        0.0001       11.1772       11.1773       5.299411       0.01655
  36     2.964        5.8781        0.0002       11.1761       11.1762       5.298099       0.01647
  35     3.853        5.8784        0.0002       11.1746       11.1748       5.296366       0.01644
  34     5.035        5.8788        0.0003       11.1726       11.1729       5.294065       0.01644
  33     6.613        5.8793        0.0004       11.1700       11.1703       5.290990       0.01643
  32     8.786        5.8800        0.0005       11.1664       11.1669       5.286849       0.01608
  31     11.80        5.8810        0.0006       11.1613       11.1619       5.280929       0.01658
  30     15.07        5.8821        0.0008       11.1558       11.1567       5.274578       0.01640
  29     18.79        5.8833        0.0010       11.1497       11.1507       5.267411       0.01625
  28     23.16        5.8847        0.0013       11.1425       11.1438       5.259051       0.01617
  27     28.12        5.8864        0.0015       11.1343       11.1359       5.249507       0.01622
  26     33.73        5.8882        0.0019       11.1252       11.1270       5.238847       0.01603
  25     40.54        5.8904        0.0022       11.1142       11.1164       5.225999       0.01594
  24     48.69        5.8931        0.0027       11.1010       11.1037       5.210557       0.01598
  23     57.69        5.8961        0.0032       11.0866       11.0898       5.193654       0.01584
  22     68.43        5.8997        0.0037       11.0695       11.0733       5.173605       0.01576
  21     81.20        5.9040        0.0044       11.0494       11.0538       5.149838       0.01570
  20     96.49        5.9091        0.0053       11.0255       11.0308       5.121686       0.01554
  19     114.6        5.9153        0.0062       10.9975       11.0038       5.088494       0.01550
  18     136.5        5.9227        0.0074       10.9648       10.9722       5.049472       0.01500
  17     162.9        5.9316        0.0088       10.9263       10.9351       5.003434       0.01472
  16     196.4        5.9434        0.0106       10.8773       10.8878       4.944386       0.01486
  15     218.7        5.9513        0.0117       10.8455       10.8573       4.905956       0.01459
  14     243.0        5.9600        0.0130       10.8114       10.8245       4.864434       0.01440
  13     269.0        5.9696        0.0144       10.7749       10.7893       4.819648       0.01453
  12     297.5        5.9802        0.0159       10.7357       10.7516       4.771363       0.01432
  11     328.5        5.9920        0.0175       10.6937       10.7112       4.719260       0.01417
  10     361.9        6.0050        0.0192       10.6489       10.6681       4.663098       0.01421
   9     398.1        6.0195        0.0211       10.6008       10.6218       4.602365       0.01415
   8     437.6        6.0357        0.0231       10.5491       10.5721       4.536423       0.01410
   7     480.5        6.0539        0.0252       10.4934       10.5186       4.464681       0.01409
   6     533.0        6.0777        0.0278       10.4243       10.4521       4.374372       0.01453
   5     589.8        6.1054        0.0306       10.3479       10.3785       4.273074       0.01504
   4     651.6        6.1387        0.0336       10.2613       10.2950       4.156285       0.01597
   3     718.7        6.1794        0.0368       10.1618       10.1986       4.019204       0.01723
   2     792.3        6.2309        0.0402       10.0439       10.0841       3.853195       0.01904
   1     891.5        6.3175        0.0447        9.8626        9.9073       3.589838       0.02241
   0    1013.0        6.4540        0.0498        9.6103        9.6601       3.206123       0.02664



 Wavenumbers:  8050. - 12850. cm-1, ATM      1
 LEVEL PRESSURE   UPWARD FLUX   DIFDOWN FLUX  DIRDOWN FLUX  DOWNWARD FLUX   NET FLUX    HEATING RATE
          mb          W/m2          W/m2          W/m2        W/m2          W/m2       degree/day
  51    .06700       71.7242        0.0000      156.5418      156.5418      84.817560       0.00000
  50    .07753       71.7242        0.0000      156.5417      156.5417      84.817560       0.00000
  49    .09103       71.7242        0.0001      156.5417      156.5417      84.817560       0.00000
  48    0.1069       71.7241        0.0001      156.5416      156.5417      84.817560      -0.00000
  47    0.1255       71.7241        0.0002      156.5415      156.5417      84.817560      -0.00000
  46    0.1487       71.7241        0.0002      156.5414      156.5416      84.817560       0.00000
  45    0.1794       71.7240        0.0003      156.5413      156.5416      84.817560       0.00000
  44    0.2165       71.7240        0.0004      156.5412      156.5416      84.817560      -0.00000
  43    0.2613       71.7239        0.0005      156.5410      156.5415      84.817560       0.00000
  42    0.3336       71.7238        0.0007      156.5407      156.5414      84.817560       0.00000
  41    0.4307       71.7237        0.0010      156.5403      156.5413      84.817560      -0.00000
  40    0.5894       71.7235        0.0014      156.5397      156.5411      84.817560       0.00000
  39     1.339       71.7225        0.0034      156.5367      156.5401      84.817560       0.00000
  38     1.782       71.7219        0.0045      156.5350      156.5395      84.817560      -0.00000
  37     2.292       71.7213        0.0059      156.5330      156.5388      84.817560       0.00000
  36     2.964       71.7204        0.0076      156.5303      156.5380      84.817560       0.00000
  35     3.853       71.7192        0.0100      156.5268      156.5368      84.817560      -0.00000
  34     5.035       71.7177        0.0131      156.5222      156.5353      84.817560       0.00000
  33     6.613       71.7156        0.0172      156.5160      156.5332      84.817560      -0.00000
  32     8.786       71.7129        0.0228      156.5076      156.5304      84.817560       0.00000
  31     11.80       71.7089        0.0308      156.4957      156.5265      84.817560       0.00000
  30     15.07       71.7046        0.0394      156.4828      156.5222      84.817560       0.00000
  29     18.79       71.6998        0.0491      156.4682      156.5174      84.817560      -0.00000
  28     23.16       71.6941        0.0605      156.4512      156.5117      84.817560       0.00000
  27     28.12       71.6877        0.0735      156.4317      156.5052      84.817560      -0.00000
  26     33.73       71.6804        0.0881      156.4099      156.4980      84.817560      -0.00000
  25     40.54       71.6717        0.1058      156.3834      156.4892      84.817560       0.00000
  24     48.69       71.6611        0.1271      156.3515      156.4786      84.817560       0.00000
  23     57.69       71.6494        0.1505      156.3164      156.4670      84.817560      -0.00000
  22     68.43       71.6355        0.1785      156.2746      156.4531      84.817560       0.00000
  21     81.20       71.6189        0.2119      156.2246      156.4365      84.817560      -0.00000
  20     96.49       71.5991        0.2517      156.1649      156.4167      84.817560       0.00000
  19     114.6       71.5757        0.2991      156.0879      156.3871      84.811391       0.00288
  18     136.5       71.5478        0.3554      155.9962      156.3515      84.803735       0.00294
  17     162.9       71.5146        0.4225      155.8831      156.3056      84.791013       0.00407
  16     196.4       71.4715        0.5099      155.7199      156.2298      84.758346       0.00822
  15     218.7       71.4432        0.5673      155.5733      156.1406      84.697376       0.02315
  14     243.0       71.4128        0.6297      155.3367      155.9664      84.553520       0.04989
  13     269.0       71.3808        0.6971      154.9514      155.6485      84.267785       0.09269
  12     297.5       71.3478        0.7697      154.3896      155.1593      83.811503       0.13533
  11     328.5       71.3144        0.8479      153.7151      154.5630      83.248604       0.15305
  10     361.9       71.2817        0.9318      152.9087      153.8406      82.558883       0.17451
   9     398.1       71.2514        1.0215      151.8986      152.9201      81.668674       0.20740
   8     437.6       71.2269        1.1168      150.6031      151.7199      80.493031       0.25136
   7     480.5       71.2119        1.2174      149.0014      150.2188      79.006850       0.29188
   6     533.0       71.2148        1.3388      146.7375      148.0764      76.861599       0.34510
   5     589.8       71.2568        1.4658      143.8730      145.3388      74.081943       0.41259
   4     651.6       71.3833        1.5956      140.0955      141.6911      70.307834       0.51612
   3     718.7       71.6524        1.7269      135.5278      137.2547      65.602282       0.59136
   2     792.3       72.1925        1.8565      130.0690      131.9256      59.733015       0.67314
   1     891.5       73.5913        2.0125      122.1273      124.1398      50.548581       0.78155
   0    1013.0       77.0448        2.1790      112.9512      115.1303      38.085422       0.86538



 Wavenumbers: 12850. - 16000. cm-1, ATM      1
 LEVEL PRESSURE   UPWARD FLUX   DIFDOWN FLUX  DIRDOWN FLUX  DOWNWARD FLUX   NET FLUX    HEATING RATE
          mb          W/m2          W/m2          W/m2        W/m2          W/m2       degree/day
  51    .06700       69.6767        0.0000       98.0872       98.0872      28.410579       0.00000
  50    .07753       69.6767        0.0001       98.0864       98.0864      28.409790       0.63274
  49    .09103       69.6766        0.0002       98.0853       98.0854      28.408799       0.61944
  48    0.1069       69.6766        0.0003       98.0841       98.0843      28.407661       0.60583
  47    0.1255       69.6766        0.0004       98.0826       98.0830      28.406354       0.59248
  46    0.1487       69.6767        0.0005       98.0809       98.0814      28.404706       0.60080
  45    0.1794       69.6767        0.0007       98.0784       98.0791      28.402465       0.61509
  44    0.2165       69.6767        0.0009       98.0756       98.0766      28.399832       0.59906
  43    0.2613       69.6768        0.0012       98.0723       98.0735      28.396738       0.58318
  42    0.3336       69.6770        0.0016       98.0670       98.0687      28.391694       0.58802
  41    0.4307       69.6773        0.0022       98.0602       98.0624      28.385182       0.56626
  40    0.5894       69.6779        0.0032       98.0496       98.0528      28.374941       0.54458
  39     1.339       69.6833        0.0078       98.0043       98.0122      28.328903       0.51830
  38     1.782       69.6883        0.0105       97.9793       97.9898      28.301503       0.52167
  37     2.292       69.6959        0.0136       97.9498       97.9634      28.267538       0.56254
  36     2.964       69.7085        0.0178       97.9088       97.9266      28.218044       0.62130
  35     3.853       69.7290        0.0232       97.8503       97.8735      28.144524       0.69771
  34     5.035       69.7599        0.0304       97.7680       97.7984      28.038482       0.75753
  33     6.613       69.8030        0.0400       97.6562       97.6962      27.893132       0.77704
  32     8.786       69.8592        0.0529       97.5107       97.5636      27.704393       0.73299
  31     11.80       69.9322        0.0714       97.3179       97.3892      27.457070       0.69243
  30     15.07       70.0020        0.0912       97.1283       97.2195      27.217557       0.61838
  29     18.79       70.0731        0.1136       96.9300       97.0436      26.970468       0.56023
  28     23.16       70.1474        0.1397       96.7166       96.8563      26.708897       0.50579
  27     28.12       70.2219        0.1695       96.4935       96.6630      26.441143       0.45516
  26     33.73       70.2904        0.2029       96.2731       96.4760      26.185589       0.38423
  25     40.54       70.3560        0.2432       96.0408       96.2840      25.927979       0.31959
  24     48.69       70.4184        0.2918       95.7946       96.0864      25.667984       0.26906
  23     57.69       70.4708        0.3452       95.5573       95.9025      25.431737       0.22145
  22     68.43       70.5156        0.4089       95.3106       95.7195      25.203902       0.17911
  21     81.20       70.5449        0.4848       95.0643       95.5491      25.004209       0.13195
  20     96.49       70.5576        0.5753       94.8153       95.3906      24.832989       0.09450
  19     114.6       70.5739        0.6839       94.5411       95.2249      24.651056       0.08495
  18     136.5       70.5830        0.8126       94.2320       95.0446      24.461624       0.07284
  17     162.9       70.5844        0.9658       93.8753       94.8411      24.256691       0.06550
  16     196.4       70.5664        1.1645       93.4347       94.5991      24.032758       0.05637
  15     218.7       70.5473        1.2949       93.1513       94.4462      23.898870       0.05083
  14     243.0       70.5235        1.4367       92.8439       94.2806      23.757132       0.04916
  13     269.0       70.4947        1.5903       92.5111       94.1014      23.606700       0.04880
  12     297.5       70.4613        1.7563       92.1495       93.9057      23.444419       0.04813
  11     328.5       70.4249        1.9356       91.7554       93.6909      23.266029       0.04850
  10     361.9       70.3861        2.1285       91.3262       93.4548      23.068629       0.04994
   9     398.1       70.3459        2.3362       90.8575       93.1937      22.847785       0.05145
   8     437.6       70.3065        2.5590       90.3418       92.9008      22.594283       0.05420
   7     480.5       70.2700        2.7976       89.7728       92.5704      22.300464       0.05771
   6     533.0       70.2364        3.0910       89.0428       92.1338      21.897381       0.06484
   5     589.8       70.2221        3.4061       88.2038       91.6100      21.387883       0.07563
   4     651.6       70.2520        3.7428       87.1979       90.9408      20.688774       0.09561
   3     718.7       70.3426        4.0995       86.0161       90.1156      19.773038       0.11508
   2     792.3       70.5468        4.4722       84.5970       89.0693      18.522445       0.14343
   1     891.5       71.0769        4.9569       82.4374       87.3943      16.317402       0.18764
   0    1013.0       72.2227        5.5126       79.6182       85.1308      12.908070       0.23673



 Wavenumbers: 16000. - 22650. cm-1, ATM      1
 LEVEL PRESSURE   UPWARD FLUX   DIFDOWN FLUX  DIRDOWN FLUX  DOWNWARD FLUX   NET FLUX    HEATING RATE
          mb          W/m2          W/m2          W/m2        W/m2          W/m2       degree/day
  51    .06700      139.5751        0.0000      156.3892      156.3892      16.814198       0.00000
  50    .07753      139.5750        0.0004      156.3887      156.3891      16.814051       0.11766
  49    .09103      139.5750        0.0009      156.3879      156.3888      16.813837       0.13345
  48    0.1069      139.5750        0.0015      156.3871      156.3885      16.813552       0.15218
  47    0.1255      139.5750        0.0021      156.3861      156.3882      16.813169       0.17346
  46    0.1487      139.5751        0.0029      156.3847      156.3877      16.812605       0.20555
  45    0.1794      139.5752        0.0041      156.3828      156.3869      16.811724       0.24202
  44    0.2165      139.5754        0.0054      156.3805      156.3859      16.810528       0.27200
  43    0.2613      139.5757        0.0070      156.3776      156.3846      16.808906       0.30579
  42    0.3336      139.5764        0.0096      156.3726      156.3823      16.805821       0.35961
  41    0.4307      139.5776        0.0131      156.3657      156.3788      16.801172       0.40424
  40    0.5894      139.5802        0.0188      156.3537      156.3725      16.792305       0.47152
  39     1.339      139.6023        0.0457      156.2834      156.3291      16.726797       0.73751
  38     1.782      139.6228        0.0615      156.2324      156.2938      16.670991       1.06244
  37     2.292      139.6536        0.0797      156.1641      156.2438      16.590213       1.33790
  36     2.964      139.7049        0.1037      156.0605      156.1642      16.459352       1.64270
  35     3.853      139.7878        0.1354      155.9041      156.0395      16.251708       1.97058
  34     5.035      139.9128        0.1774      155.6774      155.8548      15.941924       2.21297
  33     6.613      140.0877        0.2335      155.3656      155.5991      15.511420       2.30147
  32     8.786      140.3154        0.3089      154.9577      155.2666      14.951250       2.17550
  31     11.80      140.6116        0.4167      154.4153      154.8320      14.220392       2.04617
  30     15.07      140.8953        0.5323      153.8804      154.4127      13.517353       1.81511
  29     18.79      141.1849        0.6627      153.3191      153.9817      12.796826       1.63366
  28     23.16      141.4875        0.8147      152.7126      153.5272      12.039764       1.46391
  27     28.12      141.7917        0.9883      152.0755      153.0637      11.272003       1.30514
  26     33.73      142.0724        1.1823      151.4409      152.6232      10.550872       1.08424
  25     40.54      142.3421        1.4166      150.7637      152.1802       9.838160       0.88420
  24     48.69      142.5999        1.6987      150.0338      151.7325       9.132590       0.73015
  23     57.69      142.8180        2.0082      149.3151      151.3233       8.505291       0.58800
  22     68.43      143.0075        2.3764      148.5476      150.9240       7.916444       0.46291
  21     81.20      143.1371        2.8148      147.7517      150.5664       7.429348       0.32187
  20     96.49      143.2021        3.3366      146.9127      150.2492       7.047113       0.21097
  19     114.6      143.2336        3.9544      145.9763      149.9307       6.697071       0.16344
  18     136.5      143.2399        4.6838      144.9088      149.5926       6.352733       0.13241
  17     162.9      143.2192        5.5484      143.6785      149.2270       6.007819       0.11025
  16     196.4      143.1313        6.6639      142.1651      148.8290       5.697617       0.07808
  15     218.7      143.0514        7.3928      141.2033      148.5962       5.544805       0.05802
  14     243.0      142.9542        8.1818      140.1753      148.3571       5.402886       0.04922
  13     269.0      142.8383        9.0329      139.0797      148.1125       5.274272       0.04172
  12     297.5      142.7029        9.9481      137.9141      147.8622       5.159349       0.03408
  11     328.5      142.5519       10.9319      136.6676      147.5995       5.047543       0.03040
  10     361.9      142.3852       11.9850      135.3392      147.3242       4.939001       0.02746
   9     398.1      142.2021       13.1115      133.9235      147.0350       4.832851       0.02473
   8     437.6      142.0036       14.3134      132.4163      146.7296       4.725992       0.02285
   7     480.5      141.7893       15.5927      130.8147      146.4074       4.618154       0.02118
   6     533.0      141.5254       17.1553      128.8599      146.0152       4.489781       0.02065
   5     589.8      141.2447       18.8247      126.7679      145.5926       4.347886       0.02106
   4     651.6      140.9533       20.6025      124.5274      145.1300       4.176712       0.02341
   3     718.7      140.6569       22.4906      122.1285      144.6190       3.962123       0.02697
   2     792.3      140.3719       24.4866      119.5548      144.0414       3.669544       0.03356
   1     891.5      140.0653       27.1359      116.0566      143.1925       3.127161       0.04615
   0    1013.0      139.8252       30.2486      111.8404      142.0890       2.263793       0.05995



 Wavenumbers: 22650. - 29000. cm-1, ATM      1
 LEVEL PRESSURE   UPWARD FLUX   DIFDOWN FLUX  DIRDOWN FLUX  DOWNWARD FLUX   NET FLUX    HEATING RATE
          mb          W/m2          W/m2          W/m2        W/m2          W/m2       degree/day
  51    .06700       58.1231        0.0000       59.0156       59.0156       0.892479       0.00000
  50    .07753       58.1230        0.0005       59.0151       59.0155       0.892479       0.00000
  49    .09103       58.1229        0.0010       59.0144       59.0154       0.892479       0.00000
  48    0.1069       58.1228        0.0017       59.0136       59.0153       0.892479       0.00000
  47    0.1255       58.1226        0.0025       59.0127       59.0151       0.892479       0.00000
  46    0.1487       58.1225        0.0034       59.0115       59.0149       0.892479       0.00000
  45    0.1794       58.1222        0.0048       59.0099       59.0147       0.892479      -0.00000
  44    0.2165       58.1219        0.0063       59.0080       59.0144       0.892479       0.00000
  43    0.2613       58.1215        0.0082       59.0058       59.0140       0.892479       0.00000
  42    0.3336       58.1209        0.0112       59.0022       59.0134       0.892479       0.00000
  41    0.4307       58.1201        0.0153       58.9973       59.0126       0.892479      -0.00000
  40    0.5894       58.1188        0.0219       58.9894       59.0113       0.892479      -0.00000
  39     1.339       58.1126        0.0533       58.9518       59.0051       0.892479       0.00000
  38     1.782       58.1090        0.0718       58.9297       59.0015       0.892479       0.00000
  37     2.292       58.1048        0.0931       58.9042       58.9973       0.892479      -0.00000
  36     2.964       58.0993        0.1211       58.8706       58.9917       0.892479       0.00000
  35     3.853       58.0920        0.1581       58.8264       58.9844       0.892479      -0.00000
  34     5.035       58.0823        0.2072       58.7676       58.9748       0.892479       0.00000
  33     6.613       58.0694        0.2728       58.6891       58.9618       0.892479       0.00000
  32     8.786       58.0520        0.3610       58.5834       58.9444       0.892479       0.00000
  31     11.80       58.0271        0.4871       58.4324       58.9196       0.892479       0.00000
  30     15.07       58.0004        0.6223       58.2706       58.8929       0.892479      -0.00000
  29     18.79       57.9704        0.7746       58.0882       58.8629       0.892479       0.00000
  28     23.16       57.9354        0.9522       57.8757       58.8279       0.892479       0.00000
  27     28.12       57.8954        1.1546       57.6333       58.7879       0.892479       0.00000
  26     33.73       57.8509        1.3803       57.3631       58.7434       0.892479       0.00000
  25     40.54       57.7973        1.6519       57.0379       58.6898       0.892479      -0.00000
  24     48.69       57.7330        1.9776       56.6479       58.6255       0.892479       0.00000
  23     57.69       57.6628        2.3332       56.2221       58.5553       0.892479       0.00000
  22     68.43       57.5797        2.7536       55.7186       58.4722       0.892479       0.00000
  21     81.20       57.4816        3.2502       55.1239       58.3741       0.892479       0.00000
  20     96.49       57.3659        3.8355       54.4228       58.2583       0.892479      -0.00000
  19     114.6       57.2301        4.5216       53.6010       58.1226       0.892479       0.00000
  18     136.5       57.0716        5.3223       52.6418       57.9641       0.892479       0.00000
  17     162.9       56.8861        6.2582       51.5203       57.7786       0.892479      -0.00000
  16     196.4       56.6509        7.4439       50.0994       57.5433       0.892479       0.00000
  15     218.7       56.4995        8.2057       49.1863       57.3920       0.892479       0.00000
  14     243.0       56.3378        9.0191       48.2113       57.2303       0.892479      -0.00000
  13     269.0       56.1658        9.8834       47.1749       57.0583       0.892479      -0.00000
  12     297.5       55.9836       10.7978       46.0783       56.8761       0.892479      -0.00000
  11     328.5       55.7909       11.7638       44.9195       56.6833       0.892479       0.00000
  10     361.9       55.5881       12.7787       43.7018       56.4806       0.892479      -0.00000
   9     398.1       55.3752       13.8426       42.4250       56.2676       0.892479       0.00000
   8     437.6       55.1525       14.9533       41.0916       56.0450       0.892479       0.00000
   7     480.5       54.9204       16.1085       39.7045       55.8129       0.892479      -0.00000
   6     533.0       54.6439       17.4821       38.0543       55.5363       0.892479       0.00000
   5     589.8       54.3564       18.9058       36.3431       55.2489       0.892479      -0.00000
   4     651.6       54.0593       20.3722       34.5795       54.9518       0.892479       0.00000
   3     718.7       53.7536       21.8758       32.7702       54.6461       0.892479       0.00000
   2     792.3       53.4408       23.4077       30.9256       54.3333       0.892479      -0.00000
   1     891.5       53.0409       25.3556       28.5778       53.9334       0.892479      -0.00000
   0    1013.0       52.5933       27.5193       25.9665       53.4858       0.892479       0.00000



 Wavenumbers: 29000. - 38000. cm-1, ATM      1
 LEVEL PRESSURE   UPWARD FLUX   DIFDOWN FLUX  DIRDOWN FLUX  DOWNWARD FLUX   NET FLUX    HEATING RATE
          mb          W/m2          W/m2          W/m2        W/m2          W/m2       degree/day
  51    .06700        8.7003        0.0000       20.8114       20.8114      12.111040       0.00000
  50    .07753        8.7001        0.0003       20.8070       20.8074      12.107232       3.05148
  49    .09103        8.6999        0.0007       20.8009       20.8016      12.101695       3.46077
  48    0.1069        8.6996        0.0012       20.7928       20.7939      12.094286       3.94419
  47    0.1255        8.6994        0.0017       20.7820       20.7837      12.084381       4.49023
  46    0.1487        8.6990        0.0024       20.7665       20.7688      12.069818       5.30831
  45    0.1794        8.6986        0.0033       20.7424       20.7457      12.047154       6.22188
  44    0.2165        8.6980        0.0043       20.7103       20.7147      12.016632       6.94322
  43    0.2613        8.6975        0.0056       20.6675       20.6731      11.975639       7.72712
  42    0.3336        8.6966        0.0077       20.5880       20.5956      11.899080       8.92600
  41    0.4307        8.6955        0.0104       20.4722       20.4826      11.787131       9.73374
  40    0.5894        8.6939        0.0147       20.2637       20.2784      11.584453      10.77812
  39     1.339        8.6904        0.0331       19.0984       19.1315      10.441024      12.87293
  38     1.782        8.6909        0.0426       18.4394       18.4820       9.791141      12.37273
  37     2.292        8.6935        0.0529       17.7714       17.8243       9.130854      10.93607
  36     2.964        8.6999        0.0656       17.0421       17.1077       8.407822       9.07623
  35     3.853        8.7125        0.0815       16.2678       16.3493       7.636788       7.31726
  34     5.035        8.7334        0.1016       15.4803       15.5819       6.848507       5.63115
  33     6.613        8.7638        0.1273       14.7157       14.8430       6.079220       4.11261
  32     8.786        8.8039        0.1610       13.9936       14.1546       5.350658       2.82947
  31     11.80        8.8563        0.2080       13.2835       13.4915       4.635204       2.00304
  30     15.07        8.9068        0.2567       12.7394       12.9960       4.089228       1.40960
  29     18.79        8.9589        0.3106       12.2666       12.5772       3.618301       1.06774
  28     23.16        9.0143        0.3720       11.8300       12.2020       3.187721       0.83260
  27     28.12        9.0710        0.4407       11.4279       11.8686       2.797611       0.66316
  26     33.73        9.1232        0.5164       11.0695       11.5859       2.462669       0.50359
  25     40.54        9.1727        0.6069       10.7209       11.3278       2.155077       0.38160
  24     48.69        9.2193        0.7143       10.3742       11.0884       1.869109       0.29593
  23     57.69        9.2574        0.8304       10.0549       10.8853       1.627891       0.22611
  22     68.43        9.2881        0.9667        9.7327       10.6994       1.411380       0.17021
  21     81.20        9.3023        1.1276        9.4134       10.5410       1.238764       0.11406
  20     96.49        9.2981        1.3167        9.0887       10.4055       1.107386       0.07251
  19     114.6        9.2836        1.5352        8.7388       10.2740       0.990462       0.05459
  18     136.5        9.2616        1.7850        8.3549       10.1399       0.878293       0.04313
  17     162.9        9.2323        2.0697        7.9311       10.0008       0.768490       0.03510
  16     196.4        9.1836        2.4222        7.4333        9.8555       0.671866       0.02432
  15     218.7        9.1487        2.6439        7.1295        9.7735       0.624751       0.01789
  14     243.0        9.1104        2.8756        6.8161        9.6917       0.581253       0.01509
  13     269.0        9.0687        3.1165        6.4943        9.6109       0.542202       0.01267
  12     297.5        9.0234        3.3655        6.1657        9.5312       0.507785       0.01021
  11     328.5        8.9761        3.6215        5.8295        9.4510       0.474840       0.00896
  10     361.9        8.9273        3.8822        5.4886        9.3708       0.443515       0.00793
   9     398.1        8.8770        4.1468        5.1440        9.2908       0.413837       0.00691
   8     437.6        8.8257        4.4140        4.7969        9.2110       0.385235       0.00612
   7     480.5        8.7739        4.6816        4.4504        9.1320       0.358093       0.00533
   6     533.0        8.7142        4.9865        4.0563        9.0427       0.328515       0.00476
   5     589.8        8.6552        5.2869        3.6682        8.9551       0.299887       0.00425
   4     651.6        8.5978        5.5791        3.2905        8.8697       0.271891       0.00383
   3     718.7        8.5423        5.8616        2.9252        8.7868       0.244483       0.00344
   2     792.3        8.4897        6.1309        2.5764        8.7073       0.217668       0.00308
   1     891.5        8.4285        6.4472        2.1659        8.6131       0.184580       0.00282
   0    1013.0        8.3688        6.7643        1.7526        8.5169       0.148070       0.00254



 Wavenumbers: 38000. - 50000. cm-1, ATM      1
 LEVEL PRESSURE   UPWARD FLUX   DIFDOWN FLUX  DIRDOWN FLUX  DOWNWARD FLUX   NET FLUX    HEATING RATE
          mb          W/m2          W/m2          W/m2        W/m2          W/m2       degree/day
  51    .06700        0.0061        0.0000        1.2836        1.2836       1.277518       0.00000
  50    .07753        0.0061        0.0001        1.2812        1.2812       1.275183       1.87150
  49    .09103        0.0060        0.0002        1.2777        1.2778       1.271851       2.08247
  48    0.1069        0.0059        0.0002        1.2731        1.2734       1.267473       2.33059
  47    0.1255        0.0058        0.0004        1.2672        1.2675       1.261717       2.60908
  46    0.1487        0.0057        0.0005        1.2586        1.2591       1.253391       3.03499
  45    0.1794        0.0055        0.0007        1.2455        1.2462       1.240623       3.50520
  44    0.2165        0.0054        0.0009        1.2282        1.2291       1.223697       3.85037
  43    0.2613        0.0052        0.0011        1.2054        1.2065       1.201348       4.21261
  42    0.3336        0.0049        0.0015        1.1639        1.1654       1.160524       4.75970
  41    0.4307        0.0045        0.0020        1.1051        1.1070       1.102565       5.03943
  40    0.5894        0.0039        0.0026        1.0039        1.0064       1.002524       5.32007
  39     1.339        0.0022        0.0035        0.5438        0.5473       0.545104       5.14971
  38     1.782        0.0016        0.0032        0.3635        0.3666       0.365006       3.42879
  37     2.292        0.0012        0.0027        0.2356        0.2383       0.237058       2.11916
  36     2.964        0.0009        0.0022        0.1455        0.1477       0.146786       1.13318
  35     3.853        0.0006        0.0017        0.0858        0.0875       0.086906       0.56828
  34     5.035        0.0004        0.0013        0.0488        0.0501       0.049701       0.26578
  33     6.613        0.0003        0.0010        0.0273        0.0282       0.027974       0.11615
  32     8.786        0.0002        0.0007        0.0144        0.0151       0.014928       0.05067
  31     11.80        0.0001        0.0004        0.0065        0.0070       0.006903       0.02247
  30     15.07        0.0000        0.0003        0.0031        0.0034       0.003329       0.00923
  29     18.79        0.0000        0.0002        0.0014        0.0016       0.001583       0.00396
  28     23.16        0.0000        0.0001        0.0006        0.0007       0.000720       0.00167
  27     28.12        0.0000        0.0001        0.0003        0.0003       0.000317       0.00069
  26     33.73        0.0000        0.0000        0.0001        0.0001       0.000140       0.00027
  25     40.54        0.0000        0.0000        0.0000        0.0001       0.000057       0.00010
  24     48.69        0.0000        0.0000        0.0000        0.0000       0.000021       0.00004
  23     57.69        0.0000        0.0000        0.0000        0.0000       0.000008       0.00001
  22     68.43        0.0000        0.0000        0.0000        0.0000       0.000003       0.00000
  21     81.20        0.0000        0.0000        0.0000        0.0000       0.000001       0.00000
  20     96.49        0.0000        0.0000        0.0000        0.0000       0.000000       0.00000
  19     114.6        0.0000        0.0000        0.0000        0.0000       0.000000       0.00000
  18     136.5        0.0000        0.0000        0.0000        0.0000       0.000000       0.00000
  17     162.9        0.0000        0.0000        0.0000        0.0000       0.000000       0.00000
  16     196.4        0.0000        0.0000        0.0000        0.0000       0.000000       0.00000
  15     218.7        0.0000        0.0000        0.0000        0.0000       0.000000       0.00000
  14     243.0        0.0000        0.0000        0.0000        0.0000       0.000000       0.00000
  13     269.0        0.0000        0.0000        0.0000        0.0000       0.000000       0.00000
  12     297.5        0.0000        0.0000        0.0000        0.0000       0.000000       0.00000
  11     328.5        0.0000        0.0000        0.0000        0.0000       0.000000       0.00000
  10     361.9        0.0000        0.0000        0.0000        0.0000       0.000000       0.00000
   9     398.1        0.0000        0.0000        0.0000        0.0000       0.000000       0.00000
   8     437.6        0.0000        0.0000        0.0000        0.0000       0.000000       0.00000
   7     480.5        0.0000        0.0000        0.0000        0.0000       0.000000       0.00000
   6     533.0        0.0000        0.0000        0.0000        0.0000       0.000000       0.00000
   5     589.8        0.0000        0.0000        0.0000        0.0000       0.000000       0.00000
   4     651.6        0.0000        0.0000        0.0000        0.0000       0.000000       0.00000
   3     718.7        0.0000        0.0000        0.0000        0.0000       0.000000       0.00000
   2     792.3        0.0000        0.0000        0.0000        0.0000       0.000000       0.00000
   1     891.5        0.0000        0.0000        0.0000        0.0000       0.000000       0.00000
   0    1013.0        0.0000        0.0000        0.0000        0.0000       0.000000       0.00000



 Wavenumbers:   820. -  2600. cm-1, ATM      1
 LEVEL PRESSURE   UPWARD FLUX   DIFDOWN FLUX  DIRDOWN FLUX  DOWNWARD FLUX   NET FLUX    HEATING RATE
          mb          W/m2          W/m2          W/m2        W/m2          W/m2       degree/day
  51    .06700        0.7137        0.0000        6.0047        6.0047       5.290955       0.00000
  50    .07753        0.7137        0.0000        6.0008        6.0008       5.287102       3.08820
  49    .09103        0.7137        0.0000        5.9999        5.9999       5.286216       0.55357
  48    0.1069        0.7137        0.0000        5.9989        5.9989       5.285227       0.52651
  47    0.1255        0.7137        0.0000        5.9978        5.9978       5.284110       0.50649
  46    0.1487        0.7137        0.0000        5.9964        5.9964       5.282753       0.49456
  45    0.1794        0.7137        0.0000        5.9947        5.9947       5.281033       0.47199
  44    0.2165        0.7137        0.0000        5.9929        5.9929       5.279191       0.41909
  43    0.2613        0.7137        0.0000        5.9909        5.9909       5.277232       0.36932
  42    0.3336        0.7137        0.0000        5.9880        5.9880       5.274354       0.33555
  41    0.4307        0.7137        0.0000        5.9846        5.9846       5.270885       0.30164
  40    0.5894        0.7137        0.0000        5.9791        5.9791       5.265380       0.29275
  39     1.339        0.7137        0.0000        5.9536        5.9536       5.239893       0.28693
  38     1.782        0.7137        0.0000        5.9395        5.9395       5.225755       0.26916
  37     2.292        0.7137        0.0000        5.9237        5.9237       5.210005       0.26087
  36     2.964        0.7137        0.0000        5.9039        5.9039       5.190231       0.24822
  35     3.853        0.7137        0.0000        5.8793        5.8793       5.165576       0.23398
  34     5.035        0.7137        0.0000        5.8487        5.8487       5.135014       0.21832
  33     6.613        0.7137        0.0000        5.8108        5.8108       5.097051       0.20295
  32     8.786        0.7137        0.0000        5.7631        5.7631       5.049428       0.18495
  31     11.80        0.7137        0.0000        5.7039        5.7039       4.990173       0.16590
  30     15.07        0.7137        0.0000        5.6539        5.6539       4.940136       0.12919
  29     18.79        0.7137        0.0000        5.6127        5.6127       4.899001       0.09327
  28     23.16        0.7137        0.0000        5.5794        5.5794       4.865624       0.06454
  27     28.12        0.7138        0.0000        5.5518        5.5518       4.838056       0.04686
  26     33.73        0.7138        0.0000        5.5268        5.5268       4.813000       0.03767
  25     40.54        0.7138        0.0000        5.4993        5.4993       4.785551       0.03405
  24     48.69        0.7138        0.0000        5.4678        5.4678       4.754001       0.03265
  23     57.69        0.7138        0.0000        5.4340        5.4340       4.720201       0.03168
  22     68.43        0.7138        0.0000        5.3947        5.3948       4.680913       0.03089
  21     81.20        0.7139        0.0000        5.3497        5.3497       4.635860       0.02977
  20     96.49        0.7139        0.0000        5.2982        5.2982       4.584322       0.02845
  19     114.6        0.7139        0.0000        5.2389        5.2389       4.524969       0.02771
  18     136.5        0.7140        0.0000        5.1716        5.1717       4.457672       0.02588
  17     162.9        0.7141        0.0000        5.0890        5.0890       4.374982       0.02643
  16     196.4        0.7142        0.0000        4.9668        4.9668       4.252643       0.03079
  15     218.7        0.7143        0.0000        4.8585        4.8585       4.144156       0.04119
  14     243.0        0.7145        0.0000        4.7078        4.7079       3.993336       0.05231
  13     269.0        0.7148        0.0000        4.5343        4.5343       3.819441       0.05641
  12     297.5        0.7154        0.0000        4.3419        4.3420       3.626608       0.05719
  11     328.5        0.7161        0.0000        4.1281        4.1281       3.412081       0.05833
  10     361.9        0.7170        0.0000        3.8786        3.8787       3.161658       0.06336
   9     398.1        0.7183        0.0000        3.6159        3.6159       2.897668       0.06150
   8     437.6        0.7199        0.0000        3.3759        3.3759       2.655947       0.05168
   7     480.5        0.7220        0.0000        3.1957        3.1958       2.473775       0.03578
   6     533.0        0.7252        0.0000        3.0467        3.0467       2.321480       0.02450
   5     589.8        0.7301        0.0000        2.9023        2.9023       2.172251       0.02215
   4     651.6        0.7388        0.0000        2.7183        2.7184       1.979532       0.02635
   3     718.7        0.7541        0.0000        2.5058        2.5059       1.751806       0.02862
   2     792.3        0.7821        0.0000        2.2756        2.2757       1.493616       0.02961
   1     891.5        0.8534        0.0000        1.9621        1.9622       1.108799       0.03275
   0    1013.0        1.0329        0.0000        1.5468        1.5469       0.514025       0.04130

  Modules and versions used in this calculation:

       rrtmg_sw.1col.f90:  $Revision$                    rrtmg_sw_init.f90:  $Revision$        
     rrtmgsw_cldprop.f90:  $Revision$                  rrtmgsw_cldprmc.f90:  NOT USED          
     rrtmg_sw_reftra.f90:  $Revision$                  rrtmg_sw_spcvrt.f90:  NOT USED          
     rrtmg_sw_spcvmc.f90:  NOT USED                    rrtmgsw_setcoef.f90:  NOT USED          
     rrtmg_sw_taumol.f90:  $Revision$                  rrtmg_sw_vrtqdr.f90:  NOT USED          
                rrtatm.f:  NOT USED                             util_xxx.f:  NOT USED          
                 extra.f:  NOT USED                       rrtmg_sw_k_g.f90:  $Revision$        

