

 Wavenumbers:   820. - 50000. cm-1, ATM      1
 LEVEL PRESSURE   UPWARD FLUX   DIFDOWN FLUX  DIRDOWN FLUX  DOWNWARD FLUX   NET FLUX    HEATING RATE
          mb          W/m2          W/m2          W/m2        W/m2          W/m2       degree/day
  51    .06700      357.7596        0.0000      617.8126      617.8126     260.052941       0.00000
  50    .07753      357.7593        0.0013      617.7947      617.7961     260.036806      12.93237
  49    .09103      357.7588        0.0030      617.7778      617.7808     260.022004       9.25212
  48    0.1069      357.7583        0.0050      617.7581      617.7630     260.004751       9.18373
  47    0.1255      357.7577        0.0072      617.7340      617.7412     259.983417       9.67173
  46    0.1487      357.7571        0.0100      617.7009      617.7109     259.953747      10.81525
  45    0.1794      357.7564        0.0138      617.6521      617.6659     259.909538      12.13629
  44    0.2165      357.7556        0.0183      617.5895      617.6078     259.852246      13.03300
  43    0.2613      357.7548        0.0237      617.5089      617.5326     259.777771      14.03822
  42    0.3336      357.7538        0.0324      617.3641      617.3965     259.642755      15.74154
  41    0.4307      357.7529        0.0440      617.1591      617.2031     259.450232      16.73941
  40    0.5894      357.7524        0.0627      616.8005      616.8631     259.110726      18.05448
  39     1.339      357.7678        0.1470      614.9443      615.0912     257.323384      20.12223
  38     1.782      357.7893        0.1944      613.9670      614.1614     256.372159      18.10978
  37     2.292      357.8252        0.2484      613.0059      613.2543     255.429014      15.62095
  36     2.964      357.8893        0.3185      611.9577      612.2762     254.386874      13.08200
  35     3.853      357.9974        0.4105      610.8024      611.2129     253.215525      11.11632
  34     5.035      358.1640        0.5319      609.5327      610.0646     251.900575       9.39346
  33     6.613      358.3989        0.6929      608.1464      608.8394     250.440504       7.80554
  32     8.786      358.7047        0.9090      606.6250      607.5341     248.829358       6.25711
  31     11.80      359.1002        1.2167      604.8486      606.0653     246.965113       5.21930
  30     15.07      359.4760        1.5450      603.2440      604.7889     245.312962       4.26553
  29     18.79      359.8567        1.9143      601.6511      603.5655     243.708758       3.63722
  28     23.16      360.2511        2.3435      599.9927      602.3362     242.085118       3.13960
  27     28.12      360.6431        2.8320      598.2881      601.1200     240.476922       2.73382
  26     33.73      360.9955        3.3765      596.5951      599.9716     238.976066       2.25658
  25     40.54      361.3207        4.0320      594.7727      598.8047     237.484010       1.85106
  24     48.69      361.6153        4.8186      592.7865      597.6051     235.989746       1.54633
  23     57.69      361.8444        5.6783      590.7959      596.4742     234.629845       1.27470
  22     68.43      362.0146        6.6968      588.6191      595.3159     233.301352       1.04437
  21     81.20      362.0747        7.9043      586.2690      594.1733     232.098550       0.79479
  20     96.49      362.0141        9.3338      583.6961      593.0299     231.015842       0.59758
  19     114.6      361.8905       11.0155      580.7708      591.7863     229.895869       0.52295
  18     136.5      361.6998       12.9844      577.4359      590.4203     228.720518       0.45195
  17     162.9      361.4349       15.2948      573.5624      588.8572     227.422329       0.41495
  16     196.4      361.0042       18.2406      568.5907      586.8313     225.827084       0.40154
  15     218.7      360.6919       20.1449      565.0572      585.2021     224.510197       0.49997
  14     243.0      360.3419       22.1871      560.7495      582.9366     222.594764       0.66434
  13     269.0      359.9528       24.3686      555.3947      579.7633     219.810539       0.90319
  12     297.5      359.5255       26.6900      548.9964      575.6864     216.160849       1.08246
  11     328.5      359.0673       29.1576      542.0895      571.2471     212.179818       1.08243
  10     361.9      358.5807       31.7675      534.6242      566.3917     207.811030       1.10535
   9     398.1      358.0683       34.5242      526.4204      560.9446     202.876344       1.14967
   8     437.6      357.5378       37.4263      517.3907      554.8169     197.279087       1.19673
   7     480.5      356.9960       40.4717      507.7216      548.1932     191.197203       1.19446
   6     533.0      356.3780       44.1321      495.9006      540.0327     183.654758       1.21334
   5     589.8      355.7972       47.9721      483.0788      531.0510     175.253734       1.24699
   4     651.6      355.3376       51.9792      468.6907      520.6699     165.332313       1.35678
   3     718.7      355.0862       56.1451      453.2257      509.3708     154.284698       1.38838
   2     792.3      355.2557       60.4482      436.4928      496.9411     141.685356       1.44500
   1     891.5      356.5842       66.0062      413.9344      479.9406     123.356471       1.55970
   0    1013.0      360.8005       72.3257      388.4125      460.7381      99.937618       1.62609



 Wavenumbers:  2600. -  3250. cm-1, ATM      1
 LEVEL PRESSURE   UPWARD FLUX   DIFDOWN FLUX  DIRDOWN FLUX  DOWNWARD FLUX   NET FLUX    HEATING RATE
          mb          W/m2          W/m2          W/m2        W/m2          W/m2       degree/day
  51    .06700        0.0225        0.0000        5.4450        5.4450       5.422489       0.00000
  50    .07753        0.0225        0.0000        5.4450        5.4450       5.422481       0.00640
  49    .09103        0.0225        0.0000        5.4450        5.4450       5.422471       0.00627
  48    0.1069        0.0225        0.0000        5.4450        5.4450       5.422460       0.00613
  47    0.1255        0.0225        0.0000        5.4450        5.4450       5.422446       0.00599
  46    0.1487        0.0225        0.0000        5.4450        5.4450       5.422430       0.00608
  45    0.1794        0.0225        0.0000        5.4450        5.4450       5.422407       0.00625
  44    0.2165        0.0225        0.0000        5.4449        5.4449       5.422380       0.00612
  43    0.2613        0.0225        0.0000        5.4449        5.4449       5.422348       0.00600
  42    0.3336        0.0225        0.0000        5.4448        5.4448       5.422295       0.00617
  41    0.4307        0.0225        0.0000        5.4448        5.4448       5.422224       0.00620
  40    0.5894        0.0225        0.0000        5.4446        5.4446       5.422104       0.00637
  39     1.339        0.0225        0.0000        5.4439        5.4439       5.421397       0.00797
  38     1.782        0.0225        0.0000        5.4434        5.4434       5.420854       0.01034
  37     2.292        0.0225        0.0000        5.4427        5.4427       5.420138       0.01186
  36     2.964        0.0225        0.0000        5.4416        5.4416       5.419099       0.01304
  35     3.853        0.0225        0.0000        5.4402        5.4402       5.417622       0.01402
  34     5.035        0.0225        0.0000        5.4381        5.4381       5.415567       0.01468
  33     6.613        0.0225        0.0000        5.4353        5.4353       5.412786       0.01487
  32     8.786        0.0225        0.0000        5.4317        5.4317       5.409154       0.01411
  31     11.80        0.0225        0.0000        5.4269        5.4269       5.404374       0.01338
  30     15.07        0.0225        0.0000        5.4224        5.4224       5.399848       0.01169
  29     18.79        0.0225        0.0000        5.4180        5.4180       5.395436       0.01000
  28     23.16        0.0225        0.0000        5.4135        5.4135       5.390951       0.00867
  27     28.12        0.0225        0.0000        5.4088        5.4088       5.386304       0.00790
  26     33.73        0.0225        0.0000        5.4036        5.4036       5.381066       0.00788
  25     40.54        0.0225        0.0000        5.3966        5.3967       5.374126       0.00861
  24     48.69        0.0225        0.0000        5.3872        5.3872       5.364653       0.00980
  23     57.69        0.0225        0.0000        5.3754        5.3754       5.352874       0.01104
  22     68.43        0.0225        0.0000        5.3599        5.3599       5.337393       0.01217
  21     81.20        0.0225        0.0000        5.3401        5.3401       5.317570       0.01310
  20     96.49        0.0225        0.0000        5.3155        5.3155       5.293017       0.01355
  19     114.6        0.0225        0.0000        5.2853        5.2853       5.262838       0.01409
  18     136.5        0.0225        0.0000        5.2504        5.2505       5.227956       0.01341
  17     162.9        0.0225        0.0001        5.2111        5.2111       5.188649       0.01256
  16     196.4        0.0225        0.0001        5.1640        5.1641       5.141616       0.01184
  15     218.7        0.0225        0.0001        5.1331        5.1332       5.110698       0.01174
  14     243.0        0.0225        0.0001        5.0962        5.0963       5.073815       0.01279
  13     269.0        0.0225        0.0001        5.0511        5.0512       5.028697       0.01464
  12     297.5        0.0225        0.0001        4.9956        4.9957       4.973210       0.01646
  11     328.5        0.0225        0.0001        4.9304        4.9305       4.907973       0.01774
  10     361.9        0.0225        0.0001        4.8511        4.8512       4.828687       0.02006
   9     398.1        0.0226        0.0001        4.7507        4.7508       4.728248       0.02340
   8     437.6        0.0226        0.0001        4.6220        4.6222       4.599561       0.02751
   7     480.5        0.0227        0.0001        4.4625        4.4626       4.439941       0.03135
   6     533.0        0.0228        0.0002        4.2460        4.2462       4.223395       0.03484
   5     589.8        0.0230        0.0002        3.9954        3.9956       3.972588       0.03723
   4     651.6        0.0233        0.0002        3.7089        3.7090       3.685754       0.03923
   3     718.7        0.0237        0.0002        3.4018        3.4020       3.378264       0.03864
   2     792.3        0.0245        0.0002        3.0564        3.0566       3.032124       0.03970
   1     891.5        0.0262        0.0002        2.5828        2.5830       2.556791       0.04045
   0    1013.0        0.0302        0.0001        2.0845        2.0847       2.054434       0.03488



 Wavenumbers:  3250. -  4000. cm-1, ATM      1
 LEVEL PRESSURE   UPWARD FLUX   DIFDOWN FLUX  DIRDOWN FLUX  DOWNWARD FLUX   NET FLUX    HEATING RATE
          mb          W/m2          W/m2          W/m2        W/m2          W/m2       degree/day
  51    .06700        0.0005        0.0000        9.1795        9.1795       9.179065       0.00000
  50    .07753        0.0005        0.0000        9.1747        9.1747       9.174222       3.88148
  49    .09103        0.0005        0.0000        9.1713        9.1713       9.170834       2.11747
  48    0.1069        0.0005        0.0000        9.1688        9.1688       9.168309       1.34402
  47    0.1255        0.0005        0.0000        9.1665        9.1665       9.166050       1.02422
  46    0.1487        0.0005        0.0000        9.1641        9.1641       9.163609       0.88991
  45    0.1794        0.0005        0.0000        9.1612        9.1612       9.160731       0.79008
  44    0.2165        0.0005        0.0000        9.1583        9.1583       9.157810       0.66430
  43    0.2613        0.0005        0.0000        9.1553        9.1553       9.154837       0.56041
  42    0.3336        0.0005        0.0000        9.1511        9.1511       9.150658       0.48723
  41    0.4307        0.0005        0.0000        9.1464        9.1464       9.145890       0.41459
  40    0.5894        0.0005        0.0000        9.1393        9.1394       9.138884       0.37255
  39     1.339        0.0005        0.0000        9.1127        9.1127       9.112271       0.29962
  38     1.782        0.0005        0.0000        9.1011        9.1011       9.100683       0.22062
  37     2.292        0.0005        0.0000        9.0901        9.0901       9.089616       0.18329
  36     2.964        0.0005        0.0000        9.0776        9.0776       9.077186       0.15603
  35     3.853        0.0005        0.0000        9.0629        9.0629       9.062396       0.14036
  34     5.035        0.0005        0.0000        9.0441        9.0441       9.043657       0.13386
  33     6.613        0.0005        0.0000        9.0191        9.0191       9.018656       0.13366
  32     8.786        0.0005        0.0000        8.9843        8.9843       8.983872       0.13509
  31     11.80        0.0004        0.0000        8.9327        8.9327       8.932256       0.14451
  30     15.07        0.0004        0.0000        8.8758        8.8759       8.875411       0.14676
  29     18.79        0.0004        0.0000        8.8110        8.8110       8.810583       0.14698
  28     23.16        0.0004        0.0000        8.7365        8.7366       8.736139       0.14395
  27     28.12        0.0004        0.0000        8.6554        8.6555       8.655026       0.13789
  26     33.73        0.0004        0.0000        8.5719        8.5719       8.571526       0.12554
  25     40.54        0.0004        0.0001        8.4812        8.4812       8.480802       0.11255
  24     48.69        0.0004        0.0001        8.3838        8.3839       8.383501       0.10069
  23     57.69        0.0004        0.0001        8.2861        8.2862       8.285766       0.09161
  22     68.43        0.0004        0.0001        8.1751        8.1751       8.174769       0.08726
  21     81.20        0.0004        0.0001        8.0457        8.0458       8.045411       0.08548
  20     96.49        0.0003        0.0001        7.8949        7.8950       7.894708       0.08318
  19     114.6        0.0003        0.0001        7.7162        7.7163       7.715998       0.08344
  18     136.5        0.0003        0.0002        7.5193        7.5194       7.519155       0.07569
  17     162.9        0.0003        0.0002        7.2913        7.2915       7.291263       0.07284
  16     196.4        0.0002        0.0002        6.9660        6.9662       6.965991       0.08187
  15     218.7        0.0002        0.0002        6.6648        6.6650       6.664802       0.11435
  14     243.0        0.0002        0.0002        6.2619        6.2622       6.262008       0.13970
  13     269.0        0.0002        0.0003        5.7576        5.7579       5.757709       0.16359
  12     297.5        0.0001        0.0003        5.1719        5.1722       5.172018       0.17371
  11     328.5        0.0001        0.0002        4.5757        4.5760       4.575859       0.16209
  10     361.9        0.0001        0.0002        3.9995        3.9998       3.999684       0.14578
   9     398.1        0.0001        0.0002        3.4655        3.4657       3.465629       0.12442
   8     437.6        0.0001        0.0002        2.9740        2.9742       2.974182       0.10507
   7     480.5        0.0001        0.0002        2.5307        2.5309       2.530811       0.08708
   6     533.0        0.0000        0.0002        2.0614        2.0616       2.061519       0.07549
   5     589.8        0.0000        0.0002        1.6150        1.6151       1.615096       0.06626
   4     651.6        0.0000        0.0001        1.1565        1.1566       1.156564       0.06271
   3     718.7        0.0000        0.0001        0.7390        0.7391       0.739090       0.05246
   2     792.3        0.0000        0.0001        0.3985        0.3985       0.398510       0.03906
   1     891.5        0.0000        0.0000        0.1139        0.1139       0.113929       0.02422
   0    1013.0        0.0002        0.0000        0.0094        0.0094       0.009195       0.00727



 Wavenumbers:  4000. -  4650. cm-1, ATM      1
 LEVEL PRESSURE   UPWARD FLUX   DIFDOWN FLUX  DIRDOWN FLUX  DOWNWARD FLUX   NET FLUX    HEATING RATE
          mb          W/m2          W/m2          W/m2        W/m2          W/m2       degree/day
  51    .06700        0.1413        0.0000       10.7795       10.7795      10.638212       0.00000
  50    .07753        0.1413        0.0000       10.7795       10.7795      10.638211       0.00080
  49    .09103        0.1413        0.0000       10.7795       10.7795      10.638210       0.00078
  48    0.1069        0.1413        0.0000       10.7795       10.7795      10.638209       0.00076
  47    0.1255        0.1413        0.0000       10.7795       10.7795      10.638207       0.00075
  46    0.1487        0.1413        0.0000       10.7795       10.7795      10.638205       0.00076
  45    0.1794        0.1413        0.0000       10.7795       10.7795      10.638202       0.00078
  44    0.2165        0.1413        0.0000       10.7795       10.7795      10.638199       0.00076
  43    0.2613        0.1413        0.0000       10.7795       10.7795      10.638195       0.00075
  42    0.3336        0.1413        0.0000       10.7795       10.7795      10.638188       0.00077
  41    0.4307        0.1413        0.0000       10.7795       10.7795      10.638179       0.00077
  40    0.5894        0.1413        0.0000       10.7795       10.7795      10.638164       0.00080
  39     1.339        0.1413        0.0000       10.7794       10.7794      10.638075       0.00101
  38     1.782        0.1413        0.0000       10.7793       10.7793      10.638005       0.00133
  37     2.292        0.1413        0.0000       10.7792       10.7792      10.637911       0.00156
  36     2.964        0.1413        0.0000       10.7791       10.7791      10.637771       0.00176
  35     3.853        0.1413        0.0000       10.7789       10.7789      10.637563       0.00197
  34     5.035        0.1413        0.0000       10.7786       10.7786      10.637256       0.00219
  33     6.613        0.1413        0.0000       10.7781       10.7781      10.636805       0.00241
  32     8.786        0.1413        0.0000       10.7774       10.7774      10.636139       0.00259
  31     11.80        0.1413        0.0000       10.7763       10.7764      10.635094       0.00293
  30     15.07        0.1413        0.0001       10.7751       10.7751      10.633868       0.00317
  29     18.79        0.1413        0.0001       10.7736       10.7737      10.632385       0.00336
  28     23.16        0.1413        0.0001       10.7717       10.7718      10.630546       0.00356
  27     28.12        0.1412        0.0001       10.7695       10.7696      10.628322       0.00378
  26     33.73        0.1412        0.0001       10.7667       10.7668      10.625581       0.00412
  25     40.54        0.1412        0.0001       10.7629       10.7631      10.621866       0.00461
  24     48.69        0.1412        0.0002       10.7579       10.7581      10.616922       0.00512
  23     57.69        0.1411        0.0002       10.7520       10.7522      10.611068       0.00549
  22     68.43        0.1411        0.0002       10.7446       10.7448      10.603742       0.00576
  21     81.20        0.1411        0.0003       10.7355       10.7358      10.594738       0.00595
  20     96.49        0.1410        0.0003       10.7245       10.7248      10.583804       0.00603
  19     114.6        0.1410        0.0004       10.7107       10.7111      10.570167       0.00637
  18     136.5        0.1409        0.0005       10.6942       10.6947      10.553783       0.00630
  17     162.9        0.1408        0.0006       10.6740       10.6746      10.533773       0.00640
  16     196.4        0.1407        0.0007       10.6464       10.6470      10.506322       0.00691
  15     218.7        0.1407        0.0008       10.6255       10.6262      10.485549       0.00789
  14     243.0        0.1406        0.0008       10.5980       10.5989      10.458277       0.00946
  13     269.0        0.1406        0.0009       10.5611       10.5620      10.421447       0.01195
  12     297.5        0.1405        0.0010       10.5119       10.5130      10.372421       0.01454
  11     328.5        0.1405        0.0011       10.4499       10.4510      10.310463       0.01685
  10     361.9        0.1406        0.0012       10.3702       10.3714      10.230860       0.02014
   9     398.1        0.1406        0.0014       10.2678       10.2691      10.128537       0.02384
   8     437.6        0.1407        0.0015       10.1390       10.1405       9.999801       0.02752
   7     480.5        0.1408        0.0016        9.9877        9.9893       9.848524       0.02971
   6     533.0        0.1409        0.0017        9.7937        9.7954       9.654457       0.03122
   5     589.8        0.1413        0.0019        9.5752        9.5770       9.435770       0.03246
   4     651.6        0.1418        0.0020        9.2958        9.2978       9.155997       0.03826
   3     718.7        0.1427        0.0021        8.9267        8.9289       8.786114       0.04648
   2     792.3        0.1444        0.0022        8.4542        8.4565       8.312064       0.05437
   1     891.5        0.1484        0.0023        7.7948        7.7971       7.648787       0.05644
   0    1013.0        0.1578        0.0024        7.0767        7.0791       6.921215       0.05052



 Wavenumbers:  4650. -  5150. cm-1, ATM      1
 LEVEL PRESSURE   UPWARD FLUX   DIFDOWN FLUX  DIRDOWN FLUX  DOWNWARD FLUX   NET FLUX    HEATING RATE
          mb          W/m2          W/m2          W/m2        W/m2          W/m2       degree/day
  51    .06700        0.0341        0.0000       10.2033       10.2033      10.169245       0.00000
  50    .07753        0.0341        0.0000       10.2031       10.2031      10.169010       0.18901
  49    .09103        0.0341        0.0000       10.2028       10.2028      10.168715       0.18428
  48    0.1069        0.0341        0.0000       10.2025       10.2025      10.168378       0.17931
  47    0.1255        0.0341        0.0000       10.2021       10.2021      10.167993       0.17426
  46    0.1487        0.0341        0.0000       10.2016       10.2016      10.167512       0.17536
  45    0.1794        0.0341        0.0000       10.2010       10.2010      10.166862       0.17850
  44    0.2165        0.0341        0.0000       10.2002       10.2002      10.166103       0.17277
  43    0.2613        0.0341        0.0000       10.1993       10.1993      10.165217       0.16690
  42    0.3336        0.0341        0.0000       10.1979       10.1979      10.163785       0.16702
  41    0.4307        0.0341        0.0000       10.1960       10.1960      10.161944       0.16002
  40    0.5894        0.0341        0.0000       10.1932       10.1932      10.159071       0.15283
  39     1.339        0.0341        0.0000       10.1816       10.1816      10.147479       0.13050
  38     1.782        0.0341        0.0000       10.1760       10.1760      10.141951       0.10525
  37     2.292        0.0341        0.0000       10.1706       10.1706      10.136495       0.09036
  36     2.964        0.0341        0.0000       10.1646       10.1647      10.130573       0.07434
  35     3.853        0.0341        0.0000       10.1584       10.1584      10.124360       0.05896
  34     5.035        0.0341        0.0000       10.1521       10.1521      10.118026       0.04524
  33     6.613        0.0341        0.0000       10.1456       10.1456      10.111573       0.03450
  32     8.786        0.0341        0.0000       10.1386       10.1386      10.104568       0.02720
  31     11.80        0.0340        0.0001       10.1295       10.1296      10.095538       0.02528
  30     15.07        0.0340        0.0001       10.1196       10.1197      10.085673       0.02547
  29     18.79        0.0340        0.0001       10.1076       10.1077      10.073685       0.02718
  28     23.16        0.0340        0.0001       10.0923       10.0924      10.058406       0.02954
  27     28.12        0.0339        0.0002       10.0731       10.0733      10.039348       0.03240
  26     33.73        0.0339        0.0002       10.0500       10.0502      10.016299       0.03465
  25     40.54        0.0339        0.0002       10.0201       10.0203       9.986461       0.03702
  24     48.69        0.0338        0.0003        9.9820        9.9822       9.948378       0.03941
  23     57.69        0.0338        0.0003        9.9384        9.9388       9.904952       0.04071
  22     68.43        0.0337        0.0004        9.8858        9.8861       9.852374       0.04133
  21     81.20        0.0337        0.0004        9.8234        9.8239       9.790192       0.04109
  20     96.49        0.0336        0.0005        9.7518        9.7523       9.718660       0.03948
  19     114.6        0.0335        0.0006        9.6719        9.6725       9.638995       0.03720
  18     136.5        0.0334        0.0007        9.5858        9.5865       9.553080       0.03304
  17     162.9        0.0333        0.0008        9.4940        9.4949       9.461568       0.02925
  16     196.4        0.0332        0.0010        9.3883        9.3893       9.356109       0.02655
  15     218.7        0.0331        0.0011        9.3229        9.3240       9.290948       0.02474
  14     243.0        0.0330        0.0012        9.2520        9.2532       9.220217       0.02453
  13     269.0        0.0329        0.0013        9.1717        9.1730       9.140122       0.02598
  12     297.5        0.0328        0.0015        9.0763        9.0777       9.044969       0.02822
  11     328.5        0.0327        0.0016        8.9650        8.9666       8.933893       0.03020
  10     361.9        0.0326        0.0017        8.8349        8.8366       8.804077       0.03284
   9     398.1        0.0325        0.0019        8.6820        8.6839       8.651414       0.03557
   8     437.6        0.0324        0.0020        8.5028        8.5048       8.472429       0.03827
   7     480.5        0.0323        0.0022        8.2948        8.2970       8.264656       0.04081
   6     533.0        0.0323        0.0023        8.0209        8.0232       7.990945       0.04403
   5     589.8        0.0323        0.0025        7.7063        7.7088       7.676544       0.04667
   4     651.6        0.0323        0.0026        7.3412        7.3438       7.311497       0.04992
   3     718.7        0.0326        0.0027        6.9387        6.9414       6.908826       0.05060
   2     792.3        0.0330        0.0028        6.5066        6.5094       6.476407       0.04959
   1     891.5        0.0341        0.0029        5.9361        5.9390       5.904869       0.04864
   0    1013.0        0.0366        0.0030        5.3025        5.3054       5.268840       0.04416



 Wavenumbers:  5150. -  6150. cm-1, ATM      1
 LEVEL PRESSURE   UPWARD FLUX   DIFDOWN FLUX  DIRDOWN FLUX  DOWNWARD FLUX   NET FLUX    HEATING RATE
          mb          W/m2          W/m2          W/m2        W/m2          W/m2       degree/day
  51    .06700        0.3361        0.0000       25.5798       25.5798      25.243694       0.00000
  50    .07753        0.3361        0.0000       25.5798       25.5798      25.243654       0.03155
  49    .09103        0.3361        0.0000       25.5797       25.5797      25.243603       0.03204
  48    0.1069        0.3361        0.0000       25.5797       25.5797      25.243542       0.03255
  47    0.1255        0.3361        0.0000       25.5796       25.5796      25.243469       0.03305
  46    0.1487        0.3361        0.0000       25.5795       25.5795      25.243374       0.03482
  45    0.1794        0.3361        0.0000       25.5794       25.5794      25.243239       0.03707
  44    0.2165        0.3361        0.0000       25.5792       25.5792      25.243073       0.03763
  43    0.2613        0.3361        0.0000       25.5790       25.5790      25.242870       0.03821
  42    0.3336        0.3361        0.0000       25.5786       25.5786      25.242524       0.04037
  41    0.4307        0.3361        0.0000       25.5782       25.5782      25.242054       0.04091
  40    0.5894        0.3361        0.0000       25.5774       25.5774      25.241265       0.04192
  39     1.339        0.3361        0.0000       25.5735       25.5736      25.237469       0.04274
  38     1.782        0.3361        0.0000       25.5713       25.5713      25.235259       0.04206
  37     2.292        0.3361        0.0001       25.5688       25.5688      25.232760       0.04140
  36     2.964        0.3361        0.0001       25.5656       25.5656      25.229585       0.03986
  35     3.853        0.3360        0.0001       25.5615       25.5616      25.225551       0.03828
  34     5.035        0.3360        0.0001       25.5562       25.5564      25.220358       0.03710
  33     6.613        0.3360        0.0002       25.5494       25.5496      25.213624       0.03600
  32     8.786        0.3359        0.0002       25.5406       25.5408      25.204902       0.03387
  31     11.80        0.3358        0.0003       25.5287       25.5290      25.193113       0.03301
  30     15.07        0.3358        0.0004       25.5167       25.5171      25.181299       0.03050
  29     18.79        0.3357        0.0005       25.5042       25.5046      25.168958       0.02798
  28     23.16        0.3356        0.0006       25.4907       25.4913      25.155675       0.02568
  27     28.12        0.3355        0.0007       25.4764       25.4771      25.141684       0.02378
  26     33.73        0.3353        0.0008       25.4620       25.4629      25.127529       0.02128
  25     40.54        0.3352        0.0010       25.4463       25.4473      25.112085       0.01916
  24     48.69        0.3350        0.0012       25.4294       25.4306      25.095593       0.01707
  23     57.69        0.3348        0.0014       25.4126       25.4140      25.079267       0.01530
  22     68.43        0.3345        0.0017       25.3944       25.3961      25.061591       0.01390
  21     81.20        0.3342        0.0020       25.3744       25.3764      25.042191       0.01282
  20     96.49        0.3339        0.0024       25.3519       25.3543      25.020437       0.01201
  19     114.6        0.3335        0.0028       25.3262       25.3290      24.995530       0.01163
  18     136.5        0.3330        0.0034       25.2962       25.2996      24.966574       0.01113
  17     162.9        0.3324        0.0040       25.2521       25.2561      24.923692       0.01371
  16     196.4        0.3317        0.0048       25.1593       25.1641      24.832447       0.02297
  15     218.7        0.3312        0.0053       25.0159       25.0213      24.690083       0.05405
  14     243.0        0.3307        0.0059       24.7089       24.7148      24.384108       0.10612
  13     269.0        0.3301        0.0064       24.1619       24.1682      23.838083       0.17713
  12     297.5        0.3296        0.0068       23.4544       23.4612      23.131641       0.20952
  11     328.5        0.3290        0.0073       22.7355       22.7428      22.413771       0.19519
  10     361.9        0.3285        0.0078       21.9224       21.9302      21.601773       0.20544
   9     398.1        0.3279        0.0082       20.9939       21.0022      20.674262       0.21609
   8     437.6        0.3273        0.0086       19.9833       19.9920      19.664622       0.21587
   7     480.5        0.3268        0.0090       18.9483       18.9573      18.630474       0.20310
   6     533.0        0.3262        0.0094       17.7796       17.7890      17.462703       0.18786
   5     589.8        0.3258        0.0097       16.6726       16.6823      16.356482       0.16420
   4     651.6        0.3256        0.0101       15.6343       15.6444      15.318730       0.14192
   3     718.7        0.3259        0.0105       14.7738       14.7843      14.458346       0.10813
   2     792.3        0.3271        0.0110       14.0291       14.0401      13.712965       0.08549
   1     891.5        0.3312        0.0116       13.0822       13.0938      12.762527       0.08088
   0    1013.0        0.3445        0.0121       12.0384       12.0505      11.705952       0.07336



 Wavenumbers:  6150. -  7700. cm-1, ATM      1
 LEVEL PRESSURE   UPWARD FLUX   DIFDOWN FLUX  DIRDOWN FLUX  DOWNWARD FLUX   NET FLUX    HEATING RATE
          mb          W/m2          W/m2          W/m2        W/m2          W/m2       degree/day
  51    .06700        1.2194        0.0000       47.3109       47.3109      46.091458       0.00000
  50    .07753        1.2194        0.0000       47.3108       47.3108      46.091401       0.04553
  49    .09103        1.2194        0.0000       47.3107       47.3107      46.091328       0.04583
  48    0.1069        1.2194        0.0000       47.3106       47.3106      46.091241       0.04614
  47    0.1255        1.2194        0.0000       47.3105       47.3105      46.091139       0.04645
  46    0.1487        1.2194        0.0000       47.3104       47.3104      46.091006       0.04852
  45    0.1794        1.2194        0.0000       47.3102       47.3102      46.090819       0.05127
  44    0.2165        1.2194        0.0000       47.3100       47.3100      46.090592       0.05167
  43    0.2613        1.2194        0.0000       47.3097       47.3097      46.090315       0.05210
  42    0.3336        1.2194        0.0000       47.3092       47.3092      46.089846       0.05471
  41    0.4307        1.2194        0.0000       47.3085       47.3086      46.089211       0.05521
  40    0.5894        1.2193        0.0001       47.3074       47.3075      46.088152       0.05633
  39     1.339        1.2193        0.0001       47.3022       47.3023      46.083060       0.05733
  38     1.782        1.2192        0.0002       47.2991       47.2993      46.080089       0.05655
  37     2.292        1.2192        0.0002       47.2956       47.2959      46.076714       0.05591
  36     2.964        1.2191        0.0003       47.2912       47.2915      46.072396       0.05421
  35     3.853        1.2190        0.0004       47.2855       47.2859      46.066861       0.05252
  34     5.035        1.2189        0.0005       47.2780       47.2786      46.059681       0.05129
  33     6.613        1.2187        0.0007       47.2683       47.2690      46.050293       0.05019
  32     8.786        1.2185        0.0009       47.2556       47.2565      46.037994       0.04776
  31     11.80        1.2182        0.0013       47.2380       47.2393      46.021091       0.04732
  30     15.07        1.2179        0.0016       47.2201       47.2217      46.003805       0.04463
  29     18.79        1.2175        0.0020       47.2008       47.2028      45.985326       0.04190
  28     23.16        1.2170        0.0025       47.1795       47.1820      45.964938       0.03942
  27     28.12        1.2165        0.0030       47.1565       47.1595      45.942946       0.03738
  26     33.73        1.2160        0.0036       47.1324       47.1360      45.920028       0.03446
  25     40.54        1.2153        0.0043       47.1054       47.1097      45.894395       0.03180
  24     48.69        1.2144        0.0052       47.0754       47.0806      45.866148       0.02923
  23     57.69        1.2135        0.0061       47.0449       47.0511      45.837533       0.02682
  22     68.43        1.2124        0.0072       47.0110       47.0182      45.805805       0.02494
  21     81.20        1.2111        0.0086       46.9729       46.9815      45.770324       0.02345
  20     96.49        1.2096        0.0102       46.9294       46.9396      45.730001       0.02226
  19     114.6        1.2077        0.0121       46.8790       46.8911      45.683395       0.02176
  18     136.5        1.2055        0.0144       46.8200       46.8344      45.628812       0.02099
  17     162.9        1.2029        0.0171       46.7361       46.7532      45.550264       0.02511
  16     196.4        1.1996        0.0206       46.5703       46.5908      45.391252       0.04003
  15     218.7        1.1974        0.0228       46.3473       46.3701      45.172724       0.08297
  14     243.0        1.1950        0.0251       45.9299       45.9550      44.759955       0.14316
  13     269.0        1.1926        0.0274       45.1708       45.1982      44.005619       0.24470
  12     297.5        1.1900        0.0296       44.0115       44.0410      42.851017       0.34244
  11     328.5        1.1874        0.0318       42.7242       42.7560      41.568544       0.34870
  10     361.9        1.1848        0.0339       41.3539       41.3879      40.203051       0.34548
   9     398.1        1.1822        0.0360       39.7953       39.8313      38.649037       0.36205
   8     437.6        1.1797        0.0378       37.9948       38.0326      36.852860       0.38403
   7     480.5        1.1774        0.0395       36.0647       36.1042      34.926740       0.37828
   6     533.0        1.1753        0.0411       33.7773       33.8184      32.643117       0.36736
   5     589.8        1.1740        0.0424       31.4082       31.4506      30.276581       0.35127
   4     651.6        1.1748        0.0432       28.8834       28.9266      27.751813       0.34527
   3     718.7        1.1790        0.0437       26.4104       26.4541      25.275142       0.31125
   2     792.3        1.1896        0.0439       24.0056       24.0496      22.859912       0.27700
   1     891.5        1.2209        0.0440       21.2348       21.2788      20.057890       0.23844
   0    1013.0        1.3100        0.0441       18.6150       18.6591      17.349093       0.18809



 Wavenumbers:  7700. -  8050. cm-1, ATM      1
 LEVEL PRESSURE   UPWARD FLUX   DIFDOWN FLUX  DIRDOWN FLUX  DOWNWARD FLUX   NET FLUX    HEATING RATE
          mb          W/m2          W/m2          W/m2        W/m2          W/m2       degree/day
  51    .06700        2.5598        0.0000       11.1810       11.1810       8.621209       0.00000
  50    .07753        2.5598        0.0000       11.1809       11.1809       8.621190       0.01556
  49    .09103        2.5598        0.0000       11.1809       11.1809       8.621165       0.01525
  48    0.1069        2.5598        0.0000       11.1809       11.1809       8.621137       0.01493
  47    0.1255        2.5598        0.0000       11.1809       11.1809       8.621105       0.01461
  46    0.1487        2.5598        0.0000       11.1808       11.1808       8.621064       0.01483
  45    0.1794        2.5598        0.0000       11.1808       11.1808       8.621009       0.01526
  44    0.2165        2.5598        0.0000       11.1807       11.1807       8.620943       0.01497
  43    0.2613        2.5598        0.0000       11.1806       11.1806       8.620865       0.01469
  42    0.3336        2.5598        0.0000       11.1805       11.1805       8.620736       0.01503
  41    0.4307        2.5598        0.0000       11.1803       11.1804       8.620565       0.01486
  40    0.5894        2.5598        0.0000       11.1801       11.1801       8.620286       0.01485
  39     1.339        2.5599        0.0001       11.1788       11.1789       8.618966       0.01487
  38     1.782        2.5600        0.0001       11.1781       11.1781       8.618190       0.01477
  37     2.292        2.5600        0.0001       11.1772       11.1773       8.617292       0.01487
  36     2.964        2.5601        0.0001       11.1761       11.1762       8.616113       0.01480
  35     3.853        2.5602        0.0002       11.1746       11.1748       8.614557       0.01477
  34     5.035        2.5603        0.0002       11.1726       11.1728       8.612489       0.01477
  33     6.613        2.5605        0.0003       11.1700       11.1703       8.609727       0.01476
  32     8.786        2.5608        0.0004       11.1664       11.1668       8.606008       0.01444
  31     11.80        2.5612        0.0006       11.1613       11.1618       8.600694       0.01488
  30     15.07        2.5615        0.0007       11.1558       11.1565       8.594994       0.01471
  29     18.79        2.5620        0.0009       11.1497       11.1506       8.588566       0.01458
  28     23.16        2.5625        0.0011       11.1425       11.1436       8.581071       0.01449
  27     28.12        2.5631        0.0013       11.1343       11.1356       8.572519       0.01454
  26     33.73        2.5638        0.0016       11.1252       11.1268       8.562974       0.01435
  25     40.54        2.5646        0.0019       11.1142       11.1161       8.551478       0.01426
  24     48.69        2.5656        0.0023       11.1010       11.1033       8.537673       0.01429
  23     57.69        2.5667        0.0027       11.0866       11.0893       8.522579       0.01415
  22     68.43        2.5680        0.0032       11.0695       11.0727       8.504698       0.01406
  21     81.20        2.5696        0.0038       11.0494       11.0531       8.483532       0.01399
  20     96.49        2.5715        0.0045       11.0255       11.0300       8.458503       0.01381
  19     114.6        2.5738        0.0053       10.9975       11.0028       8.429055       0.01375
  18     136.5        2.5765        0.0063       10.9648       10.9711       8.394520       0.01328
  17     162.9        2.5799        0.0075       10.9263       10.9337       8.353896       0.01299
  16     196.4        2.5842        0.0090       10.8773       10.8862       8.301982       0.01307
  15     218.7        2.5872        0.0100       10.8455       10.8555       8.268311       0.01278
  14     243.0        2.5904        0.0110       10.8114       10.8225       8.232037       0.01258
  13     269.0        2.5940        0.0122       10.7749       10.7871       8.193035       0.01265
  12     297.5        2.5980        0.0134       10.7357       10.7492       8.151133       0.01243
  11     328.5        2.6024        0.0148       10.6937       10.7085       8.106089       0.01225
  10     361.9        2.6074        0.0163       10.6489       10.6651       8.057738       0.01223
   9     398.1        2.6129        0.0178       10.6008       10.6186       8.005690       0.01213
   8     437.6        2.6191        0.0195       10.5491       10.5686       7.949463       0.01202
   7     480.5        2.6261        0.0213       10.4934       10.5147       7.888607       0.01195
   6     533.0        2.6353        0.0235       10.4243       10.4478       7.812454       0.01225
   5     589.8        2.6461        0.0258       10.3479       10.3737       7.727604       0.01259
   4     651.6        2.6592        0.0283       10.2613       10.2897       7.630462       0.01328
   3     718.7        2.6754        0.0310       10.1618       10.1928       7.517313       0.01422
   2     792.3        2.6962        0.0338       10.0439       10.0777       7.381455       0.01558
   1     891.5        2.7316        0.0375        9.8626        9.9001       7.168453       0.01813
   0    1013.0        2.7882        0.0417        9.6103        9.6520       6.863776       0.02116



 Wavenumbers:  8050. - 12850. cm-1, ATM      1
 LEVEL PRESSURE   UPWARD FLUX   DIFDOWN FLUX  DIRDOWN FLUX  DOWNWARD FLUX   NET FLUX    HEATING RATE
          mb          W/m2          W/m2          W/m2        W/m2          W/m2       degree/day
  51    .06700       73.1587        0.0000      156.5418      156.5418      83.383065       0.00000
  50    .07753       73.1587        0.0000      156.5417      156.5417      83.383065       0.00000
  49    .09103       73.1587        0.0001      156.5417      156.5417      83.383065      -0.00000
  48    0.1069       73.1586        0.0001      156.5416      156.5417      83.383065       0.00000
  47    0.1255       73.1586        0.0002      156.5415      156.5417      83.383065       0.00000
  46    0.1487       73.1586        0.0002      156.5414      156.5416      83.383065      -0.00000
  45    0.1794       73.1585        0.0003      156.5413      156.5416      83.383065       0.00000
  44    0.2165       73.1585        0.0004      156.5412      156.5416      83.383065      -0.00000
  43    0.2613       73.1584        0.0005      156.5410      156.5415      83.383065       0.00000
  42    0.3336       73.1583        0.0007      156.5407      156.5414      83.383065      -0.00000
  41    0.4307       73.1582        0.0010      156.5403      156.5413      83.383065      -0.00000
  40    0.5894       73.1580        0.0014      156.5397      156.5411      83.383065       0.00000
  39     1.339       73.1570        0.0034      156.5367      156.5401      83.383065       0.00000
  38     1.782       73.1565        0.0045      156.5350      156.5395      83.383065      -0.00000
  37     2.292       73.1558        0.0059      156.5330      156.5389      83.383065      -0.00000
  36     2.964       73.1549        0.0077      156.5303      156.5380      83.383065       0.00000
  35     3.853       73.1538        0.0100      156.5268      156.5369      83.383065      -0.00000
  34     5.035       73.1523        0.0131      156.5222      156.5353      83.383065      -0.00000
  33     6.613       73.1502        0.0173      156.5160      156.5333      83.383065       0.00000
  32     8.786       73.1475        0.0229      156.5076      156.5305      83.383065      -0.00000
  31     11.80       73.1435        0.0310      156.4957      156.5266      83.383065       0.00000
  30     15.07       73.1393        0.0396      156.4828      156.5224      83.383065      -0.00000
  29     18.79       73.1345        0.0494      156.4682      156.5176      83.383065      -0.00000
  28     23.16       73.1289        0.0608      156.4512      156.5120      83.383065      -0.00000
  27     28.12       73.1225        0.0739      156.4317      156.5056      83.383065       0.00000
  26     33.73       73.1154        0.0886      156.4099      156.4984      83.383065       0.00000
  25     40.54       73.1067        0.1063      156.3834      156.4897      83.383065       0.00000
  24     48.69       73.0962        0.1277      156.3515      156.4793      83.383065      -0.00000
  23     57.69       73.0847        0.1513      156.3164      156.4677      83.383065      -0.00000
  22     68.43       73.0709        0.1794      156.2746      156.4540      83.383065      -0.00000
  21     81.20       73.0545        0.2130      156.2246      156.4375      83.383065       0.00000
  20     96.49       73.0349        0.2530      156.1649      156.4179      83.383065       0.00000
  19     114.6       73.0117        0.3006      156.0879      156.3886      83.376894       0.00288
  18     136.5       72.9841        0.3572      155.9962      156.3533      83.369234       0.00295
  17     162.9       72.9512        0.4247      155.8831      156.3077      83.356508       0.00407
  16     196.4       72.9085        0.5124      155.7199      156.2324      83.323834       0.00822
  15     218.7       72.8806        0.5701      155.5733      156.1434      83.262857       0.02315
  14     243.0       72.8506        0.6329      155.3367      155.9695      83.118986       0.04990
  13     269.0       72.8189        0.7007      154.9514      155.6521      82.833219       0.09270
  12     297.5       72.7864        0.7736      154.3896      155.1632      82.376868       0.13535
  11     328.5       72.7535        0.8522      153.7151      154.5673      81.813852       0.15308
  10     361.9       72.7214        0.9366      152.9087      153.8453      81.123941       0.17455
   9     398.1       72.6919        1.0267      151.8986      152.9253      80.233429       0.20747
   8     437.6       72.6684        1.1225      150.6031      151.7257      79.057300       0.25146
   7     480.5       72.6547        1.2237      149.0014      150.2250      77.570372       0.29203
   6     533.0       72.6596        1.3458      146.7375      148.0834      75.423765       0.34532
   5     589.8       72.7046        1.4735      143.8730      145.3465      72.641851       0.41293
   4     651.6       72.8360        1.6041      140.0955      141.6996      68.863639       0.51668
   3     718.7       73.1132        1.7363      135.5278      137.2641      64.150911       0.59226
   2     792.3       73.6671        1.8668      130.0690      131.9358      58.268695       0.67462
   1     891.5       75.0986        2.0240      122.1273      124.1513      49.052695       0.78424
   0    1013.0       78.6290        2.1919      112.9512      115.1431      36.514036       0.87062



 Wavenumbers: 12850. - 16000. cm-1, ATM      1
 LEVEL PRESSURE   UPWARD FLUX   DIFDOWN FLUX  DIRDOWN FLUX  DOWNWARD FLUX   NET FLUX    HEATING RATE
          mb          W/m2          W/m2          W/m2        W/m2          W/m2       degree/day
  51    .06700       75.3908        0.0000       98.0872       98.0872      22.696488       0.00000
  50    .07753       75.3907        0.0001       98.0864       98.0864      22.695698       0.63377
  49    .09103       75.3907        0.0002       98.0853       98.0854      22.694705       0.62060
  48    0.1069       75.3907        0.0003       98.0841       98.0843      22.693564       0.60716
  47    0.1255       75.3908        0.0004       98.0826       98.0830      22.692254       0.59400
  46    0.1487       75.3908        0.0005       98.0809       98.0814      22.690601       0.60259
  45    0.1794       75.3908        0.0007       98.0784       98.0792      22.688352       0.61721
  44    0.2165       75.3909        0.0010       98.0756       98.0766      22.685708       0.60143
  43    0.2613       75.3910        0.0012       98.0723       98.0736      22.682600       0.58585
  42    0.3336       75.3912        0.0017       98.0670       98.0687      22.677530       0.59116
  41    0.4307       75.3915        0.0023       98.0602       98.0625      22.670977       0.56979
  40    0.5894       75.3922        0.0033       98.0496       98.0529      22.660659       0.54870
  39     1.339       75.3983        0.0080       98.0043       98.0124      22.614049       0.52475
  38     1.782       75.4039        0.0108       97.9793       97.9901      22.586160       0.53096
  37     2.292       75.4123        0.0140       97.9498       97.9638      22.551489       0.57424
  36     2.964       75.4262        0.0182       97.9088       97.9270      22.500850       0.63567
  35     3.853       75.4486        0.0238       97.8503       97.8741      22.425513       0.71496
  34     5.035       75.4824        0.0312       97.7680       97.7991      22.316755       0.77692
  33     6.613       75.5296        0.0410       97.6562       97.6972      22.167625       0.79725
  32     8.786       75.5910        0.0543       97.5107       97.5650      21.973953       0.75215
  31     11.80       75.6709        0.0733       97.3179       97.3911      21.720170       0.71051
  30     15.07       75.7475        0.0936       97.1283       97.2219      21.474415       0.63449
  29     18.79       75.8257        0.1166       96.9300       97.0466      21.220900       0.57480
  28     23.16       75.9074        0.1434       96.7166       96.8599      20.952544       0.51891
  27     28.12       75.9896        0.1740       96.4935       96.6675      20.677875       0.46692
  26     33.73       76.0656        0.2083       96.2731       96.4813      20.415787       0.39405
  25     40.54       76.1388        0.2497       96.0408       96.2904      20.151682       0.32765
  24     48.69       76.2089        0.2996       95.7946       96.0942      19.885216       0.27575
  23     57.69       76.2685        0.3544       95.5573       95.9117      19.643183       0.22687
  22     68.43       76.3205        0.4198       95.3106       95.7304      19.409888       0.18340
  21     81.20       76.3564        0.4977       95.0643       95.5621      19.205656       0.13495
  20     96.49       76.3751        0.5907       94.8153       95.4060      19.030849       0.09648
  19     114.6       76.3988        0.7023       94.5411       95.2434      18.844582       0.08697
  18     136.5       76.4158        0.8346       94.2320       95.0666      18.650858       0.07449
  17     162.9       76.4258        0.9921       93.8753       94.8674      18.441601       0.06689
  16     196.4       76.4173        1.1963       93.4347       94.6310      18.213719       0.05736
  15     218.7       76.4039        1.3305       93.1513       94.4817      18.077837       0.05159
  14     243.0       76.3860        1.4762       92.8439       94.3202      17.934197       0.04982
  13     269.0       76.3634        1.6342       92.5111       94.1453      17.781954       0.04939
  12     297.5       76.3365        1.8049       92.1495       93.9544      17.617914       0.04865
  11     328.5       76.3071        1.9893       91.7554       93.7447      17.437651       0.04901
  10     361.9       76.2759        2.1879       91.3262       93.5141      17.238207       0.05046
   9     398.1       76.2441        2.4016       90.8575       93.2591      17.015036       0.05199
   8     437.6       76.2140        2.6309       90.3418       92.9727      16.758726       0.05480
   7     480.5       76.1880        2.8766       89.7728       92.6494      16.461422       0.05839
   6     533.0       76.1685        3.1787       89.0428       92.2216      16.053088       0.06569
   5     589.8       76.1712        3.5035       88.2038       91.7073      15.536081       0.07674
   4     651.6       76.2235        3.8506       87.1979       91.0486      14.825045       0.09724
   3     718.7       76.3431        4.2185       86.0161       90.2346      13.891468       0.11732
   2     792.3       76.5878        4.6033       84.5970       89.2003      12.612484       0.14669
   1     891.5       77.1945        5.1041       82.4374       87.5415      10.347029       0.19278
   0    1013.0       78.4763        5.6790       79.6182       85.2972       6.820832       0.24484



 Wavenumbers: 16000. - 22650. cm-1, ATM      1
 LEVEL PRESSURE   UPWARD FLUX   DIFDOWN FLUX  DIRDOWN FLUX  DOWNWARD FLUX   NET FLUX    HEATING RATE
          mb          W/m2          W/m2          W/m2        W/m2          W/m2       degree/day
  51    .06700      138.1252        0.0000      156.3892      156.3892      18.264020       0.00000
  50    .07753      138.1252        0.0004      156.3887      156.3891      18.263874       0.11713
  49    .09103      138.1252        0.0009      156.3879      156.3888      18.263662       0.13285
  48    0.1069      138.1252        0.0015      156.3871      156.3885      18.263377       0.15149
  47    0.1255      138.1252        0.0021      156.3861      156.3882      18.262996       0.17268
  46    0.1487      138.1252        0.0029      156.3847      156.3876      18.262435       0.20462
  45    0.1794      138.1253        0.0041      156.3828      156.3869      18.261557       0.24093
  44    0.2165      138.1255        0.0054      156.3805      156.3859      18.260367       0.27078
  43    0.2613      138.1258        0.0070      156.3776      156.3846      18.258752       0.30442
  42    0.3336      138.1265        0.0096      156.3726      156.3822      18.255682       0.35799
  41    0.4307      138.1277        0.0130      156.3657      156.3788      18.251053       0.40242
  40    0.5894      138.1302        0.0187      156.3537      156.3724      18.242226       0.46940
  39     1.339      138.1519        0.0455      156.2834      156.3289      18.177013       0.73419
  38     1.782      138.1721        0.0612      156.2324      156.2936      18.121458       1.05766
  37     2.292      138.2025        0.0794      156.1641      156.2435      18.041044       1.33188
  36     2.964      138.2530        0.1033      156.0605      156.1638      17.910772       1.63530
  35     3.853      138.3349        0.1348      155.9041      156.0389      17.704066       1.96168
  34     5.035      138.4584        0.1767      155.6774      155.8541      17.395681       2.20297
  33     6.613      138.6310        0.2325      155.3656      155.5982      16.967128       2.29104
  32     8.786      138.8559        0.3077      154.9577      155.2654      16.409504       2.16561
  31     11.80      139.1483        0.4151      154.4153      154.8303      15.681983       2.03683
  30     15.07      139.4284        0.5302      153.8804      154.4106      14.982169       1.80678
  29     18.79      139.7141        0.6600      153.3191      153.9791      14.264963       1.62613
  28     23.16      140.0125        0.8114      152.7126      153.5240      13.511408       1.45713
  27     28.12      140.3125        0.9843      152.0755      153.0598      12.747223       1.29906
  26     33.73      140.5890        1.1775      151.4409      152.6185      12.029468       1.07916
  25     40.54      140.8544        1.4108      150.7637      152.1745      11.320111       0.88004
  24     48.69      141.1077        1.6917      150.0338      151.7256      10.617881       0.72670
  23     57.69      141.3215        2.0000      149.3151      151.3151       9.993567       0.58520
  22     68.43      141.5067        2.3666      148.5476      150.9142       9.407538       0.46070
  21     81.20      141.6320        2.8032      147.7517      150.5548       8.922785       0.32032
  20     96.49      141.6930        3.3228      146.9127      150.2354       8.542399       0.20995
  19     114.6      141.7202        3.9379      145.9763      149.9142       8.194066       0.16265
  18     136.5      141.7216        4.6643      144.9088      149.5731       7.851418       0.13176
  17     162.9      141.6955        5.5251      143.6785      149.2037       7.508208       0.10970
  16     196.4      141.6012        6.6357      142.1651      148.8008       7.199551       0.07769
  15     218.7      141.5173        7.3614      141.2033      148.5648       7.047505       0.05773
  14     243.0      141.4159        8.1469      140.1753      148.3222       6.906300       0.04897
  13     269.0      141.2955        8.9941      139.0797      148.0738       6.778336       0.04151
  12     297.5      141.1553        9.9053      137.9141      147.8193       6.663995       0.03391
  11     328.5      140.9993       10.8845      136.6676      147.5521       6.552757       0.03025
  10     361.9      140.8272       11.9328      135.3392      147.2719       6.444767       0.02732
   9     398.1      140.6383       13.0540      133.9235      146.9775       6.339157       0.02460
   8     437.6      140.4336       14.2502      132.4163      146.6664       6.232839       0.02273
   7     480.5      140.2126       15.5234      130.8147      146.3381       6.125546       0.02107
   6     533.0      139.9405       17.0783      128.8599      145.9383       5.997817       0.02055
   5     589.8      139.6508       18.7395      126.7679      145.5074       5.856628       0.02096
   4     651.6      139.3495       20.5083      124.5274      145.0358       5.686294       0.02329
   3     718.7      139.0423       22.3866      122.1285      144.5151       5.472756       0.02684
   2     792.3      138.7453       24.3721      119.5548      143.9269       5.181627       0.03339
   1     891.5      138.4215       27.0070      116.0566      143.0636       4.642030       0.04592
   0    1013.0      138.1591       30.1021      111.8404      141.9425       3.783381       0.05962



 Wavenumbers: 22650. - 29000. cm-1, ATM      1
 LEVEL PRESSURE   UPWARD FLUX   DIFDOWN FLUX  DIRDOWN FLUX  DOWNWARD FLUX   NET FLUX    HEATING RATE
          mb          W/m2          W/m2          W/m2        W/m2          W/m2       degree/day
  51    .06700       58.0882        0.0000       59.0156       59.0156       0.927439       0.00000
  50    .07753       58.0881        0.0005       59.0151       59.0155       0.927439       0.00000
  49    .09103       58.0880        0.0010       59.0144       59.0154       0.927439       0.00000
  48    0.1069       58.0878        0.0017       59.0136       59.0153       0.927439      -0.00000
  47    0.1255       58.0877        0.0025       59.0127       59.0151       0.927439       0.00000
  46    0.1487       58.0875        0.0034       59.0115       59.0149       0.927439      -0.00000
  45    0.1794       58.0872        0.0048       59.0099       59.0147       0.927439       0.00000
  44    0.2165       58.0869        0.0063       59.0080       59.0144       0.927439       0.00000
  43    0.2613       58.0866        0.0082       59.0058       59.0140       0.927439       0.00000
  42    0.3336       58.0860        0.0112       59.0022       59.0134       0.927439      -0.00000
  41    0.4307       58.0852        0.0153       58.9973       59.0126       0.927439       0.00000
  40    0.5894       58.0838        0.0219       58.9894       59.0113       0.927439       0.00000
  39     1.339       58.0776        0.0533       58.9518       59.0051       0.927439      -0.00000
  38     1.782       58.0740        0.0717       58.9297       59.0014       0.927439       0.00000
  37     2.292       58.0698        0.0931       58.9042       58.9972       0.927439       0.00000
  36     2.964       58.0643        0.1211       58.8706       58.9917       0.927439       0.00000
  35     3.853       58.0570        0.1580       58.8264       58.9844       0.927439       0.00000
  34     5.035       58.0473        0.2071       58.7676       58.9747       0.927439       0.00000
  33     6.613       58.0343        0.2727       58.6891       58.9618       0.927439       0.00000
  32     8.786       58.0169        0.3609       58.5834       58.9444       0.927439      -0.00000
  31     11.80       57.9920        0.4870       58.4324       58.9195       0.927439       0.00000
  30     15.07       57.9653        0.6221       58.2706       58.8928       0.927439       0.00000
  29     18.79       57.9352        0.7744       58.0882       58.8627       0.927439      -0.00000
  28     23.16       57.9002        0.9519       57.8757       58.8276       0.927439       0.00000
  27     28.12       57.8602        1.1543       57.6333       58.7876       0.927439       0.00000
  26     33.73       57.8156        1.3800       57.3631       58.7430       0.927439      -0.00000
  25     40.54       57.7619        1.6515       57.0379       58.6894       0.927439       0.00000
  24     48.69       57.6976        1.9771       56.6479       58.6250       0.927439       0.00000
  23     57.69       57.6272        2.3326       56.2221       58.5547       0.927439      -0.00000
  22     68.43       57.5441        2.7529       55.7186       58.4715       0.927439       0.00000
  21     81.20       57.4458        3.2493       55.1239       58.3733       0.927439       0.00000
  20     96.49       57.3299        3.8346       54.4228       58.2574       0.927439      -0.00000
  19     114.6       57.1940        4.5204       53.6010       58.1214       0.927439       0.00000
  18     136.5       57.0352        5.3209       52.6418       57.9627       0.927439      -0.00000
  17     162.9       56.8495        6.2566       51.5203       57.7769       0.927439       0.00000
  16     196.4       56.6139        7.4419       50.0994       57.5413       0.927439      -0.00000
  15     218.7       56.4624        8.2035       49.1863       57.3898       0.927439      -0.00000
  14     243.0       56.3004        9.0166       48.2113       57.2278       0.927439       0.00000
  13     269.0       56.1281        9.8806       47.1749       57.0556       0.927439       0.00000
  12     297.5       55.9456       10.7948       46.0783       56.8730       0.927439      -0.00000
  11     328.5       55.7526       11.7605       44.9195       56.6800       0.927439       0.00000
  10     361.9       55.5494       12.7750       43.7018       56.4769       0.927439      -0.00000
   9     398.1       55.3361       13.8386       42.4250       56.2636       0.927439       0.00000
   8     437.6       55.1131       14.9489       41.0916       56.0405       0.927439      -0.00000
   7     480.5       54.8806       16.1036       39.7045       55.8080       0.927439       0.00000
   6     533.0       54.6035       17.4767       38.0543       55.5309       0.927439       0.00000
   5     589.8       54.3154       18.8998       36.3431       55.2429       0.927439      -0.00000
   4     651.6       54.0177       20.3656       34.5795       54.9452       0.927439       0.00000
   3     718.7       53.7113       21.8685       32.7702       54.6388       0.927439      -0.00000
   2     792.3       53.3978       23.3997       30.9256       54.3252       0.927439      -0.00000
   1     891.5       52.9969       25.3465       28.5778       53.9243       0.927439       0.00000
   0    1013.0       52.5480       27.5090       25.9665       53.4755       0.927439       0.00000



 Wavenumbers: 29000. - 38000. cm-1, ATM      1
 LEVEL PRESSURE   UPWARD FLUX   DIFDOWN FLUX  DIRDOWN FLUX  DOWNWARD FLUX   NET FLUX    HEATING RATE
          mb          W/m2          W/m2          W/m2        W/m2          W/m2       degree/day
  51    .06700        8.6649        0.0000       20.8114       20.8114      12.146427       0.00000
  50    .07753        8.6647        0.0003       20.8070       20.8074      12.142619       3.05144
  49    .09103        8.6645        0.0007       20.8009       20.8016      12.137083       3.46072
  48    0.1069        8.6643        0.0012       20.7928       20.7939      12.129673       3.94414
  47    0.1255        8.6640        0.0017       20.7820       20.7837      12.119769       4.49017
  46    0.1487        8.6636        0.0024       20.7665       20.7688      12.105206       5.30824
  45    0.1794        8.6632        0.0033       20.7424       20.7457      12.082542       6.22180
  44    0.2165        8.6626        0.0043       20.7103       20.7147      12.052020       6.94313
  43    0.2613        8.6621        0.0056       20.6675       20.6731      12.011027       7.72701
  42    0.3336        8.6612        0.0077       20.5880       20.5956      11.934470       8.92587
  41    0.4307        8.6601        0.0104       20.4722       20.4826      11.822522       9.73359
  40    0.5894        8.6585        0.0147       20.2637       20.2783      11.619848      10.77795
  39     1.339        8.6550        0.0331       19.0984       19.1314      10.476445      12.87264
  38     1.782        8.6554        0.0426       18.4394       18.4820       9.826583      12.37232
  37     2.292        8.6579        0.0529       17.7714       17.8243       9.166327      10.93557
  36     2.964        8.6643        0.0655       17.0421       17.1077       8.443343       9.07562
  35     3.853        8.6769        0.0814       16.2678       16.3492       7.672385       7.31654
  34     5.035        8.6976        0.1015       15.4803       15.5818       6.884217       5.63035
  33     6.613        8.7278        0.1272       14.7157       14.8429       6.115085       4.11178
  32     8.786        8.7677        0.1609       13.9936       14.1544       5.386725       2.82869
  31     11.80        8.8197        0.2077       13.2835       13.4913       4.671538       2.00230
  30     15.07        8.8699        0.2564       12.7394       12.9957       4.125823       1.40893
  29     18.79        8.9217        0.3102       12.2666       12.5768       3.655169       1.06712
  28     23.16        8.9767        0.3715       11.8300       12.2015       3.224882       0.83204
  27     28.12        9.0329        0.4401       11.4279       11.8680       2.835078       0.66264
  26     33.73        9.0848        0.5157       11.0695       11.5852       2.500434       0.50315
  25     40.54        9.1338        0.6061       10.7209       11.3270       2.193145       0.38123
  24     48.69        9.1799        0.7132       10.3742       11.0874       1.907489       0.29561
  23     57.69        9.2176        0.8292       10.0549       10.8841       1.666559       0.22584
  22     68.43        9.2477        0.9653        9.7327       10.6980       1.450327       0.16999
  21     81.20        9.2613        1.1259        9.4134       10.5393       1.277952       0.11390
  20     96.49        9.2566        1.3147        9.0887       10.4034       1.146769       0.07240
  19     114.6        9.2415        1.5327        8.7388       10.2715       1.030031       0.05451
  18     136.5        9.2188        1.7820        8.3549       10.1369       0.918051       0.04306
  17     162.9        9.1888        2.0661        7.9311        9.9972       0.808447       0.03503
  16     196.4        9.1391        2.4178        7.4333        9.8511       0.712012       0.02427
  15     218.7        9.1036        2.6390        7.1295        9.7686       0.664995       0.01785
  14     243.0        9.0646        2.8702        6.8161        9.6862       0.621592       0.01505
  13     269.0        9.0221        3.1105        6.4943        9.6048       0.582631       0.01264
  12     297.5        8.9762        3.3587        6.1657        9.5245       0.548296       0.01018
  11     328.5        8.9281        3.6140        5.8295        9.4435       0.515435       0.00893
  10     361.9        8.8783        3.8739        5.4886        9.3625       0.484193       0.00790
   9     398.1        8.8271        4.1377        5.1440        9.2817       0.454599       0.00689
   8     437.6        8.7748        4.4040        4.7969        9.2009       0.426081       0.00610
   7     480.5        8.7219        4.6705        4.4504        9.1209       0.399024       0.00531
   6     533.0        8.6609        4.9742        4.0563        9.0304       0.369544       0.00474
   5     589.8        8.6004        5.2732        3.6682        8.9414       0.341018       0.00423
   4     651.6        8.5413        5.5640        3.2905        8.8545       0.313128       0.00381
   3     718.7        8.4842        5.8448        2.9252        8.7700       0.285831       0.00343
   2     792.3        8.4296        6.1123        2.5764        8.6888       0.259132       0.00306
   1     891.5        8.3659        6.4262        2.1659        8.5921       0.226199       0.00280
   0    1013.0        8.3030        6.7403        1.7526        8.4929       0.189877       0.00252



 Wavenumbers: 38000. - 50000. cm-1, ATM      1
 LEVEL PRESSURE   UPWARD FLUX   DIFDOWN FLUX  DIRDOWN FLUX  DOWNWARD FLUX   NET FLUX    HEATING RATE
          mb          W/m2          W/m2          W/m2        W/m2          W/m2       degree/day
  51    .06700        0.0061        0.0000        1.2836        1.2836       1.277518       0.00000
  50    .07753        0.0061        0.0001        1.2812        1.2812       1.275183       1.87150
  49    .09103        0.0060        0.0002        1.2777        1.2778       1.271851       2.08247
  48    0.1069        0.0059        0.0002        1.2731        1.2734       1.267473       2.33059
  47    0.1255        0.0058        0.0004        1.2672        1.2675       1.261717       2.60908
  46    0.1487        0.0057        0.0005        1.2586        1.2591       1.253391       3.03499
  45    0.1794        0.0055        0.0007        1.2455        1.2462       1.240623       3.50520
  44    0.2165        0.0054        0.0009        1.2282        1.2291       1.223697       3.85037
  43    0.2613        0.0052        0.0011        1.2054        1.2065       1.201348       4.21261
  42    0.3336        0.0049        0.0015        1.1639        1.1654       1.160524       4.75970
  41    0.4307        0.0045        0.0020        1.1051        1.1070       1.102565       5.03943
  40    0.5894        0.0039        0.0026        1.0039        1.0064       1.002524       5.32007
  39     1.339        0.0022        0.0035        0.5438        0.5473       0.545104       5.14971
  38     1.782        0.0016        0.0032        0.3635        0.3666       0.365006       3.42879
  37     2.292        0.0012        0.0027        0.2356        0.2383       0.237058       2.11916
  36     2.964        0.0009        0.0022        0.1455        0.1477       0.146786       1.13318
  35     3.853        0.0006        0.0017        0.0858        0.0875       0.086906       0.56828
  34     5.035        0.0004        0.0013        0.0488        0.0501       0.049701       0.26578
  33     6.613        0.0003        0.0010        0.0273        0.0282       0.027974       0.11615
  32     8.786        0.0002        0.0007        0.0144        0.0151       0.014928       0.05067
  31     11.80        0.0001        0.0004        0.0065        0.0070       0.006903       0.02247
  30     15.07        0.0000        0.0003        0.0031        0.0034       0.003329       0.00923
  29     18.79        0.0000        0.0002        0.0014        0.0016       0.001583       0.00396
  28     23.16        0.0000        0.0001        0.0006        0.0007       0.000720       0.00167
  27     28.12        0.0000        0.0001        0.0003        0.0003       0.000317       0.00069
  26     33.73        0.0000        0.0000        0.0001        0.0001       0.000140       0.00027
  25     40.54        0.0000        0.0000        0.0000        0.0001       0.000057       0.00010
  24     48.69        0.0000        0.0000        0.0000        0.0000       0.000021       0.00004
  23     57.69        0.0000        0.0000        0.0000        0.0000       0.000008       0.00001
  22     68.43        0.0000        0.0000        0.0000        0.0000       0.000003       0.00000
  21     81.20        0.0000        0.0000        0.0000        0.0000       0.000001       0.00000
  20     96.49        0.0000        0.0000        0.0000        0.0000       0.000000       0.00000
  19     114.6        0.0000        0.0000        0.0000        0.0000       0.000000       0.00000
  18     136.5        0.0000        0.0000        0.0000        0.0000       0.000000       0.00000
  17     162.9        0.0000        0.0000        0.0000        0.0000       0.000000       0.00000
  16     196.4        0.0000        0.0000        0.0000        0.0000       0.000000       0.00000
  15     218.7        0.0000        0.0000        0.0000        0.0000       0.000000       0.00000
  14     243.0        0.0000        0.0000        0.0000        0.0000       0.000000       0.00000
  13     269.0        0.0000        0.0000        0.0000        0.0000       0.000000       0.00000
  12     297.5        0.0000        0.0000        0.0000        0.0000       0.000000       0.00000
  11     328.5        0.0000        0.0000        0.0000        0.0000       0.000000       0.00000
  10     361.9        0.0000        0.0000        0.0000        0.0000       0.000000       0.00000
   9     398.1        0.0000        0.0000        0.0000        0.0000       0.000000       0.00000
   8     437.6        0.0000        0.0000        0.0000        0.0000       0.000000       0.00000
   7     480.5        0.0000        0.0000        0.0000        0.0000       0.000000       0.00000
   6     533.0        0.0000        0.0000        0.0000        0.0000       0.000000       0.00000
   5     589.8        0.0000        0.0000        0.0000        0.0000       0.000000       0.00000
   4     651.6        0.0000        0.0000        0.0000        0.0000       0.000000       0.00000
   3     718.7        0.0000        0.0000        0.0000        0.0000       0.000000       0.00000
   2     792.3        0.0000        0.0000        0.0000        0.0000       0.000000       0.00000
   1     891.5        0.0000        0.0000        0.0000        0.0000       0.000000       0.00000
   0    1013.0        0.0000        0.0000        0.0000        0.0000       0.000000       0.00000



 Wavenumbers:   820. -  2600. cm-1, ATM      1
 LEVEL PRESSURE   UPWARD FLUX   DIFDOWN FLUX  DIRDOWN FLUX  DOWNWARD FLUX   NET FLUX    HEATING RATE
          mb          W/m2          W/m2          W/m2        W/m2          W/m2       degree/day
  51    .06700        0.0120        0.0000        6.0047        6.0047       5.992611       0.00000
  50    .07753        0.0120        0.0000        6.0008        6.0008       5.988758       3.08819
  49    .09103        0.0120        0.0000        5.9999        5.9999       5.987873       0.55356
  48    0.1069        0.0120        0.0000        5.9989        5.9989       5.986884       0.52650
  47    0.1255        0.0120        0.0000        5.9978        5.9978       5.985766       0.50647
  46    0.1487        0.0120        0.0000        5.9964        5.9964       5.984410       0.49454
  45    0.1794        0.0120        0.0000        5.9947        5.9947       5.982690       0.47197
  44    0.2165        0.0120        0.0000        5.9929        5.9929       5.980848       0.41908
  43    0.2613        0.0120        0.0000        5.9909        5.9909       5.978889       0.36930
  42    0.3336        0.0120        0.0000        5.9880        5.9880       5.976011       0.33553
  41    0.4307        0.0120        0.0000        5.9846        5.9846       5.972542       0.30162
  40    0.5894        0.0120        0.0000        5.9791        5.9791       5.967037       0.29273
  39     1.339        0.0120        0.0000        5.9536        5.9536       5.941553       0.28691
  38     1.782        0.0120        0.0000        5.9395        5.9395       5.927416       0.26914
  37     2.292        0.0120        0.0000        5.9237        5.9237       5.911667       0.26085
  36     2.964        0.0120        0.0000        5.9039        5.9039       5.891895       0.24820
  35     3.853        0.0120        0.0000        5.8793        5.8793       5.867241       0.23396
  34     5.035        0.0120        0.0000        5.8487        5.8487       5.836682       0.21830
  33     6.613        0.0120        0.0000        5.8108        5.8108       5.798722       0.20293
  32     8.786        0.0120        0.0000        5.7631        5.7631       5.751105       0.18493
  31     11.80        0.0120        0.0000        5.7039        5.7039       5.691856       0.16588
  30     15.07        0.0120        0.0000        5.6539        5.6539       5.641826       0.12917
  29     18.79        0.0120        0.0000        5.6127        5.6127       5.600699       0.09325
  28     23.16        0.0120        0.0000        5.5794        5.5794       5.567332       0.06452
  27     28.12        0.0120        0.0000        5.5518        5.5518       5.539775       0.04685
  26     33.73        0.0120        0.0000        5.5268        5.5268       5.514731       0.03765
  25     40.54        0.0120        0.0000        5.4993        5.4993       5.487297       0.03404
  24     48.69        0.0120        0.0000        5.4678        5.4678       5.455764       0.03263
  23     57.69        0.0120        0.0000        5.4340        5.4340       5.421984       0.03166
  22     68.43        0.0120        0.0000        5.3947        5.3948       5.382719       0.03087
  21     81.20        0.0120        0.0000        5.3497        5.3497       5.337694       0.02975
  20     96.49        0.0120        0.0000        5.2982        5.2982       5.286191       0.02843
  19     114.6        0.0120        0.0000        5.2389        5.2389       5.226880       0.02769
  18     136.5        0.0120        0.0000        5.1716        5.1717       5.159636       0.02586
  17     162.9        0.0120        0.0000        5.0890        5.0890       5.077020       0.02641
  16     196.4        0.0120        0.0000        4.9668        4.9668       4.954809       0.03076
  15     218.7        0.0120        0.0000        4.8585        4.8585       4.846448       0.04114
  14     243.0        0.0120        0.0000        4.7078        4.7079       4.695833       0.05224
  13     269.0        0.0120        0.0000        4.5343        4.5343       4.522250       0.05631
  12     297.5        0.0120        0.0000        4.3419        4.3420       4.329926       0.05704
  11     328.5        0.0120        0.0000        4.1281        4.1281       4.116093       0.05814
  10     361.9        0.0121        0.0000        3.8786        3.8787       3.866613       0.06312
   9     398.1        0.0121        0.0000        3.6159        3.6159       3.603867       0.06121
   8     437.6        0.0121        0.0000        3.3759        3.3759       3.363781       0.05133
   7     480.5        0.0121        0.0000        3.1957        3.1958       3.183645       0.03538
   6     533.0        0.0122        0.0000        3.0467        3.0467       3.034515       0.02399
   5     589.8        0.0123        0.0000        2.9023        2.9023       2.890050       0.02144
   4     651.6        0.0124        0.0000        2.7183        2.7184       2.705949       0.02518
   3     718.7        0.0127        0.0000        2.5058        2.5059       2.493196       0.02674
   2     792.3        0.0131        0.0000        2.2756        2.2757       2.262543       0.02645
   1     891.5        0.0143        0.0000        1.9621        1.9621       1.947831       0.02678
   0    1013.0        0.0173        0.0000        1.5468        1.5469       1.529547       0.02904

  Modules and versions used in this calculation:

       rrtmg_sw.1col.f90:  $Revision$                    rrtmg_sw_init.f90:  $Revision$        
     rrtmgsw_cldprop.f90:  $Revision$                  rrtmgsw_cldprmc.f90:  NOT USED          
     rrtmg_sw_reftra.f90:  $Revision$                  rrtmg_sw_spcvrt.f90:  NOT USED          
     rrtmg_sw_spcvmc.f90:  NOT USED                    rrtmgsw_setcoef.f90:  NOT USED          
     rrtmg_sw_taumol.f90:  $Revision$                  rrtmg_sw_vrtqdr.f90:  NOT USED          
                rrtatm.f:  NOT USED                             util_xxx.f:  NOT USED          
                 extra.f:  NOT USED                       rrtmg_sw_k_g.f90:  $Revision$        

