

 Wavenumbers:   820. - 50000. cm-1, ATM      1
 LEVEL PRESSURE   UPWARD FLUX   DIFDOWN FLUX  DIRDOWN FLUX  DOWNWARD FLUX   NET FLUX    HEATING RATE
          mb          W/m2          W/m2          W/m2        W/m2          W/m2       degree/day
  51    .06700      382.7973        0.0000      617.8126      617.8126     235.015245       0.00000
  50    .07753      382.7970        0.0013      617.7947      617.7961     234.999107      12.93475
  49    .09103      382.7965        0.0030      617.7778      617.7808     234.984300       9.25466
  48    0.1069      382.7960        0.0050      617.7581      617.7631     234.967042       9.18646
  47    0.1255      382.7955        0.0072      617.7340      617.7412     234.945702       9.67467
  46    0.1487      382.7949        0.0100      617.7009      617.7109     234.916022      10.81856
  45    0.1794      382.7942        0.0139      617.6521      617.6660     234.871800      12.14004
  44    0.2165      382.7934        0.0184      617.5895      617.6079     234.814490      13.03706
  43    0.2613      382.7927        0.0238      617.5089      617.5327     234.739991      14.04264
  42    0.3336      382.7918        0.0326      617.3641      617.3967     234.604932      15.74659
  41    0.4307      382.7910        0.0442      617.1591      617.2033     234.412346      16.74495
  40    0.5894      382.7907        0.0630      616.8005      616.8634     234.072722      18.06077
  39     1.339      382.8074        0.1477      614.9443      615.0920     232.284555      20.13151
  38     1.782      382.8298        0.1954      613.9670      614.1624     231.332653      18.12269
  37     2.292      382.8670        0.2497      613.0059      613.2556     230.388543      15.63692
  36     2.964      382.9330        0.3202      611.9577      612.2779     229.344862      13.10135
  35     3.853      383.0440        0.4127      610.8024      611.2151     228.171089      11.13932
  34     5.035      383.2149        0.5347      609.5327      610.0674     226.852540       9.41917
  33     6.613      383.4557        0.6967      608.1464      608.8432     225.387465       7.83229
  32     8.786      383.7693        0.9141      606.6250      607.5391     223.769780       6.28250
  31     11.80      384.1752        1.2235      604.8486      606.0721     221.896933       5.24338
  30     15.07      384.5612        1.5537      603.2440      604.7976     220.236419       4.28712
  29     18.79      384.9528        1.9252      601.6511      603.5763     218.623551       3.65687
  28     23.16      385.3589        2.3569      599.9927      602.3496     216.990694       3.15742
  27     28.12      385.7632        2.8482      598.2881      601.1363     215.373014       2.74995
  26     33.73      386.1280        3.3960      596.5951      599.9910     213.863068       2.27024
  25     40.54      386.4663        4.0554      594.7727      598.8281     212.361797       1.86250
  24     48.69      386.7751        4.8467      592.7865      597.6332     210.858145       1.55604
  23     57.69      387.0180        5.7117      590.7959      596.5076     209.489602       1.28280
  22     68.43      387.2029        6.7365      588.6191      595.3556     208.152630       1.05104
  21     81.20      387.2781        7.9514      586.2690      594.2204     206.942235       0.79981
  20     96.49      387.2332        9.3899      583.6961      593.0860     205.852811       0.60128
  19     114.6      387.1276       11.0823      580.7708      591.8531     204.725469       0.52639
  18     136.5      386.9576       13.0640      577.4359      590.4999     203.542281       0.45496
  17     162.9      386.7164       15.3895      573.5624      588.9520     202.235557       0.41768
  16     196.4      386.3149       18.3552      568.5907      586.9459     200.630991       0.40389
  15     218.7      386.0212       20.2726      565.0572      585.3298     199.308561       0.50208
  14     243.0      385.6914       22.3291      560.7495      583.0786     197.387240       0.66638
  13     269.0      385.3243       24.5262      555.3947      579.9209     194.596630       0.90526
  12     297.5      384.9211       26.8644      548.9964      575.8608     190.939750       1.08459
  11     328.5      384.4895       29.3503      542.0895      571.4399     186.950351       1.08471
  10     361.9      384.0327       31.9801      534.6242      566.6043     182.571638       1.10786
   9     398.1      383.5538       34.7582      526.4204      561.1786     177.624858       1.15249
   8     437.6      383.0618       37.6835      517.3907      555.0741     172.012284       1.20000
   7     480.5      382.5647       40.7538      507.7216      548.4754     165.910702       1.19833
   6     533.0      382.0081       44.4453      495.9006      540.3459     158.337758       1.21825
   5     589.8      381.5055       48.3190      483.0788      531.3978     149.892313       1.25358
   4     651.6      381.1541       52.3626      468.6907      521.0533     139.899191       1.36659
   3     718.7      381.0579       56.5680      453.2257      509.7938     128.735889       1.40292
   2     792.3      381.4668       60.9136      436.4928      497.4065     115.939691       1.46758
   1     891.5      383.3118       66.5291      413.9344      480.4635      97.151722       1.59877
   0    1013.0      388.6656       72.9178      388.4125      461.3303      72.664756       1.70026



 Wavenumbers:  2600. -  3250. cm-1, ATM      1
 LEVEL PRESSURE   UPWARD FLUX   DIFDOWN FLUX  DIRDOWN FLUX  DOWNWARD FLUX   NET FLUX    HEATING RATE
          mb          W/m2          W/m2          W/m2        W/m2          W/m2       degree/day
  51    .06700        0.0222        0.0000        5.4450        5.4450       5.422797       0.00000
  50    .07753        0.0222        0.0000        5.4450        5.4450       5.422789       0.00640
  49    .09103        0.0222        0.0000        5.4450        5.4450       5.422779       0.00627
  48    0.1069        0.0222        0.0000        5.4450        5.4450       5.422767       0.00613
  47    0.1255        0.0222        0.0000        5.4450        5.4450       5.422754       0.00599
  46    0.1487        0.0222        0.0000        5.4450        5.4450       5.422737       0.00608
  45    0.1794        0.0222        0.0000        5.4450        5.4450       5.422714       0.00625
  44    0.2165        0.0222        0.0000        5.4449        5.4449       5.422687       0.00612
  43    0.2613        0.0222        0.0000        5.4449        5.4449       5.422656       0.00600
  42    0.3336        0.0222        0.0000        5.4448        5.4448       5.422603       0.00617
  41    0.4307        0.0222        0.0000        5.4448        5.4448       5.422531       0.00620
  40    0.5894        0.0222        0.0000        5.4446        5.4446       5.422412       0.00637
  39     1.339        0.0222        0.0000        5.4439        5.4439       5.421704       0.00797
  38     1.782        0.0222        0.0000        5.4434        5.4434       5.421161       0.01034
  37     2.292        0.0222        0.0000        5.4427        5.4427       5.420445       0.01186
  36     2.964        0.0222        0.0000        5.4416        5.4416       5.419407       0.01304
  35     3.853        0.0222        0.0000        5.4402        5.4402       5.417929       0.01402
  34     5.035        0.0222        0.0000        5.4381        5.4381       5.415874       0.01468
  33     6.613        0.0222        0.0000        5.4353        5.4353       5.413093       0.01487
  32     8.786        0.0222        0.0000        5.4317        5.4317       5.409461       0.01411
  31     11.80        0.0222        0.0000        5.4269        5.4269       5.404681       0.01338
  30     15.07        0.0222        0.0000        5.4224        5.4224       5.400155       0.01169
  29     18.79        0.0222        0.0000        5.4180        5.4180       5.395744       0.01000
  28     23.16        0.0222        0.0000        5.4135        5.4135       5.391258       0.00867
  27     28.12        0.0222        0.0000        5.4088        5.4088       5.386612       0.00790
  26     33.73        0.0222        0.0000        5.4036        5.4036       5.381373       0.00788
  25     40.54        0.0222        0.0000        5.3966        5.3967       5.374434       0.00861
  24     48.69        0.0222        0.0000        5.3872        5.3872       5.364961       0.00980
  23     57.69        0.0222        0.0000        5.3754        5.3754       5.353181       0.01104
  22     68.43        0.0222        0.0000        5.3599        5.3599       5.337701       0.01217
  21     81.20        0.0222        0.0000        5.3401        5.3401       5.317877       0.01310
  20     96.49        0.0222        0.0000        5.3155        5.3155       5.293324       0.01355
  19     114.6        0.0222        0.0000        5.2853        5.2853       5.263146       0.01409
  18     136.5        0.0222        0.0000        5.2504        5.2505       5.228264       0.01341
  17     162.9        0.0222        0.0001        5.2111        5.2111       5.188956       0.01256
  16     196.4        0.0222        0.0001        5.1640        5.1641       5.141923       0.01184
  15     218.7        0.0222        0.0001        5.1331        5.1332       5.111005       0.01174
  14     243.0        0.0222        0.0001        5.0962        5.0963       5.074123       0.01279
  13     269.0        0.0222        0.0001        5.0511        5.0512       5.029004       0.01464
  12     297.5        0.0222        0.0001        4.9956        4.9957       4.973518       0.01646
  11     328.5        0.0222        0.0001        4.9304        4.9305       4.908281       0.01774
  10     361.9        0.0222        0.0001        4.8511        4.8512       4.828996       0.02006
   9     398.1        0.0223        0.0001        4.7507        4.7508       4.728558       0.02340
   8     437.6        0.0223        0.0001        4.6220        4.6222       4.599872       0.02751
   7     480.5        0.0224        0.0001        4.4625        4.4626       4.440253       0.03135
   6     533.0        0.0225        0.0002        4.2460        4.2462       4.223708       0.03484
   5     589.8        0.0227        0.0002        3.9954        3.9956       3.972904       0.03723
   4     651.6        0.0229        0.0002        3.7089        3.7090       3.686075       0.03922
   3     718.7        0.0234        0.0002        3.4018        3.4020       3.378591       0.03864
   2     792.3        0.0241        0.0002        3.0564        3.0566       3.032461       0.03970
   1     891.5        0.0258        0.0002        2.5828        2.5830       2.557152       0.04045
   0    1013.0        0.0298        0.0001        2.0845        2.0847       2.054851       0.03488



 Wavenumbers:  3250. -  4000. cm-1, ATM      1
 LEVEL PRESSURE   UPWARD FLUX   DIFDOWN FLUX  DIRDOWN FLUX  DOWNWARD FLUX   NET FLUX    HEATING RATE
          mb          W/m2          W/m2          W/m2        W/m2          W/m2       degree/day
  51    .06700        0.0005        0.0000        9.1795        9.1795       9.179064       0.00000
  50    .07753        0.0005        0.0000        9.1747        9.1747       9.174222       3.88148
  49    .09103        0.0005        0.0000        9.1713        9.1713       9.170834       2.11747
  48    0.1069        0.0005        0.0000        9.1688        9.1688       9.168309       1.34402
  47    0.1255        0.0005        0.0000        9.1665        9.1665       9.166050       1.02422
  46    0.1487        0.0005        0.0000        9.1641        9.1641       9.163608       0.88991
  45    0.1794        0.0005        0.0000        9.1612        9.1612       9.160730       0.79008
  44    0.2165        0.0005        0.0000        9.1583        9.1583       9.157810       0.66430
  43    0.2613        0.0005        0.0000        9.1553        9.1553       9.154837       0.56041
  42    0.3336        0.0005        0.0000        9.1511        9.1511       9.150658       0.48723
  41    0.4307        0.0005        0.0000        9.1464        9.1464       9.145890       0.41459
  40    0.5894        0.0005        0.0000        9.1393        9.1394       9.138884       0.37255
  39     1.339        0.0005        0.0000        9.1127        9.1127       9.112271       0.29962
  38     1.782        0.0005        0.0000        9.1011        9.1011       9.100682       0.22062
  37     2.292        0.0005        0.0000        9.0901        9.0901       9.089616       0.18329
  36     2.964        0.0005        0.0000        9.0776        9.0776       9.077186       0.15603
  35     3.853        0.0005        0.0000        9.0629        9.0629       9.062396       0.14036
  34     5.035        0.0005        0.0000        9.0441        9.0441       9.043657       0.13386
  33     6.613        0.0005        0.0000        9.0191        9.0191       9.018655       0.13366
  32     8.786        0.0005        0.0000        8.9843        8.9843       8.983872       0.13509
  31     11.80        0.0004        0.0000        8.9327        8.9327       8.932255       0.14451
  30     15.07        0.0004        0.0000        8.8758        8.8759       8.875410       0.14676
  29     18.79        0.0004        0.0000        8.8110        8.8110       8.810583       0.14698
  28     23.16        0.0004        0.0000        8.7365        8.7366       8.736138       0.14395
  27     28.12        0.0004        0.0000        8.6554        8.6555       8.655025       0.13789
  26     33.73        0.0004        0.0000        8.5719        8.5719       8.571526       0.12554
  25     40.54        0.0004        0.0001        8.4812        8.4812       8.480802       0.11255
  24     48.69        0.0004        0.0001        8.3838        8.3839       8.383501       0.10069
  23     57.69        0.0004        0.0001        8.2861        8.2862       8.285765       0.09161
  22     68.43        0.0004        0.0001        8.1751        8.1751       8.174769       0.08726
  21     81.20        0.0004        0.0001        8.0457        8.0458       8.045411       0.08548
  20     96.49        0.0003        0.0001        7.8949        7.8950       7.894707       0.08318
  19     114.6        0.0003        0.0001        7.7162        7.7163       7.715998       0.08344
  18     136.5        0.0003        0.0002        7.5193        7.5194       7.519154       0.07569
  17     162.9        0.0003        0.0002        7.2913        7.2915       7.291263       0.07284
  16     196.4        0.0002        0.0002        6.9660        6.9662       6.965990       0.08187
  15     218.7        0.0002        0.0002        6.6648        6.6650       6.664802       0.11435
  14     243.0        0.0002        0.0002        6.2619        6.2622       6.262008       0.13970
  13     269.0        0.0002        0.0003        5.7576        5.7579       5.757708       0.16359
  12     297.5        0.0001        0.0003        5.1719        5.1722       5.172018       0.17371
  11     328.5        0.0001        0.0002        4.5757        4.5760       4.575858       0.16209
  10     361.9        0.0001        0.0002        3.9995        3.9998       3.999684       0.14578
   9     398.1        0.0001        0.0002        3.4655        3.4657       3.465628       0.12442
   8     437.6        0.0001        0.0002        2.9740        2.9742       2.974182       0.10507
   7     480.5        0.0001        0.0002        2.5307        2.5309       2.530811       0.08708
   6     533.0        0.0000        0.0002        2.0614        2.0616       2.061519       0.07549
   5     589.8        0.0000        0.0002        1.6150        1.6151       1.615096       0.06626
   4     651.6        0.0000        0.0001        1.1565        1.1566       1.156563       0.06271
   3     718.7        0.0000        0.0001        0.7390        0.7391       0.739090       0.05246
   2     792.3        0.0000        0.0001        0.3985        0.3985       0.398509       0.03906
   1     891.5        0.0000        0.0000        0.1139        0.1139       0.113927       0.02422
   0    1013.0        0.0002        0.0000        0.0094        0.0094       0.009171       0.00727



 Wavenumbers:  4000. -  4650. cm-1, ATM      1
 LEVEL PRESSURE   UPWARD FLUX   DIFDOWN FLUX  DIRDOWN FLUX  DOWNWARD FLUX   NET FLUX    HEATING RATE
          mb          W/m2          W/m2          W/m2        W/m2          W/m2       degree/day
  51    .06700        0.6624        0.0000       10.7795       10.7795      10.117160       0.00000
  50    .07753        0.6624        0.0000       10.7795       10.7795      10.117159       0.00080
  49    .09103        0.6624        0.0000       10.7795       10.7795      10.117158       0.00078
  48    0.1069        0.6624        0.0000       10.7795       10.7795      10.117156       0.00076
  47    0.1255        0.6624        0.0000       10.7795       10.7795      10.117155       0.00075
  46    0.1487        0.6624        0.0000       10.7795       10.7795      10.117153       0.00076
  45    0.1794        0.6624        0.0000       10.7795       10.7795      10.117150       0.00078
  44    0.2165        0.6624        0.0000       10.7795       10.7795      10.117146       0.00076
  43    0.2613        0.6624        0.0000       10.7795       10.7795      10.117142       0.00075
  42    0.3336        0.6624        0.0000       10.7795       10.7795      10.117136       0.00077
  41    0.4307        0.6624        0.0000       10.7795       10.7795      10.117127       0.00077
  40    0.5894        0.6624        0.0000       10.7795       10.7795      10.117112       0.00080
  39     1.339        0.6624        0.0000       10.7794       10.7794      10.117023       0.00101
  38     1.782        0.6624        0.0000       10.7793       10.7793      10.116953       0.00133
  37     2.292        0.6624        0.0000       10.7792       10.7792      10.116859       0.00156
  36     2.964        0.6624        0.0000       10.7791       10.7791      10.116719       0.00176
  35     3.853        0.6624        0.0000       10.7789       10.7789      10.116511       0.00197
  34     5.035        0.6624        0.0000       10.7786       10.7786      10.116204       0.00219
  33     6.613        0.6624        0.0000       10.7781       10.7781      10.115753       0.00241
  32     8.786        0.6624        0.0000       10.7774       10.7774      10.115087       0.00259
  31     11.80        0.6623        0.0000       10.7763       10.7764      10.114041       0.00293
  30     15.07        0.6623        0.0001       10.7751       10.7751      10.112815       0.00317
  29     18.79        0.6623        0.0001       10.7736       10.7737      10.111332       0.00336
  28     23.16        0.6623        0.0001       10.7717       10.7718      10.109492       0.00356
  27     28.12        0.6623        0.0001       10.7695       10.7696      10.107267       0.00378
  26     33.73        0.6623        0.0001       10.7667       10.7668      10.104524       0.00412
  25     40.54        0.6623        0.0001       10.7629       10.7631      10.100808       0.00461
  24     48.69        0.6622        0.0002       10.7579       10.7581      10.095860       0.00512
  23     57.69        0.6622        0.0002       10.7520       10.7522      10.090002       0.00549
  22     68.43        0.6622        0.0003       10.7446       10.7449      10.082669       0.00576
  21     81.20        0.6622        0.0003       10.7355       10.7358      10.073654       0.00596
  20     96.49        0.6621        0.0004       10.7245       10.7248      10.062705       0.00604
  19     114.6        0.6621        0.0004       10.7107       10.7111      10.049046       0.00638
  18     136.5        0.6621        0.0005       10.6942       10.6947      10.032631       0.00631
  17     162.9        0.6620        0.0006       10.6740       10.6746      10.012574       0.00641
  16     196.4        0.6620        0.0007       10.6464       10.6471       9.985041       0.00693
  15     218.7        0.6620        0.0008       10.6255       10.6262       9.964192       0.00792
  14     243.0        0.6621        0.0009       10.5980       10.5989       9.936806       0.00950
  13     269.0        0.6622        0.0010       10.5611       10.5621       9.899804       0.01200
  12     297.5        0.6625        0.0011       10.5119       10.5130       9.850524       0.01462
  11     328.5        0.6628        0.0012       10.4499       10.4510       9.788214       0.01694
  10     361.9        0.6633        0.0013       10.3702       10.3715       9.708153       0.02026
   9     398.1        0.6639        0.0014       10.2678       10.2692       9.605261       0.02397
   8     437.6        0.6647        0.0015       10.1390       10.1405       9.475816       0.02768
   7     480.5        0.6657        0.0016        9.9877        9.9893       9.323661       0.02988
   6     533.0        0.6672        0.0018        9.7937        9.7955       9.128292       0.03143
   5     589.8        0.6693        0.0019        9.5752        9.5771       8.907804       0.03273
   4     651.6        0.6726        0.0021        9.2958        9.2979       8.625307       0.03863
   3     718.7        0.6777        0.0022        8.9267        8.9289       8.251213       0.04701
   2     792.3        0.6863        0.0023        8.4542        8.4565       7.770239       0.05516
   1     891.5        0.7061        0.0024        7.7948        7.7972       7.091099       0.05779
   0    1013.0        0.7525        0.0025        7.0767        7.0792       6.326719       0.05307



 Wavenumbers:  4650. -  5150. cm-1, ATM      1
 LEVEL PRESSURE   UPWARD FLUX   DIFDOWN FLUX  DIRDOWN FLUX  DOWNWARD FLUX   NET FLUX    HEATING RATE
          mb          W/m2          W/m2          W/m2        W/m2          W/m2       degree/day
  51    .06700        0.1358        0.0000       10.2033       10.2033      10.067547       0.00000
  50    .07753        0.1358        0.0000       10.2031       10.2031      10.067311       0.18901
  49    .09103        0.1358        0.0000       10.2028       10.2028      10.067016       0.18428
  48    0.1069        0.1358        0.0000       10.2025       10.2025      10.066679       0.17931
  47    0.1255        0.1358        0.0000       10.2021       10.2021      10.066295       0.17426
  46    0.1487        0.1358        0.0000       10.2016       10.2016      10.065814       0.17536
  45    0.1794        0.1358        0.0000       10.2010       10.2010      10.065164       0.17850
  44    0.2165        0.1358        0.0000       10.2002       10.2002      10.064404       0.17277
  43    0.2613        0.1358        0.0000       10.1993       10.1993      10.063519       0.16690
  42    0.3336        0.1358        0.0000       10.1979       10.1979      10.062086       0.16702
  41    0.4307        0.1358        0.0000       10.1960       10.1960      10.060246       0.16002
  40    0.5894        0.1358        0.0000       10.1932       10.1932      10.057372       0.15283
  39     1.339        0.1358        0.0000       10.1816       10.1816      10.045781       0.13050
  38     1.782        0.1358        0.0000       10.1760       10.1760      10.040252       0.10525
  37     2.292        0.1358        0.0000       10.1706       10.1706      10.034796       0.09036
  36     2.964        0.1358        0.0000       10.1646       10.1647      10.028874       0.07434
  35     3.853        0.1358        0.0000       10.1584       10.1584      10.022661       0.05896
  34     5.035        0.1358        0.0000       10.1521       10.1521      10.016327       0.04524
  33     6.613        0.1358        0.0000       10.1456       10.1456      10.009874       0.03450
  32     8.786        0.1357        0.0000       10.1386       10.1386      10.002869       0.02720
  31     11.80        0.1357        0.0001       10.1295       10.1296       9.993838       0.02528
  30     15.07        0.1357        0.0001       10.1196       10.1197       9.983973       0.02547
  29     18.79        0.1357        0.0001       10.1076       10.1077       9.971984       0.02718
  28     23.16        0.1357        0.0001       10.0923       10.0924       9.956705       0.02954
  27     28.12        0.1357        0.0002       10.0731       10.0733       9.937645       0.03240
  26     33.73        0.1356        0.0002       10.0500       10.0502       9.914595       0.03466
  25     40.54        0.1356        0.0002       10.0201       10.0203       9.884754       0.03702
  24     48.69        0.1356        0.0003        9.9820        9.9822       9.846668       0.03941
  23     57.69        0.1355        0.0003        9.9384        9.9388       9.803238       0.04071
  22     68.43        0.1355        0.0004        9.8858        9.8861       9.750653       0.04134
  21     81.20        0.1354        0.0004        9.8234        9.8239       9.688463       0.04109
  20     96.49        0.1354        0.0005        9.7518        9.7523       9.616919       0.03949
  19     114.6        0.1353        0.0006        9.6719        9.6725       9.537238       0.03721
  18     136.5        0.1352        0.0007        9.5858        9.5865       9.451302       0.03304
  17     162.9        0.1351        0.0008        9.4940        9.4949       9.359759       0.02926
  16     196.4        0.1350        0.0010        9.3883        9.3893       9.254253       0.02656
  15     218.7        0.1350        0.0011        9.3229        9.3240       9.189056       0.02475
  14     243.0        0.1349        0.0012        9.2520        9.2532       9.118276       0.02455
  13     269.0        0.1349        0.0013        9.1717        9.1730       9.038116       0.02600
  12     297.5        0.1349        0.0015        9.0763        9.0777       8.942869       0.02825
  11     328.5        0.1349        0.0016        8.9650        8.9666       8.831671       0.03023
  10     361.9        0.1350        0.0017        8.8349        8.8367       8.701698       0.03288
   9     398.1        0.1351        0.0019        8.6820        8.6839       8.548831       0.03561
   8     437.6        0.1353        0.0020        8.5028        8.5048       8.369581       0.03832
   7     480.5        0.1355        0.0022        8.2948        8.2970       8.161467       0.04087
   6     533.0        0.1360        0.0023        8.0209        8.0232       7.887243       0.04411
   5     589.8        0.1367        0.0025        7.7063        7.7088       7.572135       0.04677
   4     651.6        0.1378        0.0026        7.3412        7.3439       7.206061       0.05006
   3     718.7        0.1395        0.0027        6.9387        6.9414       6.801882       0.05079
   2     792.3        0.1423        0.0028        6.5066        6.5094       6.367181       0.04986
   1     891.5        0.1481        0.0029        5.9361        5.9390       5.790895       0.04904
   0    1013.0        0.1602        0.0030        5.3025        5.3055       5.145271       0.04483



 Wavenumbers:  5150. -  6150. cm-1, ATM      1
 LEVEL PRESSURE   UPWARD FLUX   DIFDOWN FLUX  DIRDOWN FLUX  DOWNWARD FLUX   NET FLUX    HEATING RATE
          mb          W/m2          W/m2          W/m2        W/m2          W/m2       degree/day
  51    .06700        1.4930        0.0000       25.5798       25.5798      24.086785       0.00000
  50    .07753        1.4930        0.0000       25.5798       25.5798      24.086745       0.03156
  49    .09103        1.4930        0.0000       25.5797       25.5797      24.086694       0.03205
  48    0.1069        1.4930        0.0000       25.5797       25.5797      24.086633       0.03255
  47    0.1255        1.4930        0.0000       25.5796       25.5796      24.086560       0.03306
  46    0.1487        1.4930        0.0000       25.5795       25.5795      24.086465       0.03483
  45    0.1794        1.4930        0.0000       25.5794       25.5794      24.086330       0.03707
  44    0.2165        1.4930        0.0000       25.5792       25.5792      24.086164       0.03763
  43    0.2613        1.4930        0.0000       25.5790       25.5790      24.085961       0.03821
  42    0.3336        1.4930        0.0000       25.5786       25.5786      24.085615       0.04037
  41    0.4307        1.4930        0.0000       25.5782       25.5782      24.085144       0.04092
  40    0.5894        1.4930        0.0000       25.5774       25.5774      24.084356       0.04192
  39     1.339        1.4930        0.0000       25.5735       25.5736      24.080559       0.04275
  38     1.782        1.4930        0.0000       25.5713       25.5713      24.078349       0.04207
  37     2.292        1.4930        0.0001       25.5688       25.5688      24.075849       0.04141
  36     2.964        1.4930        0.0001       25.5656       25.5656      24.072673       0.03987
  35     3.853        1.4930        0.0001       25.5615       25.5616      24.068637       0.03829
  34     5.035        1.4929        0.0001       25.5562       25.5564      24.063443       0.03711
  33     6.613        1.4929        0.0002       25.5494       25.5496      24.056706       0.03602
  32     8.786        1.4928        0.0002       25.5406       25.5408      24.047979       0.03389
  31     11.80        1.4928        0.0003       25.5287       25.5290      24.036183       0.03303
  30     15.07        1.4927        0.0004       25.5167       25.5171      24.024360       0.03052
  29     18.79        1.4926        0.0005       25.5042       25.5047      24.012009       0.02800
  28     23.16        1.4926        0.0006       25.4907       25.4913      23.998714       0.02571
  27     28.12        1.4925        0.0007       25.4764       25.4772      23.984708       0.02381
  26     33.73        1.4924        0.0009       25.4620       25.4629      23.970533       0.02131
  25     40.54        1.4922        0.0010       25.4463       25.4473      23.955063       0.01919
  24     48.69        1.4921        0.0012       25.4294       25.4306      23.938536       0.01710
  23     57.69        1.4919        0.0015       25.4126       25.4141      23.922169       0.01534
  22     68.43        1.4917        0.0018       25.3944       25.3962      23.904439       0.01394
  21     81.20        1.4915        0.0021       25.3744       25.3765      23.884972       0.01286
  20     96.49        1.4913        0.0025       25.3519       25.3544      23.863135       0.01205
  19     114.6        1.4910        0.0029       25.3262       25.3291      23.838127       0.01168
  18     136.5        1.4906        0.0035       25.2962       25.2997      23.809048       0.01118
  17     162.9        1.4902        0.0041       25.2521       25.2562      23.766014       0.01376
  16     196.4        1.4897        0.0050       25.1593       25.1643      23.674565       0.02302
  15     218.7        1.4894        0.0055       25.0159       25.0214      23.532059       0.05410
  14     243.0        1.4890        0.0060       24.7089       24.7150      23.225920       0.10618
  13     269.0        1.4887        0.0066       24.1619       24.1684      22.679699       0.17719
  12     297.5        1.4884        0.0071       23.4544       23.4615      21.973015       0.20959
  11     328.5        1.4882        0.0076       22.7355       22.7430      21.254853       0.19527
  10     361.9        1.4880        0.0081       21.9224       21.9305      20.442499       0.20553
   9     398.1        1.4879        0.0085       20.9939       21.0025      19.514553       0.21619
   8     437.6        1.4879        0.0090       19.9833       19.9923      18.504362       0.21599
   7     480.5        1.4881        0.0093       18.9483       18.9576      17.469518       0.20324
   6     533.0        1.4887        0.0098       17.7796       17.7894      16.300673       0.18803
   5     589.8        1.4899        0.0102       16.6726       16.6827      15.192877       0.16443
   4     651.6        1.4923        0.0106       15.6343       15.6449      14.152522       0.14227
   3     718.7        1.4970        0.0110       14.7738       14.7848      13.287788       0.10867
   2     792.3        1.5060        0.0116       14.0291       14.0407      12.534682       0.08637
   1     891.5        1.5295        0.0122       13.0822       13.0944      11.564919       0.08252
   0    1013.0        1.5964        0.0129       12.0384       12.0512      10.454865       0.07708



 Wavenumbers:  6150. -  7700. cm-1, ATM      1
 LEVEL PRESSURE   UPWARD FLUX   DIFDOWN FLUX  DIRDOWN FLUX  DOWNWARD FLUX   NET FLUX    HEATING RATE
          mb          W/m2          W/m2          W/m2        W/m2          W/m2       degree/day
  51    .06700        2.7271        0.0000       47.3109       47.3109      44.583809       0.00000
  50    .07753        2.7270        0.0000       47.3108       47.3108      44.583752       0.04553
  49    .09103        2.7270        0.0000       47.3107       47.3107      44.583679       0.04583
  48    0.1069        2.7270        0.0000       47.3106       47.3106      44.583592       0.04614
  47    0.1255        2.7270        0.0000       47.3105       47.3105      44.583490       0.04645
  46    0.1487        2.7270        0.0000       47.3104       47.3104      44.583356       0.04852
  45    0.1794        2.7270        0.0000       47.3102       47.3102      44.583170       0.05127
  44    0.2165        2.7270        0.0000       47.3100       47.3100      44.582943       0.05167
  43    0.2613        2.7270        0.0000       47.3097       47.3097      44.582666       0.05210
  42    0.3336        2.7270        0.0000       47.3092       47.3092      44.582197       0.05471
  41    0.4307        2.7270        0.0000       47.3085       47.3086      44.581562       0.05521
  40    0.5894        2.7270        0.0001       47.3074       47.3075      44.580503       0.05633
  39     1.339        2.7269        0.0001       47.3022       47.3023      44.575410       0.05733
  38     1.782        2.7269        0.0002       47.2991       47.2993      44.572440       0.05655
  37     2.292        2.7268        0.0002       47.2956       47.2959      44.569065       0.05591
  36     2.964        2.7268        0.0003       47.2912       47.2915      44.564746       0.05421
  35     3.853        2.7267        0.0004       47.2855       47.2859      44.559212       0.05252
  34     5.035        2.7266        0.0005       47.2780       47.2786      44.552031       0.05129
  33     6.613        2.7264        0.0007       47.2683       47.2690      44.542644       0.05019
  32     8.786        2.7262        0.0009       47.2556       47.2565      44.530345       0.04776
  31     11.80        2.7259        0.0013       47.2380       47.2393      44.513442       0.04732
  30     15.07        2.7255        0.0016       47.2201       47.2217      44.496155       0.04463
  29     18.79        2.7252        0.0020       47.2008       47.2029      44.477677       0.04190
  28     23.16        2.7247        0.0025       47.1795       47.1820      44.457288       0.03943
  27     28.12        2.7242        0.0031       47.1565       47.1595      44.435297       0.03738
  26     33.73        2.7237        0.0037       47.1324       47.1361      44.412378       0.03446
  25     40.54        2.7230        0.0044       47.1054       47.1098      44.386745       0.03180
  24     48.69        2.7222        0.0053       47.0754       47.0807      44.358497       0.02923
  23     57.69        2.7213        0.0062       47.0449       47.0512      44.329882       0.02682
  22     68.43        2.7202        0.0074       47.0110       47.0184      44.298153       0.02494
  21     81.20        2.7190        0.0088       46.9729       46.9816      44.262671       0.02345
  20     96.49        2.7175        0.0104       46.9294       46.9398      44.222347       0.02226
  19     114.6        2.7157        0.0124       46.8790       46.8914      44.175739       0.02176
  18     136.5        2.7135        0.0147       46.8200       46.8347      44.121153       0.02099
  17     162.9        2.7110        0.0175       46.7361       46.7536      44.042600       0.02511
  16     196.4        2.7077        0.0210       46.5703       46.5913      43.883575       0.04003
  15     218.7        2.7055        0.0233       46.3473       46.3706      43.665032       0.08297
  14     243.0        2.7033        0.0257       45.9299       45.9555      43.252233       0.14317
  13     269.0        2.7009        0.0280       45.1708       45.1988      42.497838       0.24472
  12     297.5        2.6986        0.0303       44.0115       44.0417      41.343123       0.34248
  11     328.5        2.6963        0.0325       42.7242       42.7567      40.060465       0.34875
  10     361.9        2.6940        0.0347       41.3539       41.3887      38.694685       0.34556
   9     398.1        2.6919        0.0369       39.7953       39.8322      37.140229       0.36215
   8     437.6        2.6902        0.0388       37.9948       38.0336      35.343366       0.38418
   7     480.5        2.6891        0.0406       36.0647       36.1053      33.416215       0.37849
   6     533.0        2.6889        0.0423       33.7773       33.8196      31.130738       0.36766
   5     589.8        2.6909        0.0438       31.4082       31.4519      28.761088       0.35173
   4     651.6        2.6975        0.0447       28.8834       28.9281      26.230596       0.34605
   3     718.7        2.7120        0.0454       26.4104       26.4557      23.743752       0.31253
   2     792.3        2.7415        0.0457       24.0056       24.0513      21.309862       0.27914
   1     891.5        2.8197        0.0460       21.2348       21.2807      18.461006       0.24242
   0    1013.0        3.0327        0.0462       18.6150       18.6613      15.628563       0.19667



 Wavenumbers:  7700. -  8050. cm-1, ATM      1
 LEVEL PRESSURE   UPWARD FLUX   DIFDOWN FLUX  DIRDOWN FLUX  DOWNWARD FLUX   NET FLUX    HEATING RATE
          mb          W/m2          W/m2          W/m2        W/m2          W/m2       degree/day
  51    .06700        4.6214        0.0000       11.1810       11.1810       6.559536       0.00000
  50    .07753        4.6214        0.0000       11.1809       11.1809       6.559515       0.01665
  49    .09103        4.6214        0.0000       11.1809       11.1809       6.559489       0.01632
  48    0.1069        4.6214        0.0000       11.1809       11.1809       6.559459       0.01598
  47    0.1255        4.6214        0.0000       11.1809       11.1809       6.559424       0.01563
  46    0.1487        4.6214        0.0000       11.1808       11.1808       6.559381       0.01586
  45    0.1794        4.6215        0.0000       11.1808       11.1808       6.559321       0.01632
  44    0.2165        4.6215        0.0000       11.1807       11.1807       6.559251       0.01601
  43    0.2613        4.6215        0.0000       11.1806       11.1806       6.559168       0.01571
  42    0.3336        4.6215        0.0000       11.1805       11.1805       6.559030       0.01608
  41    0.4307        4.6215        0.0000       11.1803       11.1804       6.558847       0.01590
  40    0.5894        4.6216        0.0000       11.1801       11.1801       6.558548       0.01588
  39     1.339        4.6217        0.0001       11.1788       11.1789       6.557135       0.01591
  38     1.782        4.6219        0.0001       11.1781       11.1782       6.556305       0.01580
  37     2.292        4.6220        0.0001       11.1772       11.1773       6.555344       0.01591
  36     2.964        4.6221        0.0002       11.1761       11.1762       6.554083       0.01584
  35     3.853        4.6224        0.0002       11.1746       11.1748       6.552417       0.01581
  34     5.035        4.6227        0.0003       11.1726       11.1729       6.550204       0.01581
  33     6.613        4.6230        0.0003       11.1700       11.1703       6.547248       0.01580
  32     8.786        4.6236        0.0005       11.1664       11.1668       6.543266       0.01546
  31     11.80        4.6243        0.0006       11.1613       11.1619       6.537575       0.01593
  30     15.07        4.6251        0.0008       11.1558       11.1566       6.531471       0.01576
  29     18.79        4.6261        0.0010       11.1497       11.1507       6.524583       0.01562
  28     23.16        4.6272        0.0012       11.1425       11.1437       6.516551       0.01553
  27     28.12        4.6284        0.0015       11.1343       11.1358       6.507382       0.01559
  26     33.73        4.6298        0.0017       11.1252       11.1269       6.497144       0.01539
  25     40.54        4.6315        0.0021       11.1142       11.1163       6.484808       0.01530
  24     48.69        4.6335        0.0025       11.1010       11.1035       6.469986       0.01534
  23     57.69        4.6358        0.0030       11.0866       11.0896       6.453767       0.01520
  22     68.43        4.6385        0.0035       11.0695       11.0731       6.434539       0.01512
  21     81.20        4.6418        0.0042       11.0494       11.0535       6.411757       0.01505
  20     96.49        4.6457        0.0050       11.0255       11.0305       6.384787       0.01489
  19     114.6        4.6504        0.0059       10.9975       11.0034       6.353012       0.01484
  18     136.5        4.6561        0.0070       10.9648       10.9717       6.315688       0.01435
  17     162.9        4.6629        0.0083       10.9263       10.9346       6.271699       0.01406
  16     196.4        4.6719        0.0100       10.8773       10.8872       6.215352       0.01418
  15     218.7        4.6779        0.0111       10.8455       10.8566       6.178723       0.01391
  14     243.0        4.6845        0.0123       10.8114       10.8237       6.139188       0.01371
  13     269.0        4.6918        0.0136       10.7749       10.7884       6.096591       0.01382
  12     297.5        4.6999        0.0150       10.7357       10.7507       6.050722       0.01360
  11     328.5        4.7089        0.0165       10.6937       10.7102       6.001291       0.01344
  10     361.9        4.7189        0.0181       10.6489       10.6669       5.948085       0.01346
   9     398.1        4.7300        0.0198       10.6008       10.6206       5.890640       0.01338
   8     437.6        4.7424        0.0217       10.5491       10.5708       5.828375       0.01331
   7     480.5        4.7564        0.0237       10.4934       10.5171       5.760753       0.01328
   6     533.0        4.7746        0.0262       10.4243       10.4504       5.675802       0.01367
   5     589.8        4.7960        0.0288       10.3479       10.3767       5.580730       0.01411
   4     651.6        4.8216        0.0316       10.2613       10.2930       5.471378       0.01495
   3     718.7        4.8530        0.0346       10.1618       10.1964       5.343355       0.01609
   2     792.3        4.8929        0.0378       10.0439       10.0817       5.188759       0.01773
   1     891.5        4.9601        0.0420        9.8626        9.9046       4.944461       0.02079
   0    1013.0        5.0664        0.0468        9.6103        9.6571       4.590661       0.02457



 Wavenumbers:  8050. - 12850. cm-1, ATM      1
 LEVEL PRESSURE   UPWARD FLUX   DIFDOWN FLUX  DIRDOWN FLUX  DOWNWARD FLUX   NET FLUX    HEATING RATE
          mb          W/m2          W/m2          W/m2        W/m2          W/m2       degree/day
  51    .06700       87.4205        0.0000      156.5418      156.5418      69.121277       0.00000
  50    .07753       87.4205        0.0000      156.5417      156.5417      69.121277      -0.00000
  49    .09103       87.4204        0.0001      156.5417      156.5417      69.121277      -0.00000
  48    0.1069       87.4204        0.0001      156.5416      156.5417      69.121277       0.00000
  47    0.1255       87.4204        0.0002      156.5415      156.5417      69.121277      -0.00000
  46    0.1487       87.4204        0.0002      156.5414      156.5417      69.121277      -0.00000
  45    0.1794       87.4203        0.0003      156.5413      156.5416      69.121277       0.00000
  44    0.2165       87.4203        0.0004      156.5412      156.5416      69.121277      -0.00000
  43    0.2613       87.4202        0.0005      156.5410      156.5415      69.121277      -0.00000
  42    0.3336       87.4202        0.0007      156.5407      156.5414      69.121277       0.00000
  41    0.4307       87.4200        0.0010      156.5403      156.5413      69.121277       0.00000
  40    0.5894       87.4199        0.0015      156.5397      156.5411      69.121277       0.00000
  39     1.339       87.4190        0.0035      156.5367      156.5403      69.121277       0.00000
  38     1.782       87.4185        0.0048      156.5350      156.5398      69.121277      -0.00000
  37     2.292       87.4179        0.0062      156.5330      156.5392      69.121277       0.00000
  36     2.964       87.4171        0.0080      156.5303      156.5384      69.121277       0.00000
  35     3.853       87.4161        0.0105      156.5268      156.5374      69.121277      -0.00000
  34     5.035       87.4147        0.0138      156.5222      156.5360      69.121277       0.00000
  33     6.613       87.4129        0.0182      156.5160      156.5342      69.121277       0.00000
  32     8.786       87.4104        0.0241      156.5076      156.5317      69.121277      -0.00000
  31     11.80       87.4069        0.0325      156.4957      156.5282      69.121277       0.00000
  30     15.07       87.4031        0.0416      156.4828      156.5244      69.121277       0.00000
  29     18.79       87.3988        0.0518      156.4682      156.5201      69.121277      -0.00000
  28     23.16       87.3938        0.0638      156.4512      156.5150      69.121277      -0.00000
  27     28.12       87.3880        0.0776      156.4317      156.5093      69.121277       0.00000
  26     33.73       87.3816        0.0930      156.4099      156.5028      69.121277       0.00000
  25     40.54       87.3738        0.1116      156.3834      156.4950      69.121277       0.00000
  24     48.69       87.3644        0.1341      156.3515      156.4856      69.121277      -0.00000
  23     57.69       87.3540        0.1588      156.3164      156.4753      69.121277      -0.00000
  22     68.43       87.3416        0.1884      156.2746      156.4629      69.121277       0.00000
  21     81.20       87.3269        0.2236      156.2246      156.4482      69.121277      -0.00000
  20     96.49       87.3093        0.2656      156.1649      156.4306      69.121277       0.00000
  19     114.6       87.2885        0.3156      156.0879      156.4036      69.115078       0.00289
  18     136.5       87.2638        0.3750      155.9962      156.3712      69.107387       0.00296
  17     162.9       87.2343        0.4459      155.8831      156.3290      69.094618       0.00408
  16     196.4       87.1961        0.5381      155.7199      156.2580      69.061873       0.00824
  15     218.7       87.1712        0.5987      155.5733      156.1720      69.000824       0.02318
  14     243.0       87.1444        0.6646      155.3367      156.0012      68.856808       0.04995
  13     269.0       87.1165        0.7358      154.9514      155.6872      68.570726       0.09280
  12     297.5       87.0884        0.8125      154.3896      155.2021      68.113713       0.13555
  11     328.5       87.0607        0.8952      153.7151      154.6103      67.549565       0.15339
  10     361.9       87.0348        0.9839      152.9087      153.8926      66.857816       0.17502
   9     398.1       87.0130        1.0787      151.8986      152.9773      65.964370       0.20815
   8     437.6       86.9992        1.1796      150.6031      151.7828      64.783550       0.25247
   7     480.5       86.9983        1.2863      149.0014      150.2877      63.289383       0.29345
   6     533.0       87.0231        1.4152      146.7375      148.1528      61.129675       0.34743
   5     589.8       87.0974        1.5503      143.8730      145.4233      58.325923       0.41617
   4     651.6       87.2763        1.6888      140.0955      141.7843      54.508034       0.52211
   3     718.7       87.6313        1.8295      135.5278      137.3573      49.725942       0.60098
   2     792.3       88.3194        1.9690      130.0690      132.0380      43.718624       0.68897
   1     891.5       90.0672        2.1380      122.1273      124.2653      34.198096       0.81015
   0    1013.0       94.3374        2.3196      112.9512      115.2708      20.933397       0.92104



 Wavenumbers: 12850. - 16000. cm-1, ATM      1
 LEVEL PRESSURE   UPWARD FLUX   DIFDOWN FLUX  DIRDOWN FLUX  DOWNWARD FLUX   NET FLUX    HEATING RATE
          mb          W/m2          W/m2          W/m2        W/m2          W/m2       degree/day
  51    .06700       78.5022        0.0000       98.0872       98.0872      19.585055       0.00000
  50    .07753       78.5022        0.0001       98.0864       98.0864      19.584263       0.63433
  49    .09103       78.5022        0.0002       98.0853       98.0855      19.583269       0.62123
  48    0.1069       78.5022        0.0003       98.0841       98.0843      19.582127       0.60788
  47    0.1255       78.5022        0.0004       98.0826       98.0830      19.580815       0.59482
  46    0.1487       78.5022        0.0005       98.0809       98.0814      19.579159       0.60357
  45    0.1794       78.5023        0.0007       98.0784       98.0792      19.576907       0.61836
  44    0.2165       78.5023        0.0010       98.0756       98.0766      19.574257       0.60272
  43    0.2613       78.5024        0.0012       98.0723       98.0736      19.571142       0.58730
  42    0.3336       78.5027        0.0017       98.0670       98.0687      19.566057       0.59287
  41    0.4307       78.5030        0.0023       98.0602       98.0625      19.559481       0.57172
  40    0.5894       78.5038        0.0033       98.0496       98.0529      19.549121       0.55094
  39     1.339       78.5103        0.0081       98.0043       98.0125      19.502198       0.52826
  38     1.782       78.5162        0.0109       97.9793       97.9902      19.474043       0.53602
  37     2.292       78.5250        0.0142       97.9498       97.9640      19.438987       0.58062
  36     2.964       78.5396        0.0185       97.9088       97.9273      19.387724       0.64351
  35     3.853       78.5630        0.0241       97.8503       97.8744      19.311395       0.72437
  34     5.035       78.5984        0.0316       97.7680       97.7996      19.201156       0.78750
  33     6.613       78.6478        0.0416       97.6562       97.6978      19.049963       0.80828
  32     8.786       78.7121        0.0550       97.5107       97.5657      18.853601       0.76260
  31     11.80       78.7958        0.0743       97.3179       97.3921      18.596292       0.72038
  30     15.07       78.8761        0.0949       97.1283       97.2232      18.347132       0.64328
  29     18.79       78.9581        0.1182       96.9300       97.0482      18.090111       0.58274
  28     23.16       79.0439        0.1454       96.7166       96.8619      17.818054       0.52607
  27     28.12       79.1303        0.1764       96.4935       96.6699      17.539611       0.47333
  26     33.73       79.2103        0.2112       96.2731       96.4843      17.273960       0.39941
  25     40.54       79.2876        0.2532       96.0408       96.2940      17.006311       0.33205
  24     48.69       79.3621        0.3038       95.7946       96.0984      16.736315       0.27940
  23     57.69       79.4256        0.3594       95.5573       95.9167      16.491124       0.22983
  22     68.43       79.4815        0.4257       95.3106       95.7363      16.254851       0.18574
  21     81.20       79.5210        0.5048       95.0643       95.5691      16.048143       0.13659
  20     96.49       79.5430        0.5991       94.8153       95.4144      15.871378       0.09756
  19     114.6       79.5707        0.7123       94.5411       95.2534      15.682749       0.08808
  18     136.5       79.5919        0.8466       94.2320       95.0786      15.486688       0.07539
  17     162.9       79.6066        1.0064       93.8753       94.8817      15.275074       0.06764
  16     196.4       79.6033        1.2137       93.4347       94.6483      15.045039       0.05790
  15     218.7       79.5930        1.3498       93.1513       94.5011      14.908073       0.05200
  14     243.0       79.5783        1.4978       92.8439       94.3417      14.763397       0.05018
  13     269.0       79.5591        1.6581       92.5111       94.1692      14.610168       0.04971
  12     297.5       79.5357        1.8314       92.1495       93.9809      14.445171       0.04894
  11     328.5       79.5102        2.0187       91.7554       93.7741      14.263890       0.04929
  10     361.9       79.4831        2.2203       91.3262       93.5465      14.063334       0.05074
   9     398.1       79.4559        2.4372       90.8575       93.2948      13.838899       0.05229
   8     437.6       79.4309        2.6702       90.3418       93.0120      13.581064       0.05513
   7     480.5       79.4106        2.9197       89.7728       92.6925      13.281868       0.05876
   6     533.0       79.3987        3.2266       89.0428       92.2694      12.870682       0.06615
   5     589.8       79.4108        3.5565       88.2038       91.7604      12.349597       0.07735
   4     651.6       79.4752        3.9094       87.1979       91.1073      11.632083       0.09812
   3     718.7       79.6107        4.2833       86.0161       90.2995      10.688817       0.11854
   2     792.3       79.8773        4.6747       84.5970       89.2717       9.394413       0.14845
   1     891.5       80.5256        5.1843       82.4374       87.6217       7.096154       0.19557
   0    1013.0       81.8813        5.7697       79.6182       85.3878       3.506557       0.24924



 Wavenumbers: 16000. - 22650. cm-1, ATM      1
 LEVEL PRESSURE   UPWARD FLUX   DIFDOWN FLUX  DIRDOWN FLUX  DOWNWARD FLUX   NET FLUX    HEATING RATE
          mb          W/m2          W/m2          W/m2        W/m2          W/m2       degree/day
  51    .06700      139.9056        0.0000      156.3892      156.3892      16.483626       0.00000
  50    .07753      139.9056        0.0004      156.3887      156.3891      16.483479       0.11778
  49    .09103      139.9056        0.0009      156.3879      156.3888      16.483265       0.13359
  48    0.1069      139.9056        0.0015      156.3871      156.3885      16.482979       0.15233
  47    0.1255      139.9056        0.0021      156.3861      156.3882      16.482596       0.17364
  46    0.1487      139.9056        0.0029      156.3847      156.3877      16.482031       0.20576
  45    0.1794      139.9058        0.0041      156.3828      156.3869      16.481149       0.24227
  44    0.2165      139.9060        0.0054      156.3805      156.3859      16.479952       0.27228
  43    0.2613      139.9063        0.0070      156.3776      156.3846      16.478328       0.30611
  42    0.3336      139.9070        0.0096      156.3726      156.3823      16.475240       0.35998
  41    0.4307      139.9082        0.0131      156.3657      156.3788      16.470586       0.40465
  40    0.5894      139.9108        0.0188      156.3537      156.3725      16.461711       0.47201
  39     1.339      139.9330        0.0457      156.2834      156.3291      16.396134       0.73827
  38     1.782      139.9536        0.0615      156.2324      156.2939      16.340272       1.06354
  37     2.292      139.9845        0.0798      156.1641      156.2439      16.259410       1.33928
  36     2.964      140.0359        0.1038      156.0605      156.1643      16.128414       1.64440
  35     3.853      140.1190        0.1355      155.9041      156.0396      15.920555       1.97261
  34     5.035      140.2445        0.1776      155.6774      155.8549      15.610450       2.21526
  33     6.613      140.4198        0.2337      155.3656      155.5993      15.179500       2.30386
  32     8.786      140.6481        0.3092      154.9577      155.2669      14.618747       2.17776
  31     11.80      140.9453        0.4171      154.4153      154.8324      13.887125       2.04831
  30     15.07      141.2298        0.5328      153.8804      154.4132      13.183348       1.81702
  29     18.79      141.5203        0.6633      153.3191      153.9824      12.462060       1.63538
  28     23.16      141.8238        0.8154      152.7126      153.5280      11.704194       1.46547
  27     28.12      142.1290        0.9892      152.0755      153.0647      10.935615       1.30653
  26     33.73      142.4106        1.1834      151.4409      152.6243      10.213710       1.08540
  25     40.54      142.6813        1.4179      150.7637      152.1816       9.500230       0.88515
  24     48.69      142.9402        1.7002      150.0338      151.7341       8.793895       0.73095
  23     57.69      143.1593        2.0100      149.3151      151.3252       8.165913       0.58864
  22     68.43      143.3498        2.3786      148.5476      150.9262       7.576420       0.46342
  21     81.20      143.4803        2.8174      147.7517      150.5691       7.088787       0.32222
  20     96.49      143.5462        3.3397      146.9127      150.2524       6.706129       0.21120
  19     114.6      143.5787        3.9581      145.9763      149.9344       6.355696       0.16363
  18     136.5      143.5861        4.6883      144.9088      149.5971       6.010971       0.13256
  17     162.9      143.5666        5.5537      143.6785      149.2323       5.665667       0.11037
  16     196.4      143.4803        6.6703      142.1651      148.8354       5.355112       0.07817
  15     218.7      143.4012        7.4000      141.2033      148.6033       5.202124       0.05808
  14     243.0      143.3050        8.1897      140.1753      148.3651       5.060041       0.04928
  13     269.0      143.1901        9.0417      139.0797      148.1214       4.931278       0.04177
  12     297.5      143.0557        9.9579      137.9141      147.8720       4.816222       0.03412
  11     328.5      142.9059       10.9426      136.6676      147.6102       4.704287       0.03043
  10     361.9      142.7404       11.9969      135.3392      147.3361       4.595618       0.02749
   9     398.1      142.5587       13.1246      133.9235      147.0480       4.489345       0.02476
   8     437.6      142.3616       14.3277      132.4163      146.7440       4.382361       0.02287
   7     480.5      142.1488       15.6085      130.8147      146.4232       4.274399       0.02120
   6     533.0      141.8868       17.1728      128.8599      146.0327       4.145878       0.02067
   5     589.8      141.6082       18.8441      126.7679      145.6120       4.003822       0.02109
   4     651.6      141.3190       20.6240      124.5274      145.1514       3.832455       0.02343
   3     718.7      141.0250       22.5142      122.1285      144.6427       3.617624       0.02700
   2     792.3      140.7428       24.5126      119.5548      144.0675       3.324713       0.03359
   1     891.5      140.4402       27.1652      116.0566      143.2218       2.781691       0.04621
   0    1013.0      140.2051       30.2819      111.8404      142.1224       1.917239       0.06002



 Wavenumbers: 22650. - 29000. cm-1, ATM      1
 LEVEL PRESSURE   UPWARD FLUX   DIFDOWN FLUX  DIRDOWN FLUX  DOWNWARD FLUX   NET FLUX    HEATING RATE
          mb          W/m2          W/m2          W/m2        W/m2          W/m2       degree/day
  51    .06700       58.5453        0.0000       59.0156       59.0156       0.470325       0.00000
  50    .07753       58.5452        0.0005       59.0151       59.0155       0.470325      -0.00000
  49    .09103       58.5451        0.0010       59.0144       59.0154       0.470325       0.00000
  48    0.1069       58.5450        0.0017       59.0136       59.0153       0.470325       0.00000
  47    0.1255       58.5448        0.0025       59.0127       59.0151       0.470325      -0.00000
  46    0.1487       58.5446        0.0034       59.0115       59.0149       0.470325       0.00000
  45    0.1794       58.5444        0.0048       59.0099       59.0147       0.470325       0.00000
  44    0.2165       58.5441        0.0063       59.0080       59.0144       0.470325       0.00000
  43    0.2613       58.5437        0.0082       59.0058       59.0140       0.470325      -0.00000
  42    0.3336       58.5431        0.0113       59.0022       59.0134       0.470325       0.00000
  41    0.4307       58.5423        0.0153       58.9973       59.0126       0.470325      -0.00000
  40    0.5894       58.5410        0.0220       58.9894       59.0114       0.470325       0.00000
  39     1.339       58.5349        0.0535       58.9518       59.0053       0.470325       0.00000
  38     1.782       58.5313        0.0720       58.9297       59.0017       0.470325      -0.00000
  37     2.292       58.5272        0.0934       58.9042       58.9975       0.470325       0.00000
  36     2.964       58.5218        0.1214       58.8706       58.9921       0.470325       0.00000
  35     3.853       58.5146        0.1585       58.8264       58.9849       0.470325      -0.00000
  34     5.035       58.5050        0.2078       58.7676       58.9754       0.470325       0.00000
  33     6.613       58.4923        0.2735       58.6891       58.9626       0.470325       0.00000
  32     8.786       58.4752        0.3621       58.5834       58.9455       0.470325       0.00000
  31     11.80       58.4507        0.4886       58.4324       58.9210       0.470325      -0.00000
  30     15.07       58.4244        0.6241       58.2706       58.8947       0.470325       0.00000
  29     18.79       58.3948        0.7769       58.0882       58.8651       0.470325       0.00000
  28     23.16       58.3603        0.9550       57.8757       58.8307       0.470325      -0.00000
  27     28.12       58.3210        1.1580       57.6333       58.7913       0.470325       0.00000
  26     33.73       58.2771        1.3844       57.3631       58.7475       0.470325       0.00000
  25     40.54       58.2244        1.6568       57.0379       58.6947       0.470325       0.00000
  24     48.69       58.1610        1.9835       56.6479       58.6314       0.470325       0.00000
  23     57.69       58.0919        2.3402       56.2221       58.5622       0.470325      -0.00000
  22     68.43       58.0102        2.7619       55.7186       58.4805       0.470325       0.00000
  21     81.20       57.9136        3.2600       55.1239       58.3839       0.470325       0.00000
  20     96.49       57.7997        3.8472       54.4228       58.2700       0.470325       0.00000
  19     114.6       57.6661        4.5355       53.6010       58.1365       0.470325       0.00000
  18     136.5       57.5102        5.3388       52.6418       57.9805       0.470325      -0.00000
  17     162.9       57.3279        6.2778       51.5203       57.7982       0.470325       0.00000
  16     196.4       57.0967        7.4676       50.0994       57.5670       0.470325      -0.00000
  15     218.7       56.9480        8.2321       49.1863       57.4184       0.470325       0.00000
  14     243.0       56.7893        9.0483       48.2113       57.2596       0.470325       0.00000
  13     269.0       56.6204        9.9158       47.1749       57.0907       0.470325       0.00000
  12     297.5       56.4416       10.8337       46.0783       56.9120       0.470325      -0.00000
  11     328.5       56.2526       11.8034       44.9195       56.7230       0.470325      -0.00000
  10     361.9       56.0539       12.8224       43.7018       56.5242       0.470325       0.00000
   9     398.1       55.8454       13.8907       42.4250       56.3157       0.470325       0.00000
   8     437.6       55.6274       15.0061       41.0916       56.0977       0.470325      -0.00000
   7     480.5       55.4005       16.1663       39.7045       55.8708       0.470325       0.00000
   6     533.0       55.1302       17.5463       38.0543       55.6005       0.470325      -0.00000
   5     589.8       54.8496       18.9768       36.3431       55.3199       0.470325       0.00000
   4     651.6       54.5600       20.4507       34.5795       55.0303       0.470325       0.00000
   3     718.7       54.2623       21.9624       32.7702       54.7326       0.470325      -0.00000
   2     792.3       53.9583       23.5031       30.9256       54.4286       0.470325       0.00000
   1     891.5       53.5704       25.4630       28.5778       54.0407       0.470325      -0.00000
   0    1013.0       53.1375       27.6414       25.9665       53.6078       0.470325       0.00000



 Wavenumbers: 29000. - 38000. cm-1, ATM      1
 LEVEL PRESSURE   UPWARD FLUX   DIFDOWN FLUX  DIRDOWN FLUX  DOWNWARD FLUX   NET FLUX    HEATING RATE
          mb          W/m2          W/m2          W/m2        W/m2          W/m2       degree/day
  51    .06700        8.7439        0.0000       20.8114       20.8114      12.067496       0.00000
  50    .07753        8.7437        0.0003       20.8070       20.8074      12.063689       3.05152
  49    .09103        8.7434        0.0007       20.8009       20.8016      12.058152       3.46082
  48    0.1069        8.7432        0.0012       20.7928       20.7939      12.050742       3.94426
  47    0.1255        8.7429        0.0017       20.7820       20.7837      12.040837       4.49030
  46    0.1487        8.7426        0.0024       20.7665       20.7688      12.026274       5.30839
  45    0.1794        8.7421        0.0033       20.7424       20.7457      12.003610       6.22198
  44    0.2165        8.7416        0.0044       20.7103       20.7147      11.973087       6.94334
  43    0.2613        8.7410        0.0056       20.6675       20.6731      11.932093       7.72725
  42    0.3336        8.7401        0.0077       20.5880       20.5956      11.855533       8.92616
  41    0.4307        8.7390        0.0104       20.4722       20.4826      11.743581       9.73392
  40    0.5894        8.7375        0.0147       20.2637       20.2784      11.540900      10.77834
  39     1.339        8.7340        0.0331       19.0984       19.1315      10.397440      12.87328
  38     1.782        8.7345        0.0427       18.4394       18.4821       9.747530      12.37324
  37     2.292        8.7372        0.0530       17.7714       17.8244       9.087206      10.93669
  36     2.964        8.7437        0.0657       17.0421       17.1078       8.364114       9.07698
  35     3.853        8.7564        0.0816       16.2678       16.3494       7.592987       7.31815
  34     5.035        8.7775        0.1017       15.4803       15.5820       6.804568       5.63213
  33     6.613        8.8081        0.1275       14.7157       14.8432       6.035091       4.11363
  32     8.786        8.8485        0.1613       13.9936       14.1548       5.306280       2.83044
  31     11.80        8.9013        0.2083       13.2835       13.4918       4.590499       2.00396
  30     15.07        8.9522        0.2571       12.7394       12.9964       4.044204       1.41043
  29     18.79        9.0048        0.3111       12.2666       12.5777       3.572943       1.06849
  28     23.16        9.0606        0.3726       11.8300       12.2026       3.142003       0.83330
  27     28.12        9.1178        0.4414       11.4279       11.8693       2.751517       0.66380
  26     33.73        9.1706        0.5173       11.0695       11.5868       2.416211       0.50414
  25     40.54        9.2206        0.6080       10.7209       11.3289       2.108246       0.38206
  24     48.69        9.2678        0.7155       10.3742       11.0897       1.821897       0.29633
  23     57.69        9.3065        0.8319       10.0549       10.8868       1.580327       0.22644
  22     68.43        9.3378        0.9685        9.7327       10.7012       1.363472       0.17048
  21     81.20        9.3526        1.1298        9.4134       10.5432       1.190562       0.11426
  20     96.49        9.3491        1.3193        9.0887       10.4080       1.058945       0.07264
  19     114.6        9.3353        1.5383        8.7388       10.2771       0.941795       0.05470
  18     136.5        9.3142        1.7887        8.3549       10.1436       0.829393       0.04322
  17     162.9        9.2859        2.0741        7.9311       10.0052       0.719346       0.03518
  16     196.4        9.2384        2.4276        7.4333        9.8609       0.622491       0.02438
  15     218.7        9.2042        2.6499        7.1295        9.7795       0.575256       0.01793
  14     243.0        9.1668        2.8823        6.8161        9.6984       0.531641       0.01513
  13     269.0        9.1258        3.1240        6.4943        9.6183       0.492481       0.01270
  12     297.5        9.0815        3.3738        6.1657        9.5395       0.457962       0.01024
  11     328.5        9.0353        3.6307        5.8295        9.4602       0.424915       0.00899
  10     361.9        8.9875        3.8924        5.4886        9.3810       0.393488       0.00795
   9     398.1        8.9384        4.1581        5.1440        9.3021       0.363708       0.00694
   8     437.6        8.8884        4.4264        4.7969        9.2234       0.335002       0.00614
   7     480.5        8.8378        4.6952        4.4504        9.1456       0.307756       0.00535
   6     533.0        8.7799        5.0016        4.0563        9.0579       0.278058       0.00478
   5     589.8        8.7226        5.3037        3.6682        8.9719       0.249306       0.00427
   4     651.6        8.6671        5.5978        3.2905        8.8883       0.221180       0.00385
   3     718.7        8.6138        5.8823        2.9252        8.8075       0.193636       0.00346
   2     792.3        8.5635        6.1537        2.5764        8.7302       0.166679       0.00309
   1     891.5        8.5055        6.4730        2.1659        8.6389       0.133401       0.00283
   0    1013.0        8.4496        6.7937        1.7526        8.5463       0.096662       0.00255



 Wavenumbers: 38000. - 50000. cm-1, ATM      1
 LEVEL PRESSURE   UPWARD FLUX   DIFDOWN FLUX  DIRDOWN FLUX  DOWNWARD FLUX   NET FLUX    HEATING RATE
          mb          W/m2          W/m2          W/m2        W/m2          W/m2       degree/day
  51    .06700        0.0061        0.0000        1.2836        1.2836       1.277518       0.00000
  50    .07753        0.0061        0.0001        1.2812        1.2812       1.275183       1.87150
  49    .09103        0.0060        0.0002        1.2777        1.2778       1.271851       2.08247
  48    0.1069        0.0059        0.0002        1.2731        1.2734       1.267473       2.33059
  47    0.1255        0.0058        0.0004        1.2672        1.2675       1.261717       2.60908
  46    0.1487        0.0057        0.0005        1.2586        1.2591       1.253391       3.03499
  45    0.1794        0.0055        0.0007        1.2455        1.2462       1.240623       3.50520
  44    0.2165        0.0054        0.0009        1.2282        1.2291       1.223697       3.85037
  43    0.2613        0.0052        0.0011        1.2054        1.2065       1.201348       4.21261
  42    0.3336        0.0049        0.0015        1.1639        1.1654       1.160524       4.75970
  41    0.4307        0.0045        0.0020        1.1051        1.1070       1.102565       5.03943
  40    0.5894        0.0039        0.0026        1.0039        1.0064       1.002524       5.32007
  39     1.339        0.0022        0.0035        0.5438        0.5473       0.545104       5.14971
  38     1.782        0.0016        0.0032        0.3635        0.3666       0.365006       3.42879
  37     2.292        0.0012        0.0027        0.2356        0.2383       0.237058       2.11916
  36     2.964        0.0009        0.0022        0.1455        0.1477       0.146786       1.13318
  35     3.853        0.0006        0.0017        0.0858        0.0875       0.086906       0.56828
  34     5.035        0.0004        0.0013        0.0488        0.0501       0.049701       0.26578
  33     6.613        0.0003        0.0010        0.0273        0.0282       0.027974       0.11615
  32     8.786        0.0002        0.0007        0.0144        0.0151       0.014928       0.05067
  31     11.80        0.0001        0.0004        0.0065        0.0070       0.006903       0.02247
  30     15.07        0.0000        0.0003        0.0031        0.0034       0.003329       0.00923
  29     18.79        0.0000        0.0002        0.0014        0.0016       0.001583       0.00396
  28     23.16        0.0000        0.0001        0.0006        0.0007       0.000720       0.00167
  27     28.12        0.0000        0.0001        0.0003        0.0003       0.000317       0.00069
  26     33.73        0.0000        0.0000        0.0001        0.0001       0.000140       0.00027
  25     40.54        0.0000        0.0000        0.0000        0.0001       0.000057       0.00010
  24     48.69        0.0000        0.0000        0.0000        0.0000       0.000021       0.00004
  23     57.69        0.0000        0.0000        0.0000        0.0000       0.000008       0.00001
  22     68.43        0.0000        0.0000        0.0000        0.0000       0.000003       0.00000
  21     81.20        0.0000        0.0000        0.0000        0.0000       0.000001       0.00000
  20     96.49        0.0000        0.0000        0.0000        0.0000       0.000000       0.00000
  19     114.6        0.0000        0.0000        0.0000        0.0000       0.000000       0.00000
  18     136.5        0.0000        0.0000        0.0000        0.0000       0.000000       0.00000
  17     162.9        0.0000        0.0000        0.0000        0.0000       0.000000       0.00000
  16     196.4        0.0000        0.0000        0.0000        0.0000       0.000000       0.00000
  15     218.7        0.0000        0.0000        0.0000        0.0000       0.000000       0.00000
  14     243.0        0.0000        0.0000        0.0000        0.0000       0.000000       0.00000
  13     269.0        0.0000        0.0000        0.0000        0.0000       0.000000       0.00000
  12     297.5        0.0000        0.0000        0.0000        0.0000       0.000000       0.00000
  11     328.5        0.0000        0.0000        0.0000        0.0000       0.000000       0.00000
  10     361.9        0.0000        0.0000        0.0000        0.0000       0.000000       0.00000
   9     398.1        0.0000        0.0000        0.0000        0.0000       0.000000       0.00000
   8     437.6        0.0000        0.0000        0.0000        0.0000       0.000000       0.00000
   7     480.5        0.0000        0.0000        0.0000        0.0000       0.000000       0.00000
   6     533.0        0.0000        0.0000        0.0000        0.0000       0.000000       0.00000
   5     589.8        0.0000        0.0000        0.0000        0.0000       0.000000       0.00000
   4     651.6        0.0000        0.0000        0.0000        0.0000       0.000000       0.00000
   3     718.7        0.0000        0.0000        0.0000        0.0000       0.000000       0.00000
   2     792.3        0.0000        0.0000        0.0000        0.0000       0.000000       0.00000
   1     891.5        0.0000        0.0000        0.0000        0.0000       0.000000       0.00000
   0    1013.0        0.0000        0.0000        0.0000        0.0000       0.000000       0.00000



 Wavenumbers:   820. -  2600. cm-1, ATM      1
 LEVEL PRESSURE   UPWARD FLUX   DIFDOWN FLUX  DIRDOWN FLUX  DOWNWARD FLUX   NET FLUX    HEATING RATE
          mb          W/m2          W/m2          W/m2        W/m2          W/m2       degree/day
  51    .06700        0.0114        0.0000        6.0047        6.0047       5.993252       0.00000
  50    .07753        0.0114        0.0000        6.0008        6.0008       5.989400       3.08819
  49    .09103        0.0114        0.0000        5.9999        5.9999       5.988514       0.55356
  48    0.1069        0.0114        0.0000        5.9989        5.9989       5.987525       0.52650
  47    0.1255        0.0114        0.0000        5.9978        5.9978       5.986408       0.50647
  46    0.1487        0.0114        0.0000        5.9964        5.9964       5.985051       0.49454
  45    0.1794        0.0114        0.0000        5.9947        5.9947       5.983332       0.47197
  44    0.2165        0.0114        0.0000        5.9929        5.9929       5.981489       0.41908
  43    0.2613        0.0114        0.0000        5.9909        5.9909       5.979530       0.36930
  42    0.3336        0.0114        0.0000        5.9880        5.9880       5.976652       0.33553
  41    0.4307        0.0114        0.0000        5.9846        5.9846       5.973183       0.30162
  40    0.5894        0.0114        0.0000        5.9791        5.9791       5.967679       0.29273
  39     1.339        0.0114        0.0000        5.9536        5.9536       5.942194       0.28691
  38     1.782        0.0114        0.0000        5.9395        5.9395       5.928057       0.26914
  37     2.292        0.0114        0.0000        5.9237        5.9237       5.912308       0.26085
  36     2.964        0.0114        0.0000        5.9039        5.9039       5.892536       0.24820
  35     3.853        0.0114        0.0000        5.8793        5.8793       5.867883       0.23396
  34     5.035        0.0114        0.0000        5.8487        5.8487       5.837323       0.21830
  33     6.613        0.0114        0.0000        5.8108        5.8108       5.799363       0.20293
  32     8.786        0.0114        0.0000        5.7631        5.7631       5.751746       0.18493
  31     11.80        0.0114        0.0000        5.7039        5.7039       5.692497       0.16588
  30     15.07        0.0114        0.0000        5.6539        5.6539       5.642467       0.12917
  29     18.79        0.0114        0.0000        5.6127        5.6127       5.601340       0.09325
  28     23.16        0.0114        0.0000        5.5794        5.5794       5.567973       0.06452
  27     28.12        0.0114        0.0000        5.5518        5.5518       5.540416       0.04685
  26     33.73        0.0114        0.0000        5.5268        5.5268       5.515372       0.03765
  25     40.54        0.0114        0.0000        5.4993        5.4993       5.487938       0.03404
  24     48.69        0.0114        0.0000        5.4678        5.4678       5.456405       0.03263
  23     57.69        0.0114        0.0000        5.4340        5.4340       5.422626       0.03166
  22     68.43        0.0114        0.0000        5.3947        5.3948       5.383360       0.03087
  21     81.20        0.0114        0.0000        5.3497        5.3497       5.338336       0.02975
  20     96.49        0.0114        0.0000        5.2982        5.2982       5.286833       0.02843
  19     114.6        0.0114        0.0000        5.2389        5.2389       5.227521       0.02769
  18     136.5        0.0114        0.0000        5.1716        5.1717       5.160278       0.02586
  17     162.9        0.0114        0.0000        5.0890        5.0890       5.077662       0.02641
  16     196.4        0.0114        0.0000        4.9668        4.9668       4.955451       0.03076
  15     218.7        0.0114        0.0000        4.8585        4.8585       4.847090       0.04114
  14     243.0        0.0114        0.0000        4.7078        4.7079       4.696475       0.05224
  13     269.0        0.0114        0.0000        4.5343        4.5343       4.522892       0.05631
  12     297.5        0.0114        0.0000        4.3419        4.3420       4.330569       0.05704
  11     328.5        0.0114        0.0000        4.1281        4.1281       4.116737       0.05814
  10     361.9        0.0114        0.0000        3.8786        3.8787       3.867257       0.06312
   9     398.1        0.0114        0.0000        3.6159        3.6159       3.604512       0.06121
   8     437.6        0.0115        0.0000        3.3759        3.3759       3.364428       0.05133
   7     480.5        0.0115        0.0000        3.1957        3.1958       3.184294       0.03538
   6     533.0        0.0115        0.0000        3.0467        3.0467       3.035166       0.02399
   5     589.8        0.0116        0.0000        2.9023        2.9023       2.890706       0.02144
   4     651.6        0.0117        0.0000        2.7183        2.7184       2.706613       0.02518
   3     718.7        0.0120        0.0000        2.5058        2.5059       2.493873       0.02674
   2     792.3        0.0124        0.0000        2.2756        2.2757       2.263246       0.02645
   1     891.5        0.0136        0.0000        1.9621        1.9621       1.948598       0.02678
   0    1013.0        0.0164        0.0000        1.5468        1.5469       1.530475       0.02903

  Modules and versions used in this calculation:

       rrtmg_sw.1col.f90:  $Revision$                    rrtmg_sw_init.f90:  $Revision$        
     rrtmgsw_cldprop.f90:  $Revision$                  rrtmgsw_cldprmc.f90:  NOT USED          
     rrtmg_sw_reftra.f90:  $Revision$                  rrtmg_sw_spcvrt.f90:  NOT USED          
     rrtmg_sw_spcvmc.f90:  NOT USED                    rrtmgsw_setcoef.f90:  NOT USED          
     rrtmg_sw_taumol.f90:  $Revision$                  rrtmg_sw_vrtqdr.f90:  NOT USED          
                rrtatm.f:  NOT USED                             util_xxx.f:  NOT USED          
                 extra.f:  NOT USED                       rrtmg_sw_k_g.f90:  $Revision$        

