

 Wavenumbers:   820. - 50000. cm-1, ATM      1
 LEVEL PRESSURE   UPWARD FLUX   DIFDOWN FLUX  DIRDOWN FLUX  DOWNWARD FLUX   NET FLUX    HEATING RATE
          mb          W/m2          W/m2          W/m2        W/m2          W/m2       degree/day
  51    .06700      361.6888        0.0000      617.8126      617.8126     256.123743       0.00000
  50    .07753      361.6884        0.0013      617.7947      617.7961     256.107608      12.93201
  49    .09103      361.6880        0.0030      617.7778      617.7808     256.092807       9.25150
  48    0.1069      361.6875        0.0049      617.7581      617.7630     256.075556       9.18280
  47    0.1255      361.6869        0.0072      617.7340      617.7411     256.054225       9.67046
  46    0.1487      361.6863        0.0099      617.7009      617.7108     256.024559      10.81352
  45    0.1794      361.6855        0.0138      617.6521      617.6658     255.980358      12.13406
  44    0.2165      361.6847        0.0182      617.5895      617.6077     255.923078      13.03028
  43    0.2613      361.6838        0.0236      617.5089      617.5325     255.848620      14.03498
  42    0.3336      361.6828        0.0323      617.3641      617.3964     255.713639      15.73752
  41    0.4307      361.6818        0.0438      617.1591      617.2029     255.521170      16.73471
  40    0.5894      361.6811        0.0624      616.8005      616.8628     255.181772      18.04876
  39     1.339      361.6953        0.1463      614.9443      615.0905     253.395292      20.11253
  38     1.782      361.7157        0.1935      613.9670      614.1605     252.444832      18.09522
  37     2.292      361.7502        0.2472      613.0059      613.2531     251.502813      15.60229
  36     2.964      361.8121        0.3170      611.9577      612.2746     250.462523      13.05879
  35     3.853      361.9167        0.4085      610.8024      611.2108     249.294137      11.08820
  34     5.035      362.0783        0.5292      609.5327      610.0619     247.983634       9.36169
  33     6.613      362.3061        0.6894      608.1464      608.8358     246.529762       7.77240
  32     8.786      362.6027        0.9044      606.6250      607.5294     244.926689       6.22576
  31     11.80      362.9861        1.2104      604.8486      606.0590     243.072969       5.18983
  30     15.07      363.3499        1.5369      603.2440      604.7809     241.430927       4.23943
  29     18.79      363.7183        1.9043      601.6511      603.5554     239.837070       3.61376
  28     23.16      364.0995        2.3311      599.9927      602.3238     238.224278       3.11862
  27     28.12      364.4778        2.8168      598.2881      601.1049     236.627040       2.71520
  26     33.73      364.8171        3.3583      596.5951      599.9534     235.136368       2.24126
  25     40.54      365.1287        4.0102      594.7727      598.7829     233.654196       1.83880
  24     48.69      365.4094        4.7924      592.7865      597.5789     232.169478       1.53645
  23     57.69      365.6254        5.6473      590.7959      596.4432     230.817754       1.26704
  22     68.43      365.7826        6.6600      588.6191      595.2791     229.496484       1.03869
  21     81.20      365.8306        7.8605      586.2690      594.1295     228.298833       0.79139
  20     96.49      365.7588        9.2817      583.6961      592.9778     227.219028       0.59597
  19     114.6      365.6218       10.9534      580.7708      591.7242     226.102407       0.52138
  18     136.5      365.4169       12.9104      577.4359      590.3463     224.929412       0.45104
  17     162.9      365.1365       15.2065      573.5624      588.7689     223.632420       0.41457
  16     196.4      364.6891       18.1337      568.5907      586.7244     222.035366       0.40200
  15     218.7      364.3672       20.0258      565.0572      585.0830     220.715747       0.50101
  14     243.0      364.0080       22.0547      560.7495      582.8042     218.796176       0.66577
  13     269.0      363.6104       24.2217      555.3947      579.6163     216.005968       0.90513
  12     297.5      363.1758       26.5272      548.9964      575.5236     212.347820       1.08497
  11     328.5      362.7113       28.9777      542.0895      571.0672     208.355911       1.08539
  10     361.9      362.2199       31.5691      534.6242      566.1933     203.973431       1.10881
   9     398.1      361.7044       34.3057      526.4204      560.7261     199.021770       1.15363
   8     437.6      361.1732       37.1861      517.3907      554.5767     193.403512       1.20122
   7     480.5      360.6337       40.2080      507.7216      547.9296     187.295863       1.19952
   6     533.0      360.0241       43.8394      495.9006      539.7400     179.715882       1.21938
   5     589.8      359.4624       47.6478      483.0788      530.7266     171.264240       1.25450
   4     651.6      359.0426       51.6205      468.6907      520.3112     161.268607       1.36693
   3     718.7      358.8674       55.7493      453.2257      508.9750     150.107606       1.40263
   2     792.3      359.1811       60.0125      436.4928      496.5053     137.324240       1.46611
   1     891.5      360.8820       65.5166      413.9344      479.4511     118.569051       1.59598
   0    1013.0      366.1286       71.7714      388.4125      460.1839      94.055274       1.70212



 Wavenumbers:  2600. -  3250. cm-1, ATM      1
 LEVEL PRESSURE   UPWARD FLUX   DIFDOWN FLUX  DIRDOWN FLUX  DOWNWARD FLUX   NET FLUX    HEATING RATE
          mb          W/m2          W/m2          W/m2        W/m2          W/m2       degree/day
  51    .06700        0.8926        0.0000        5.4450        5.4450       4.552425       0.00000
  50    .07753        0.8926        0.0000        5.4450        5.4450       4.552417       0.00640
  49    .09103        0.8926        0.0000        5.4450        5.4450       4.552407       0.00627
  48    0.1069        0.8926        0.0000        5.4450        5.4450       4.552395       0.00613
  47    0.1255        0.8926        0.0000        5.4450        5.4450       4.552382       0.00599
  46    0.1487        0.8926        0.0000        5.4450        5.4450       4.552365       0.00608
  45    0.1794        0.8926        0.0000        5.4450        5.4450       4.552342       0.00625
  44    0.2165        0.8926        0.0000        5.4449        5.4449       4.552315       0.00612
  43    0.2613        0.8926        0.0000        5.4449        5.4449       4.552284       0.00600
  42    0.3336        0.8926        0.0000        5.4448        5.4448       4.552231       0.00617
  41    0.4307        0.8926        0.0000        5.4448        5.4448       4.552159       0.00620
  40    0.5894        0.8926        0.0000        5.4446        5.4446       4.552040       0.00637
  39     1.339        0.8926        0.0000        5.4439        5.4439       4.551332       0.00797
  38     1.782        0.8926        0.0000        5.4434        5.4434       4.550789       0.01034
  37     2.292        0.8926        0.0000        5.4427        5.4427       4.550073       0.01186
  36     2.964        0.8926        0.0000        5.4416        5.4416       4.549035       0.01304
  35     3.853        0.8926        0.0000        5.4402        5.4402       4.547557       0.01402
  34     5.035        0.8926        0.0000        5.4381        5.4381       4.545502       0.01468
  33     6.613        0.8926        0.0000        5.4353        5.4353       4.542721       0.01487
  32     8.786        0.8926        0.0000        5.4317        5.4317       4.539088       0.01411
  31     11.80        0.8926        0.0000        5.4269        5.4269       4.534308       0.01338
  30     15.07        0.8926        0.0000        5.4224        5.4224       4.529781       0.01169
  29     18.79        0.8926        0.0000        5.4180        5.4180       4.525369       0.01000
  28     23.16        0.8926        0.0000        5.4135        5.4135       4.520882       0.00868
  27     28.12        0.8926        0.0000        5.4088        5.4088       4.516233       0.00790
  26     33.73        0.8926        0.0000        5.4036        5.4036       4.510990       0.00788
  25     40.54        0.8926        0.0000        5.3966        5.3967       4.504046       0.00862
  24     48.69        0.8926        0.0000        5.3872        5.3872       4.494565       0.00981
  23     57.69        0.8926        0.0000        5.3754        5.3754       4.482774       0.01105
  22     68.43        0.8926        0.0000        5.3599        5.3599       4.467277       0.01218
  21     81.20        0.8927        0.0000        5.3401        5.3401       4.447429       0.01311
  20     96.49        0.8927        0.0000        5.3155        5.3155       4.422842       0.01357
  19     114.6        0.8927        0.0000        5.2853        5.2854       4.392617       0.01411
  18     136.5        0.8928        0.0001        5.2504        5.2505       4.357669       0.01344
  17     162.9        0.8929        0.0001        5.2111        5.2112       4.318265       0.01260
  16     196.4        0.8930        0.0001        5.1640        5.1641       4.271066       0.01188
  15     218.7        0.8932        0.0001        5.1331        5.1332       4.239975       0.01180
  14     243.0        0.8935        0.0001        5.0962        5.0963       4.202794       0.01290
  13     269.0        0.8940        0.0001        5.0511        5.0512       4.157219       0.01478
  12     297.5        0.8947        0.0001        4.9956        4.9957       4.101047       0.01666
  11     328.5        0.8956        0.0001        4.9304        4.9305       4.034862       0.01800
  10     361.9        0.8969        0.0001        4.8511        4.8512       3.954293       0.02038
   9     398.1        0.8987        0.0001        4.7507        4.7508       3.852115       0.02381
   8     437.6        0.9011        0.0002        4.6220        4.6222       3.721071       0.02802
   7     480.5        0.9044        0.0002        4.4625        4.4626       3.558272       0.03197
   6     533.0        0.9095        0.0002        4.2460        4.2462       3.336682       0.03565
   5     589.8        0.9172        0.0002        3.9954        3.9956       3.078413       0.03834
   4     651.6        0.9292        0.0002        3.7089        3.7090       2.779800       0.04084
   3     718.7        0.9479        0.0002        3.4018        3.4020       2.454072       0.04094
   2     792.3        0.9785        0.0002        3.0564        3.0566       2.078098       0.04312
   1     891.5        1.0477        0.0002        2.5828        2.5830       1.535264       0.04619
   0    1013.0        1.2104        0.0002        2.0845        2.0847       0.874308       0.04589



 Wavenumbers:  3250. -  4000. cm-1, ATM      1
 LEVEL PRESSURE   UPWARD FLUX   DIFDOWN FLUX  DIRDOWN FLUX  DOWNWARD FLUX   NET FLUX    HEATING RATE
          mb          W/m2          W/m2          W/m2        W/m2          W/m2       degree/day
  51    .06700        0.0005        0.0000        9.1795        9.1795       9.179007       0.00000
  50    .07753        0.0005        0.0000        9.1747        9.1747       9.174164       3.88148
  49    .09103        0.0005        0.0000        9.1713        9.1713       9.170776       2.11747
  48    0.1069        0.0005        0.0000        9.1688        9.1688       9.168251       1.34402
  47    0.1255        0.0005        0.0000        9.1665        9.1665       9.165992       1.02422
  46    0.1487        0.0005        0.0000        9.1641        9.1641       9.163551       0.88991
  45    0.1794        0.0005        0.0000        9.1612        9.1612       9.160673       0.79008
  44    0.2165        0.0005        0.0000        9.1583        9.1583       9.157753       0.66430
  43    0.2613        0.0005        0.0000        9.1553        9.1553       9.154779       0.56041
  42    0.3336        0.0005        0.0000        9.1511        9.1511       9.150600       0.48723
  41    0.4307        0.0005        0.0000        9.1464        9.1464       9.145832       0.41459
  40    0.5894        0.0005        0.0000        9.1393        9.1394       9.138827       0.37255
  39     1.339        0.0005        0.0000        9.1127        9.1127       9.112213       0.29962
  38     1.782        0.0005        0.0000        9.1011        9.1011       9.100625       0.22062
  37     2.292        0.0005        0.0000        9.0901        9.0901       9.089558       0.18329
  36     2.964        0.0005        0.0000        9.0776        9.0776       9.077128       0.15603
  35     3.853        0.0005        0.0000        9.0629        9.0629       9.062338       0.14036
  34     5.035        0.0005        0.0000        9.0441        9.0441       9.043599       0.13386
  33     6.613        0.0005        0.0000        9.0191        9.0191       9.018598       0.13366
  32     8.786        0.0005        0.0000        8.9843        8.9843       8.983814       0.13509
  31     11.80        0.0005        0.0000        8.9327        8.9327       8.932198       0.14451
  30     15.07        0.0005        0.0000        8.8758        8.8759       8.875353       0.14676
  29     18.79        0.0005        0.0000        8.8110        8.8110       8.810526       0.14698
  28     23.16        0.0005        0.0000        8.7365        8.7366       8.736081       0.14395
  27     28.12        0.0005        0.0000        8.6554        8.6555       8.654968       0.13789
  26     33.73        0.0005        0.0000        8.5719        8.5719       8.571468       0.12554
  25     40.54        0.0005        0.0001        8.4812        8.4812       8.480744       0.11255
  24     48.69        0.0005        0.0001        8.3838        8.3839       8.383443       0.10069
  23     57.69        0.0004        0.0001        8.2861        8.2862       8.285708       0.09161
  22     68.43        0.0004        0.0001        8.1751        8.1751       8.174711       0.08726
  21     81.20        0.0004        0.0001        8.0457        8.0458       8.045353       0.08548
  20     96.49        0.0004        0.0001        7.8949        7.8950       7.894650       0.08318
  19     114.6        0.0004        0.0001        7.7162        7.7163       7.715940       0.08344
  18     136.5        0.0004        0.0002        7.5193        7.5194       7.519097       0.07569
  17     162.9        0.0003        0.0002        7.2913        7.2915       7.291205       0.07284
  16     196.4        0.0003        0.0002        6.9660        6.9662       6.965933       0.08187
  15     218.7        0.0003        0.0002        6.6648        6.6650       6.664744       0.11435
  14     243.0        0.0002        0.0002        6.2619        6.2622       6.261950       0.13970
  13     269.0        0.0002        0.0003        5.7576        5.7579       5.757651       0.16359
  12     297.5        0.0002        0.0003        5.1719        5.1722       5.171960       0.17371
  11     328.5        0.0002        0.0002        4.5757        4.5760       4.575800       0.16209
  10     361.9        0.0002        0.0002        3.9995        3.9998       3.999625       0.14578
   9     398.1        0.0001        0.0002        3.4655        3.4657       3.465569       0.12442
   8     437.6        0.0001        0.0002        2.9740        2.9742       2.974122       0.10507
   7     480.5        0.0001        0.0002        2.5307        2.5309       2.530749       0.08708
   6     533.0        0.0001        0.0002        2.0614        2.0616       2.061454       0.07549
   5     589.8        0.0001        0.0002        1.6150        1.6151       1.615025       0.06626
   4     651.6        0.0001        0.0001        1.1565        1.1566       1.156481       0.06271
   3     718.7        0.0001        0.0001        0.7390        0.7391       0.738982       0.05247
   2     792.3        0.0002        0.0001        0.3985        0.3985       0.398332       0.03907
   1     891.5        0.0006        0.0000        0.1139        0.1139       0.113384       0.02425
   0    1013.0        0.0054        0.0000        0.0094        0.0094       0.003935       0.00760



 Wavenumbers:  4000. -  4650. cm-1, ATM      1
 LEVEL PRESSURE   UPWARD FLUX   DIFDOWN FLUX  DIRDOWN FLUX  DOWNWARD FLUX   NET FLUX    HEATING RATE
          mb          W/m2          W/m2          W/m2        W/m2          W/m2       degree/day
  51    .06700        3.6053        0.0000       10.7795       10.7795       7.174266       0.00000
  50    .07753        3.6053        0.0000       10.7795       10.7795       7.174265       0.00080
  49    .09103        3.6053        0.0000       10.7795       10.7795       7.174264       0.00078
  48    0.1069        3.6053        0.0000       10.7795       10.7795       7.174262       0.00076
  47    0.1255        3.6053        0.0000       10.7795       10.7795       7.174261       0.00075
  46    0.1487        3.6053        0.0000       10.7795       10.7795       7.174259       0.00076
  45    0.1794        3.6053        0.0000       10.7795       10.7795       7.174256       0.00078
  44    0.2165        3.6053        0.0000       10.7795       10.7795       7.174252       0.00076
  43    0.2613        3.6053        0.0000       10.7795       10.7795       7.174248       0.00075
  42    0.3336        3.6053        0.0000       10.7795       10.7795       7.174242       0.00077
  41    0.4307        3.6053        0.0000       10.7795       10.7795       7.174233       0.00077
  40    0.5894        3.6053        0.0000       10.7795       10.7795       7.174218       0.00080
  39     1.339        3.6053        0.0000       10.7794       10.7794       7.174129       0.00101
  38     1.782        3.6053        0.0000       10.7793       10.7793       7.174059       0.00133
  37     2.292        3.6053        0.0000       10.7792       10.7792       7.173965       0.00156
  36     2.964        3.6053        0.0000       10.7791       10.7791       7.173825       0.00176
  35     3.853        3.6053        0.0000       10.7789       10.7789       7.173617       0.00197
  34     5.035        3.6053        0.0000       10.7786       10.7786       7.173310       0.00219
  33     6.613        3.6053        0.0000       10.7781       10.7781       7.172858       0.00241
  32     8.786        3.6053        0.0000       10.7774       10.7774       7.172192       0.00259
  31     11.80        3.6052        0.0001       10.7763       10.7764       7.171145       0.00293
  30     15.07        3.6052        0.0001       10.7751       10.7752       7.169917       0.00317
  29     18.79        3.6052        0.0001       10.7736       10.7737       7.168432       0.00337
  28     23.16        3.6052        0.0001       10.7717       10.7718       7.166589       0.00356
  27     28.12        3.6052        0.0001       10.7695       10.7696       7.164358       0.00379
  26     33.73        3.6052        0.0001       10.7667       10.7668       7.161608       0.00413
  25     40.54        3.6052        0.0002       10.7629       10.7631       7.157880       0.00463
  24     48.69        3.6052        0.0002       10.7579       10.7581       7.152913       0.00514
  23     57.69        3.6052        0.0002       10.7520       10.7522       7.147028       0.00552
  22     68.43        3.6052        0.0003       10.7446       10.7449       7.139656       0.00580
  21     81.20        3.6053        0.0004       10.7355       10.7359       7.130583       0.00599
  20     96.49        3.6053        0.0004       10.7245       10.7249       7.119551       0.00609
  19     114.6        3.6054        0.0005       10.7107       10.7112       7.105767       0.00644
  18     136.5        3.6056        0.0006       10.6942       10.6948       7.089174       0.00638
  17     162.9        3.6059        0.0007       10.6740       10.6747       7.068852       0.00650
  16     196.4        3.6063        0.0008       10.6464       10.6472       7.040856       0.00705
  15     218.7        3.6068        0.0009       10.6255       10.6264       7.019578       0.00808
  14     243.0        3.6075        0.0010       10.5980       10.5991       6.991549       0.00972
  13     269.0        3.6087        0.0011       10.5611       10.5622       6.953575       0.01232
  12     297.5        3.6103        0.0013       10.5119       10.5132       6.902857       0.01504
  11     328.5        3.6127        0.0014       10.4499       10.4513       6.838565       0.01748
  10     361.9        3.6158        0.0015       10.3702       10.3717       6.755910       0.02091
   9     398.1        3.6196        0.0017       10.2678       10.2694       6.649807       0.02472
   8     437.6        3.6244        0.0018       10.1390       10.1408       6.516357       0.02853
   7     480.5        3.6304        0.0020        9.9877        9.9897       6.359246       0.03086
   6     533.0        3.6393        0.0021        9.7937        9.7958       6.156524       0.03261
   5     589.8        3.6516        0.0023        9.5752        9.5775       5.925863       0.03424
   4     651.6        3.6703        0.0025        9.2958        9.2983       5.627985       0.04074
   3     718.7        3.6993        0.0027        8.9267        8.9294       5.230102       0.05000
   2     792.3        3.7470        0.0028        8.4542        8.4570       4.710025       0.05965
   1     891.5        3.8565        0.0030        7.7948        7.7978       3.941292       0.06542
   0    1013.0        4.1108        0.0031        7.0767        7.0798       2.969035       0.06751



 Wavenumbers:  4650. -  5150. cm-1, ATM      1
 LEVEL PRESSURE   UPWARD FLUX   DIFDOWN FLUX  DIRDOWN FLUX  DOWNWARD FLUX   NET FLUX    HEATING RATE
          mb          W/m2          W/m2          W/m2        W/m2          W/m2       degree/day
  51    .06700        2.5391        0.0000       10.2033       10.2033       7.664256       0.00000
  50    .07753        2.5391        0.0000       10.2031       10.2031       7.664020       0.18901
  49    .09103        2.5391        0.0000       10.2028       10.2028       7.663725       0.18428
  48    0.1069        2.5391        0.0000       10.2025       10.2025       7.663388       0.17931
  47    0.1255        2.5391        0.0000       10.2021       10.2021       7.663004       0.17426
  46    0.1487        2.5391        0.0000       10.2016       10.2016       7.662523       0.17536
  45    0.1794        2.5391        0.0000       10.2010       10.2010       7.661872       0.17850
  44    0.2165        2.5391        0.0000       10.2002       10.2002       7.661113       0.17277
  43    0.2613        2.5391        0.0000       10.1993       10.1993       7.660227       0.16690
  42    0.3336        2.5391        0.0000       10.1979       10.1979       7.658795       0.16702
  41    0.4307        2.5391        0.0000       10.1960       10.1960       7.656955       0.16002
  40    0.5894        2.5391        0.0000       10.1932       10.1932       7.654081       0.15283
  39     1.339        2.5391        0.0000       10.1816       10.1816       7.642489       0.13050
  38     1.782        2.5391        0.0000       10.1760       10.1760       7.636961       0.10526
  37     2.292        2.5391        0.0000       10.1706       10.1706       7.631504       0.09037
  36     2.964        2.5391        0.0000       10.1646       10.1647       7.625581       0.07435
  35     3.853        2.5391        0.0000       10.1584       10.1584       7.619367       0.05897
  34     5.035        2.5391        0.0000       10.1521       10.1521       7.613032       0.04526
  33     6.613        2.5391        0.0000       10.1456       10.1456       7.606576       0.03452
  32     8.786        2.5391        0.0001       10.1386       10.1386       7.599567       0.02722
  31     11.80        2.5391        0.0001       10.1295       10.1296       7.590528       0.02530
  30     15.07        2.5391        0.0001       10.1196       10.1197       7.580652       0.02550
  29     18.79        2.5391        0.0001       10.1076       10.1077       7.568647       0.02722
  28     23.16        2.5391        0.0001       10.0923       10.0924       7.553346       0.02959
  27     28.12        2.5391        0.0002       10.0731       10.0733       7.534255       0.03245
  26     33.73        2.5391        0.0002       10.0500       10.0503       7.511165       0.03472
  25     40.54        2.5391        0.0003       10.0201       10.0204       7.481267       0.03709
  24     48.69        2.5392        0.0003        9.9820        9.9823       7.443101       0.03950
  23     57.69        2.5392        0.0004        9.9384        9.9388       7.399567       0.04081
  22     68.43        2.5393        0.0004        9.8858        9.8862       7.346839       0.04145
  21     81.20        2.5395        0.0005        9.8234        9.8240       7.284451       0.04123
  20     96.49        2.5397        0.0006        9.7518        9.7524       7.212633       0.03964
  19     114.6        2.5401        0.0007        9.6719        9.6726       7.132577       0.03738
  18     136.5        2.5405        0.0008        9.5858        9.5866       7.046124       0.03324
  17     162.9        2.5412        0.0010        9.4940        9.4950       6.953865       0.02949
  16     196.4        2.5422        0.0012        9.3883        9.3895       6.847262       0.02683
  15     218.7        2.5430        0.0013        9.3229        9.3242       6.781193       0.02508
  14     243.0        2.5441        0.0014        9.2520        9.2534       6.709272       0.02494
  13     269.0        2.5457        0.0016        9.1717        9.1732       6.627554       0.02651
  12     297.5        2.5479        0.0017        9.0763        9.0780       6.530097       0.02890
  11     328.5        2.5509        0.0019        8.9650        8.9669       6.416009       0.03102
  10     361.9        2.5547        0.0021        8.8349        8.8370       6.282313       0.03383
   9     398.1        2.5596        0.0022        8.6820        8.6843       6.124623       0.03674
   8     437.6        2.5661        0.0024        8.5028        8.5052       5.939136       0.03966
   7     480.5        2.5744        0.0026        8.2948        8.2974       5.722975       0.04245
   6     533.0        2.5871        0.0028        8.0209        8.0237       5.436592       0.04607
   5     589.8        2.6046        0.0030        7.7063        7.7093       5.104787       0.04925
   4     651.6        2.6300        0.0032        7.3412        7.3444       4.714443       0.05338
   3     718.7        2.6674        0.0034        6.9387        6.9420       4.274641       0.05527
   2     792.3        2.7241        0.0035        6.5066        6.5101       3.786009       0.05604
   1     891.5        2.8422        0.0037        5.9361        5.9398       3.097537       0.05859
   0    1013.0        3.0811        0.0038        5.3025        5.3063       2.225183       0.06057



 Wavenumbers:  5150. -  6150. cm-1, ATM      1
 LEVEL PRESSURE   UPWARD FLUX   DIFDOWN FLUX  DIRDOWN FLUX  DOWNWARD FLUX   NET FLUX    HEATING RATE
          mb          W/m2          W/m2          W/m2        W/m2          W/m2       degree/day
  51    .06700        6.4870        0.0000       25.5798       25.5798      19.092833       0.00000
  50    .07753        6.4870        0.0000       25.5798       25.5798      19.092793       0.03158
  49    .09103        6.4870        0.0000       25.5797       25.5797      19.092742       0.03207
  48    0.1069        6.4870        0.0000       25.5797       25.5797      19.092681       0.03258
  47    0.1255        6.4870        0.0000       25.5796       25.5796      19.092608       0.03308
  46    0.1487        6.4870        0.0000       25.5795       25.5795      19.092512       0.03485
  45    0.1794        6.4870        0.0000       25.5794       25.5794      19.092377       0.03709
  44    0.2165        6.4870        0.0000       25.5792       25.5792      19.092212       0.03765
  43    0.2613        6.4870        0.0000       25.5790       25.5790      19.092009       0.03823
  42    0.3336        6.4870        0.0000       25.5786       25.5786      19.091662       0.04040
  41    0.4307        6.4870        0.0000       25.5782       25.5782      19.091192       0.04094
  40    0.5894        6.4870        0.0000       25.5774       25.5774      19.090403       0.04195
  39     1.339        6.4870        0.0000       25.5735       25.5736      19.086603       0.04278
  38     1.782        6.4870        0.0001       25.5713       25.5714      19.084391       0.04211
  37     2.292        6.4870        0.0001       25.5688       25.5688      19.081888       0.04146
  36     2.964        6.4869        0.0001       25.5656       25.5657      19.078708       0.03992
  35     3.853        6.4869        0.0001       25.5615       25.5616      19.074667       0.03835
  34     5.035        6.4869        0.0001       25.5562       25.5564      19.069463       0.03717
  33     6.613        6.4869        0.0002       25.5494       25.5496      19.062713       0.03609
  32     8.786        6.4869        0.0003       25.5406       25.5409      19.053967       0.03397
  31     11.80        6.4869        0.0003       25.5287       25.5290      19.042140       0.03311
  30     15.07        6.4868        0.0004       25.5167       25.5171      19.030282       0.03062
  29     18.79        6.4868        0.0005       25.5042       25.5047      19.017887       0.02810
  28     23.16        6.4868        0.0007       25.4907       25.4913      19.004538       0.02581
  27     28.12        6.4868        0.0008       25.4764       25.4773      18.990465       0.02392
  26     33.73        6.4868        0.0010       25.4620       25.4630      18.976208       0.02144
  25     40.54        6.4868        0.0012       25.4463       25.4474      18.960625       0.01933
  24     48.69        6.4868        0.0014       25.4294       25.4308      18.943947       0.01726
  23     57.69        6.4869        0.0017       25.4126       25.4143      18.927397       0.01551
  22     68.43        6.4870        0.0020       25.3944       25.3964      18.909436       0.01412
  21     81.20        6.4871        0.0023       25.3744       25.3768      18.889681       0.01305
  20     96.49        6.4872        0.0028       25.3519       25.3547      18.867488       0.01225
  19     114.6        6.4874        0.0033       25.3262       25.3295      18.842044       0.01188
  18     136.5        6.4877        0.0039       25.2962       25.3001      18.812433       0.01139
  17     162.9        6.4880        0.0047       25.2521       25.2568      18.768744       0.01396
  16     196.4        6.4885        0.0056       25.1593       25.1649      18.676413       0.02324
  15     218.7        6.4889        0.0062       25.0159       25.0221      18.533297       0.05434
  14     243.0        6.4893        0.0068       24.7089       24.7158      18.226445       0.10643
  13     269.0        6.4899        0.0075       24.1619       24.1693      17.679378       0.17747
  12     297.5        6.4908        0.0080       23.4544       23.4624      16.971651       0.20990
  11     328.5        6.4919        0.0087       22.7355       22.7441      16.252226       0.19561
  10     361.9        6.4934        0.0093       21.9224       21.9317      15.438341       0.20592
   9     398.1        6.4952        0.0098       20.9939       21.0038      14.508513       0.21663
   8     437.6        6.4978        0.0104       19.9833       19.9937      13.495946       0.21649
   7     480.5        6.5011        0.0109       18.9483       18.9592      12.458096       0.20383
   6     533.0        6.5065        0.0115       17.7796       17.7911      11.284618       0.18878
   5     589.8        6.5147        0.0121       16.6726       16.6847      10.170023       0.16544
   4     651.6        6.5286        0.0127       15.6343       15.6470       9.118430       0.14381
   3     718.7        6.5522        0.0134       14.7738       14.7872       8.234925       0.11103
   2     792.3        6.5948        0.0142       14.0291       14.0433       7.448477       0.09020
   1     891.5        6.7020        0.0151       13.0822       13.0973       6.395307       0.08962
   0    1013.0        7.0000        0.0161       12.0384       12.0545       5.054450       0.09310



 Wavenumbers:  6150. -  7700. cm-1, ATM      1
 LEVEL PRESSURE   UPWARD FLUX   DIFDOWN FLUX  DIRDOWN FLUX  DOWNWARD FLUX   NET FLUX    HEATING RATE
          mb          W/m2          W/m2          W/m2        W/m2          W/m2       degree/day
  51    .06700        9.5641        0.0000       47.3109       47.3109      37.746775       0.00000
  50    .07753        9.5641        0.0000       47.3108       47.3108      37.746718       0.04553
  49    .09103        9.5641        0.0000       47.3107       47.3107      37.746645       0.04583
  48    0.1069        9.5641        0.0000       47.3106       47.3106      37.746558       0.04614
  47    0.1255        9.5641        0.0000       47.3105       47.3105      37.746455       0.04645
  46    0.1487        9.5641        0.0000       47.3104       47.3104      37.746322       0.04852
  45    0.1794        9.5641        0.0000       47.3102       47.3102      37.746136       0.05127
  44    0.2165        9.5641        0.0000       47.3100       47.3100      37.745908       0.05167
  43    0.2613        9.5641        0.0000       47.3097       47.3097      37.745632       0.05210
  42    0.3336        9.5641        0.0000       47.3092       47.3092      37.745163       0.05471
  41    0.4307        9.5641        0.0000       47.3085       47.3086      37.744528       0.05521
  40    0.5894        9.5640        0.0001       47.3074       47.3075      37.743469       0.05633
  39     1.339        9.5640        0.0002       47.3022       47.3023      37.738376       0.05733
  38     1.782        9.5639        0.0002       47.2991       47.2993      37.735406       0.05655
  37     2.292        9.5639        0.0003       47.2956       47.2959      37.732030       0.05591
  36     2.964        9.5638        0.0003       47.2912       47.2915      37.727712       0.05421
  35     3.853        9.5637        0.0005       47.2855       47.2859      37.722178       0.05252
  34     5.035        9.5636        0.0006       47.2780       47.2786      37.714997       0.05129
  33     6.613        9.5635        0.0008       47.2683       47.2691      37.705610       0.05019
  32     8.786        9.5633        0.0010       47.2556       47.2566      37.693311       0.04777
  31     11.80        9.5630        0.0014       47.2380       47.2394      37.676407       0.04732
  30     15.07        9.5627        0.0018       47.2201       47.2219      37.659120       0.04463
  29     18.79        9.5624        0.0022       47.2008       47.2030      37.640642       0.04190
  28     23.16        9.5620        0.0028       47.1795       47.1823      37.620252       0.03943
  27     28.12        9.5616        0.0033       47.1565       47.1598      37.598260       0.03739
  26     33.73        9.5611        0.0040       47.1324       47.1364      37.575340       0.03446
  25     40.54        9.5605        0.0048       47.1054       47.1102      37.549706       0.03180
  24     48.69        9.5597        0.0058       47.0754       47.0812      37.521456       0.02923
  23     57.69        9.5589        0.0068       47.0449       47.0518      37.492839       0.02682
  22     68.43        9.5580        0.0081       47.0110       47.0191      37.461107       0.02495
  21     81.20        9.5569        0.0096       46.9729       46.9825      37.425621       0.02345
  20     96.49        9.5555        0.0114       46.9294       46.9408      37.385291       0.02226
  19     114.6        9.5539        0.0136       46.8790       46.8926      37.338674       0.02177
  18     136.5        9.5520        0.0161       46.8200       46.8361      37.284076       0.02099
  17     162.9        9.5497        0.0191       46.7361       46.7552      37.205499       0.02512
  16     196.4        9.5469        0.0230       46.5703       46.5933      37.046415       0.04004
  15     218.7        9.5450        0.0255       46.3473       46.3728      36.827801       0.08300
  14     243.0        9.5431        0.0281       45.9299       45.9580      36.414868       0.14322
  13     269.0        9.5413        0.0308       45.1708       45.2016      35.660207       0.24481
  12     297.5        9.5398        0.0333       44.0115       44.0448      34.504977       0.34263
  11     328.5        9.5386        0.0359       42.7242       42.7601      33.221484       0.34898
  10     361.9        9.5380        0.0385       41.3539       41.3924      31.854402       0.34589
   9     398.1        9.5383        0.0410       39.7953       39.8363      30.297940       0.36262
   8     437.6        9.5401        0.0433       37.9948       38.0381      28.497967       0.38485
   7     480.5        9.5441        0.0455       36.0647       36.1102      26.566142       0.37940
   6     533.0        9.5528        0.0478       33.7773       33.8251      24.272259       0.36901
   5     589.8        9.5695        0.0498       31.4082       31.4580      21.888497       0.35383
   4     651.6        9.6027        0.0513       28.8834       28.9347      19.332053       0.34960
   3     718.7        9.6639        0.0527       26.4104       26.4630      16.799089       0.31832
   2     792.3        9.7787        0.0537       24.0056       24.0593      14.280606       0.28884
   1     891.5       10.0702        0.0548       21.2348       21.2896      11.219436       0.26049
   0    1013.0       10.8446        0.0561       18.6150       18.6712       7.826501       0.23559



 Wavenumbers:  7700. -  8050. cm-1, ATM      1
 LEVEL PRESSURE   UPWARD FLUX   DIFDOWN FLUX  DIRDOWN FLUX  DOWNWARD FLUX   NET FLUX    HEATING RATE
          mb          W/m2          W/m2          W/m2        W/m2          W/m2       degree/day
  51    .06700        5.1144        0.0000       11.1810       11.1810       6.066532       0.00000
  50    .07753        5.1144        0.0000       11.1809       11.1809       6.066511       0.01691
  49    .09103        5.1144        0.0000       11.1809       11.1809       6.066485       0.01657
  48    0.1069        5.1144        0.0000       11.1809       11.1809       6.066454       0.01623
  47    0.1255        5.1144        0.0000       11.1809       11.1809       6.066419       0.01588
  46    0.1487        5.1145        0.0000       11.1808       11.1808       6.066375       0.01611
  45    0.1794        5.1145        0.0000       11.1808       11.1808       6.066314       0.01658
  44    0.2165        5.1145        0.0000       11.1807       11.1807       6.066243       0.01626
  43    0.2613        5.1145        0.0000       11.1806       11.1806       6.066158       0.01596
  42    0.3336        5.1145        0.0000       11.1805       11.1805       6.066018       0.01633
  41    0.4307        5.1145        0.0000       11.1803       11.1804       6.065833       0.01615
  40    0.5894        5.1146        0.0000       11.1801       11.1801       6.065529       0.01613
  39     1.339        5.1148        0.0001       11.1788       11.1789       6.064094       0.01616
  38     1.782        5.1149        0.0001       11.1781       11.1782       6.063251       0.01605
  37     2.292        5.1151        0.0001       11.1772       11.1773       6.062275       0.01616
  36     2.964        5.1152        0.0002       11.1761       11.1762       6.060994       0.01608
  35     3.853        5.1155        0.0002       11.1746       11.1748       6.059302       0.01606
  34     5.035        5.1158        0.0003       11.1726       11.1729       6.057054       0.01606
  33     6.613        5.1163        0.0003       11.1700       11.1703       6.054051       0.01605
  32     8.786        5.1168        0.0005       11.1664       11.1669       6.050007       0.01571
  31     11.80        5.1177        0.0006       11.1613       11.1619       6.044226       0.01619
  30     15.07        5.1186        0.0008       11.1558       11.1566       6.038025       0.01601
  29     18.79        5.1197        0.0010       11.1497       11.1507       6.031028       0.01586
  28     23.16        5.1209        0.0012       11.1425       11.1437       6.022867       0.01578
  27     28.12        5.1223        0.0015       11.1343       11.1358       6.013551       0.01584
  26     33.73        5.1238        0.0018       11.1252       11.1270       6.003147       0.01564
  25     40.54        5.1257        0.0021       11.1142       11.1163       5.990610       0.01555
  24     48.69        5.1280        0.0026       11.1010       11.1036       5.975544       0.01559
  23     57.69        5.1306        0.0030       11.0866       11.0896       5.959057       0.01545
  22     68.43        5.1336        0.0036       11.0695       11.0731       5.939507       0.01537
  21     81.20        5.1373        0.0043       11.0494       11.0536       5.916338       0.01531
  20     96.49        5.1417        0.0051       11.0255       11.0306       5.888904       0.01514
  19     114.6        5.1470        0.0060       10.9975       11.0036       5.856572       0.01510
  18     136.5        5.1533        0.0071       10.9648       10.9719       5.818582       0.01461
  17     162.9        5.1610        0.0085       10.9263       10.9348       5.773789       0.01432
  16     196.4        5.1711        0.0102       10.8773       10.8875       5.716381       0.01445
  15     218.7        5.1778        0.0113       10.8455       10.8569       5.679045       0.01417
  14     243.0        5.1853        0.0126       10.8114       10.8240       5.638730       0.01398
  13     269.0        5.1935        0.0139       10.7749       10.7888       5.595274       0.01410
  12     297.5        5.2026        0.0153       10.7357       10.7510       5.548457       0.01389
  11     328.5        5.2126        0.0169       10.6937       10.7106       5.497976       0.01373
  10     361.9        5.2238        0.0185       10.6489       10.6674       5.443610       0.01376
   9     398.1        5.2362        0.0203       10.6008       10.6211       5.384874       0.01368
   8     437.6        5.2501        0.0222       10.5491       10.5713       5.321166       0.01362
   7     480.5        5.2658        0.0243       10.4934       10.5177       5.251926       0.01360
   6     533.0        5.2862        0.0268       10.4243       10.4511       5.164872       0.01400
   5     589.8        5.3101        0.0295       10.3479       10.3774       5.067356       0.01447
   4     651.6        5.3387        0.0324       10.2613       10.2938       4.955084       0.01535
   3     718.7        5.3737        0.0355       10.1618       10.1973       4.823505       0.01654
   2     792.3        5.4182        0.0388       10.0439       10.0826       4.664429       0.01824
   1     891.5        5.4930        0.0430        9.8626        9.9056       4.412649       0.02143
   0    1013.0        5.6112        0.0480        9.6103        9.6583       4.047106       0.02538



 Wavenumbers:  8050. - 12850. cm-1, ATM      1
 LEVEL PRESSURE   UPWARD FLUX   DIFDOWN FLUX  DIRDOWN FLUX  DOWNWARD FLUX   NET FLUX    HEATING RATE
          mb          W/m2          W/m2          W/m2        W/m2          W/m2       degree/day
  51    .06700       62.5624        0.0000      156.5418      156.5418      93.979328       0.00000
  50    .07753       62.5624        0.0000      156.5417      156.5417      93.979328      -0.00000
  49    .09103       62.5624        0.0001      156.5417      156.5417      93.979328       0.00000
  48    0.1069       62.5624        0.0001      156.5416      156.5417      93.979328       0.00000
  47    0.1255       62.5623        0.0002      156.5415      156.5417      93.979328       0.00000
  46    0.1487       62.5623        0.0002      156.5414      156.5416      93.979328      -0.00000
  45    0.1794       62.5623        0.0003      156.5413      156.5416      93.979328       0.00000
  44    0.2165       62.5622        0.0004      156.5412      156.5415      93.979328      -0.00000
  43    0.2613       62.5622        0.0005      156.5410      156.5415      93.979328       0.00000
  42    0.3336       62.5620        0.0007      156.5407      156.5414      93.979328       0.00000
  41    0.4307       62.5619        0.0009      156.5403      156.5412      93.979328      -0.00000
  40    0.5894       62.5617        0.0013      156.5397      156.5410      93.979328       0.00000
  39     1.339       62.5606        0.0032      156.5367      156.5400      93.979328      -0.00000
  38     1.782       62.5600        0.0044      156.5350      156.5394      93.979328      -0.00000
  37     2.292       62.5593        0.0057      156.5330      156.5387      93.979328       0.00000
  36     2.964       62.5584        0.0074      156.5303      156.5377      93.979328       0.00000
  35     3.853       62.5572        0.0096      156.5268      156.5365      93.979328       0.00000
  34     5.035       62.5555        0.0126      156.5222      156.5348      93.979328       0.00000
  33     6.613       62.5533        0.0167      156.5160      156.5327      93.979328      -0.00000
  32     8.786       62.5504        0.0221      156.5076      156.5297      93.979328      -0.00000
  31     11.80       62.5461        0.0298      156.4957      156.5255      93.979328       0.00000
  30     15.07       62.5416        0.0381      156.4828      156.5209      93.979328       0.00000
  29     18.79       62.5364        0.0475      156.4682      156.5158      93.979328      -0.00000
  28     23.16       62.5304        0.0586      156.4512      156.5098      93.979328       0.00000
  27     28.12       62.5235        0.0712      156.4317      156.5029      93.979328       0.00000
  26     33.73       62.5158        0.0853      156.4099      156.4951      93.979328       0.00000
  25     40.54       62.5065        0.1024      156.3834      156.4858      93.979328       0.00000
  24     48.69       62.4952        0.1230      156.3515      156.4745      93.979328      -0.00000
  23     57.69       62.4828        0.1457      156.3164      156.4621      93.979328       0.00000
  22     68.43       62.4680        0.1728      156.2746      156.4473      93.979328      -0.00000
  21     81.20       62.4503        0.2051      156.2246      156.4296      93.979328       0.00000
  20     96.49       62.4292        0.2436      156.1649      156.4085      93.979328       0.00000
  19     114.6       62.4042        0.2895      156.0879      156.3774      93.973176       0.00287
  18     136.5       62.3745        0.3439      155.9962      156.3401      93.965540       0.00294
  17     162.9       62.3391        0.4089      155.8831      156.2920      93.952846       0.00406
  16     196.4       62.2931        0.4934      155.7199      156.2133      93.920225       0.00821
  15     218.7       62.2629        0.5490      155.5733      156.1222      93.859301       0.02313
  14     243.0       62.2304        0.6093      155.3367      155.9460      93.715538       0.04986
  13     269.0       62.1960        0.6745      154.9514      155.6260      93.430006       0.09263
  12     297.5       62.1602        0.7447      154.3896      155.1344      92.974150       0.13520
  11     328.5       62.1235        0.8204      153.7151      154.5355      92.411978       0.15285
  10     361.9       62.0868        0.9014      152.9087      153.8102      91.723437       0.17421
   9     398.1       62.0516        0.9881      151.8986      152.8867      90.835115       0.20696
   8     437.6       62.0207        1.0801      150.6031      151.6832      89.662487       0.25072
   7     480.5       61.9976        1.1771      149.0014      150.1785      88.180959       0.29097
   6     533.0       61.9877        1.2943      146.7375      148.0318      86.044129       0.34375
   5     589.8       62.0110        1.4165      143.8730      145.2895      83.278510       0.41051
   4     651.6       62.1068        1.5412      140.0955      141.6367      79.529905       0.51263
   3     718.7       62.3259        1.6671      135.5278      137.1949      74.868938       0.58575
   2     792.3       62.7798        1.7909      130.0690      131.8599      69.080085       0.66392
   1     891.5       63.9752        1.9393      122.1273      124.0666      60.091404       0.76489
   0    1013.0       66.9532        2.0970      112.9512      115.0482      48.094987       0.83297



 Wavenumbers: 12850. - 16000. cm-1, ATM      1
 LEVEL PRESSURE   UPWARD FLUX   DIFDOWN FLUX  DIRDOWN FLUX  DOWNWARD FLUX   NET FLUX    HEATING RATE
          mb          W/m2          W/m2          W/m2        W/m2          W/m2       degree/day
  51    .06700       66.1448        0.0000       98.0872       98.0872      31.942465       0.00000
  50    .07753       66.1448        0.0001       98.0864       98.0864      31.941676       0.63211
  49    .09103       66.1448        0.0001       98.0853       98.0854      31.940686       0.61872
  48    0.1069       66.1447        0.0002       98.0841       98.0843      31.939550       0.60501
  47    0.1255       66.1447        0.0004       98.0826       98.0830      31.938245       0.59155
  46    0.1487       66.1447        0.0005       98.0809       98.0813      31.936600       0.59969
  45    0.1794       66.1448        0.0007       98.0784       98.0791      31.934364       0.61379
  44    0.2165       66.1448        0.0009       98.0756       98.0765      31.931737       0.59759
  43    0.2613       66.1449        0.0012       98.0723       98.0735      31.928652       0.58153
  42    0.3336       66.1450        0.0016       98.0670       98.0686      31.923625       0.58608
  41    0.4307       66.1453        0.0022       98.0602       98.0624      31.917138       0.56408
  40    0.5894       66.1458        0.0032       98.0496       98.0527      31.906945       0.54203
  39     1.339       66.1508        0.0077       98.0043       98.0120      31.861262       0.51431
  38     1.782       66.1555        0.0103       97.9793       97.9896      31.834163       0.51592
  37     2.292       66.1626        0.0134       97.9498       97.9632      31.800636       0.55530
  36     2.964       66.1744        0.0175       97.9088       97.9263      31.751850       0.61241
  35     3.853       66.1937        0.0228       97.8503       97.8731      31.679456       0.68703
  34     5.035       66.2228        0.0299       97.7680       97.7979      31.575094       0.74552
  33     6.613       66.2634        0.0393       97.6562       97.6955      31.432086       0.76453
  32     8.786       66.3163        0.0520       97.5107       97.5627      31.246401       0.72113
  31     11.80       66.3850        0.0702       97.3179       97.3881      31.003078       0.68123
  30     15.07       66.4506        0.0897       97.1283       97.2181      30.767429       0.60840
  29     18.79       66.5174        0.1117       96.9300       97.0418      30.524319       0.55120
  28     23.16       66.5870        0.1374       96.7166       96.8540      30.266949       0.49767
  27     28.12       66.6568        0.1668       96.4935       96.6602      30.003476       0.44788
  26     33.73       66.7207        0.1996       96.2731       96.4727      29.751968       0.37815
  25     40.54       66.7816        0.2392       96.0408       96.2800      29.498380       0.31460
  24     48.69       66.8392        0.2870       95.7946       96.0816      29.242390       0.26491
  23     57.69       66.8871        0.3396       95.5573       95.8968      29.009726       0.21809
  22     68.43       66.9275        0.4021       95.3106       95.7127      28.785271       0.17645
  21     81.20       66.9527        0.4768       95.0643       95.5411      28.588389       0.13010
  20     96.49       66.9617        0.5658       94.8153       95.3810      28.419391       0.09327
  19     114.6       66.9734        0.6725       94.5411       95.2136      28.240139       0.08370
  18     136.5       66.9777        0.7990       94.2320       95.0310      28.053359       0.07182
  17     162.9       66.9738        0.9496       93.8753       94.8249      27.851101       0.06465
  16     196.4       66.9498        1.1448       93.4347       94.5794      27.629611       0.05575
  15     218.7       66.9273        1.2730       93.1513       94.4242      27.496954       0.05036
  14     243.0       66.8998        1.4122       92.8439       94.2562      27.356392       0.04875
  13     269.0       66.8672        1.5631       92.5111       94.0743      27.207079       0.04844
  12     297.5       66.8298        1.7262       92.1495       93.8756      27.045886       0.04781
  11     328.5       66.7890        1.9023       91.7554       93.6577      26.868652       0.04819
  10     361.9       66.7455        2.0918       91.3262       93.4180      26.672515       0.04962
   9     398.1       66.7001        2.2957       90.8575       93.1532      26.453107       0.05112
   8     437.6       66.6550        2.5145       90.3418       92.8563      26.201339       0.05383
   7     480.5       66.6119        2.7487       89.7728       92.5215      25.909670       0.05728
   6     533.0       66.5697        3.0367       89.0428       92.0795      25.509829       0.06432
   5     589.8       66.5448        3.3459       88.2038       91.5497      25.004966       0.07494
   4     651.6       66.5609        3.6762       87.1979       90.8741      24.313221       0.09460
   3     718.7       66.6335        4.0258       86.0161       90.0420      23.408499       0.11370
   2     792.3       66.8128        4.3912       84.5970       88.9882      22.175435       0.14142
   1     891.5       67.2956        4.8659       82.4374       87.3033      20.007685       0.18447
   0    1013.0       68.3574        5.4097       79.6182       85.0279      16.670450       0.23172



 Wavenumbers: 16000. - 22650. cm-1, ATM      1
 LEVEL PRESSURE   UPWARD FLUX   DIFDOWN FLUX  DIRDOWN FLUX  DOWNWARD FLUX   NET FLUX    HEATING RATE
          mb          W/m2          W/m2          W/m2        W/m2          W/m2       degree/day
  51    .06700      138.0423        0.0000      156.3892      156.3892      18.346937       0.00000
  50    .07753      138.0423        0.0004      156.3887      156.3891      18.346791       0.11710
  49    .09103      138.0423        0.0009      156.3879      156.3888      18.346579       0.13281
  48    0.1069      138.0422        0.0015      156.3871      156.3885      18.346294       0.15145
  47    0.1255      138.0422        0.0021      156.3861      156.3882      18.345913       0.17263
  46    0.1487      138.0423        0.0029      156.3847      156.3876      18.345352       0.20457
  45    0.1794      138.0424        0.0041      156.3828      156.3869      18.344475       0.24086
  44    0.2165      138.0426        0.0054      156.3805      156.3859      18.343285       0.27070
  43    0.2613      138.0429        0.0070      156.3776      156.3846      18.341670       0.30433
  42    0.3336      138.0436        0.0096      156.3726      156.3822      18.338601       0.35789
  41    0.4307      138.0448        0.0130      156.3657      156.3788      18.333973       0.40231
  40    0.5894      138.0472        0.0187      156.3537      156.3724      18.325149       0.46928
  39     1.339      138.0690        0.0455      156.2834      156.3289      18.259953       0.73399
  38     1.782      138.0891        0.0612      156.2324      156.2936      18.204413       1.05738
  37     2.292      138.1195        0.0794      156.1641      156.2435      18.124020       1.33152
  36     2.964      138.1700        0.1033      156.0605      156.1638      17.993784       1.63486
  35     3.853      138.2518        0.1348      155.9041      156.0389      17.787133       1.96116
  34     5.035      138.3752        0.1767      155.6774      155.8540      17.478832       2.20238
  33     6.613      138.5477        0.2325      155.3656      155.5981      17.050394       2.29043
  32     8.786      138.7724        0.3076      154.9577      155.2653      16.492921       2.16502
  31     11.80      139.0646        0.4150      154.4153      154.8302      15.765598       2.03627
  30     15.07      139.3445        0.5301      153.8804      154.4104      15.065975       1.80629
  29     18.79      139.6300        0.6598      153.3191      153.9789      14.348967       1.62568
  28     23.16      139.9281        0.8112      152.7126      153.5238      13.595620       1.45673
  27     28.12      140.2279        0.9840      152.0755      153.0595      12.831647       1.29870
  26     33.73      140.5041        1.1773      151.4409      152.6182      12.114093       1.07886
  25     40.54      140.7692        1.4105      150.7637      152.1742      11.404935       0.87979
  24     48.69      141.0223        1.6914      150.0338      151.7252      10.702903       0.72649
  23     57.69      141.2359        1.9995      149.3151      151.3146      10.078767       0.58503
  22     68.43      141.4208        2.3661      148.5476      150.9137       9.492905       0.46057
  21     81.20      141.5459        2.8025      147.7517      150.5542       9.008291       0.32023
  20     96.49      141.6066        3.3220      146.9127      150.2347       8.628015       0.20989
  19     114.6      141.6335        3.9370      145.9763      149.9133       8.279783       0.16260
  18     136.5      141.6347        4.6632      144.9088      149.5720       7.937235       0.13172
  17     162.9      141.6082        5.5238      143.6785      149.2024       7.594126       0.10967
  16     196.4      141.5136        6.6342      142.1651      148.7992       7.285561       0.07767
  15     218.7      141.4295        7.3597      141.2033      148.5630       7.133560       0.05771
  14     243.0      141.3278        8.1449      140.1753      148.3202       6.992397       0.04896
  13     269.0      141.2072        8.9920      139.0797      148.0716       6.864471       0.04150
  12     297.5      141.0668        9.9028      137.9141      147.8169       6.750165       0.03390
  11     328.5      140.9105       10.8818      136.6676      147.5494       6.638961       0.03024
  10     361.9      140.7380       11.9298      135.3392      147.2690       6.531003       0.02731
   9     398.1      140.5488       13.0508      133.9235      146.9742       6.425425       0.02460
   8     437.6      140.3437       14.2466      132.4163      146.6629       6.319140       0.02272
   7     480.5      140.1223       15.5195      130.8147      146.3342       6.211879       0.02107
   6     533.0      139.8498       17.0740      128.8599      145.9339       6.084188       0.02054
   5     589.8      139.5596       18.7347      126.7679      145.5026       5.943041       0.02095
   4     651.6      139.2577       20.5030      124.5274      145.0305       5.772758       0.02329
   3     718.7      138.9499       22.3808      122.1285      144.5092       5.559283       0.02683
   2     792.3      138.6522       24.3657      119.5548      143.9205       5.268241       0.03338
   1     891.5      138.3275       26.9997      116.0566      143.0563       4.728813       0.04590
   0    1013.0      138.0638       30.0938      111.8404      141.9343       3.870449       0.05960



 Wavenumbers: 22650. - 29000. cm-1, ATM      1
 LEVEL PRESSURE   UPWARD FLUX   DIFDOWN FLUX  DIRDOWN FLUX  DOWNWARD FLUX   NET FLUX    HEATING RATE
          mb          W/m2          W/m2          W/m2        W/m2          W/m2       degree/day
  51    .06700       57.4963        0.0000       59.0156       59.0156       1.519327       0.00000
  50    .07753       57.4962        0.0005       59.0151       59.0155       1.519327       0.00000
  49    .09103       57.4961        0.0010       59.0144       59.0154       1.519327       0.00000
  48    0.1069       57.4959        0.0017       59.0136       59.0153       1.519327      -0.00000
  47    0.1255       57.4958        0.0025       59.0127       59.0151       1.519327       0.00000
  46    0.1487       57.4956        0.0034       59.0115       59.0149       1.519327       0.00000
  45    0.1794       57.4953        0.0047       59.0099       59.0147       1.519327      -0.00000
  44    0.2165       57.4950        0.0063       59.0080       59.0143       1.519327       0.00000
  43    0.2613       57.4946        0.0081       59.0058       59.0140       1.519327       0.00000
  42    0.3336       57.4940        0.0112       59.0022       59.0133       1.519327      -0.00000
  41    0.4307       57.4932        0.0152       58.9973       59.0125       1.519327      -0.00000
  40    0.5894       57.4919        0.0218       58.9894       59.0112       1.519327       0.00000
  39     1.339       57.4855        0.0531       58.9518       59.0049       1.519327      -0.00000
  38     1.782       57.4818        0.0714       58.9297       59.0012       1.519327      -0.00000
  37     2.292       57.4775        0.0927       58.9042       58.9969       1.519327       0.00000
  36     2.964       57.4719        0.1206       58.8706       58.9912       1.519327      -0.00000
  35     3.853       57.4644        0.1574       58.8264       58.9838       1.519327       0.00000
  34     5.035       57.4545        0.2063       58.7676       58.9739       1.519327      -0.00000
  33     6.613       57.4413        0.2716       58.6891       58.9607       1.519327       0.00000
  32     8.786       57.4235        0.3595       58.5834       58.9429       1.519327      -0.00000
  31     11.80       57.3981        0.4850       58.4324       58.9175       1.519327       0.00000
  30     15.07       57.3709        0.6196       58.2706       58.8902       1.519327       0.00000
  29     18.79       57.3402        0.7713       58.0882       58.8595       1.519327       0.00000
  28     23.16       57.3044        0.9480       57.8757       58.8237       1.519327       0.00000
  27     28.12       57.2635        1.1495       57.6333       58.7829       1.519327      -0.00000
  26     33.73       57.2180        1.3743       57.3631       58.7373       1.519327       0.00000
  25     40.54       57.1632        1.6446       57.0379       58.6825       1.519327       0.00000
  24     48.69       57.0974        1.9689       56.6479       58.6168       1.519327       0.00000
  23     57.69       57.0256        2.3228       56.2221       58.5449       1.519327       0.00000
  22     68.43       56.9406        2.7414       55.7186       58.4599       1.519327       0.00000
  21     81.20       56.8402        3.2356       55.1239       58.3595       1.519327      -0.00000
  20     96.49       56.7217        3.8182       54.4228       58.2410       1.519327      -0.00000
  19     114.6       56.5827        4.5010       53.6010       58.1020       1.519327       0.00000
  18     136.5       56.4203        5.2978       52.6418       57.9396       1.519327      -0.00000
  17     162.9       56.2302        6.2291       51.5203       57.7495       1.519327       0.00000
  16     196.4       55.9889        7.4088       50.0994       57.5082       1.519327      -0.00000
  15     218.7       55.8336        8.1666       49.1863       57.3529       1.519327       0.00000
  14     243.0       55.6675        8.9756       48.2113       57.1869       1.519327      -0.00000
  13     269.0       55.4908        9.8352       47.1749       57.0101       1.519327      -0.00000
  12     297.5       55.3035       10.7445       46.0783       56.8228       1.519327       0.00000
  11     328.5       55.1052       11.7050       44.9195       56.6245       1.519327       0.00000
  10     361.9       54.8964       12.7139       43.7018       56.4157       1.519327       0.00000
   9     398.1       54.6770       13.7713       42.4250       56.1963       1.519327      -0.00000
   8     437.6       54.4473       14.8750       41.0916       55.9666       1.519327       0.00000
   7     480.5       54.2077       16.0226       39.7045       55.7270       1.519327       0.00000
   6     533.0       53.9218       17.3868       38.0543       55.4411       1.519327       0.00000
   5     589.8       53.6241       18.8004       36.3431       55.1434       1.519327       0.00000
   4     651.6       53.3159       20.2557       34.5795       54.8353       1.519327       0.00000
   3     718.7       52.9982       21.7473       32.7702       54.5175       1.519327      -0.00000
   2     792.3       52.6724       23.2662       30.9256       54.1917       1.519327       0.00000
   1     891.5       52.2547       25.1962       28.5778       53.7740       1.519327       0.00000
   0    1013.0       51.7853       27.3381       25.9665       53.3046       1.519327       0.00000



 Wavenumbers: 29000. - 38000. cm-1, ATM      1
 LEVEL PRESSURE   UPWARD FLUX   DIFDOWN FLUX  DIRDOWN FLUX  DOWNWARD FLUX   NET FLUX    HEATING RATE
          mb          W/m2          W/m2          W/m2        W/m2          W/m2       degree/day
  51    .06700        8.6133        0.0000       20.8114       20.8114      12.198029       0.00000
  50    .07753        8.6131        0.0003       20.8070       20.8074      12.194222       3.05139
  49    .09103        8.6129        0.0007       20.8009       20.8016      12.188685       3.46066
  48    0.1069        8.6127        0.0012       20.7928       20.7939      12.181276       3.94407
  47    0.1255        8.6124        0.0017       20.7820       20.7837      12.171372       4.49009
  46    0.1487        8.6120        0.0024       20.7665       20.7688      12.156809       5.30814
  45    0.1794        8.6116        0.0033       20.7424       20.7457      12.134146       6.22168
  44    0.2165        8.6110        0.0043       20.7103       20.7147      12.103625       6.94299
  43    0.2613        8.6105        0.0056       20.6675       20.6731      12.062633       7.72685
  42    0.3336        8.6095        0.0077       20.5880       20.5956      11.986077       8.92568
  41    0.4307        8.6084        0.0104       20.4722       20.4826      11.874132       9.73337
  40    0.5894        8.6069        0.0147       20.2637       20.2783      11.671462      10.77769
  39     1.339        8.6033        0.0330       19.0984       19.1314      10.528096      12.87223
  38     1.782        8.6037        0.0426       18.4394       18.4819       9.878265      12.37173
  37     2.292        8.6061        0.0528       17.7714       17.8242       9.218053      10.93483
  36     2.964        8.6124        0.0654       17.0421       17.1076       8.495141       9.07474
  35     3.853        8.6248        0.0813       16.2678       16.3491       7.724293       7.31549
  34     5.035        8.6454        0.1013       15.4803       15.5817       6.936288       5.62918
  33     6.613        8.6753        0.1270       14.7157       14.8427       6.167382       4.11057
  32     8.786        8.7148        0.1606       13.9936       14.1542       5.439316       2.82755
  31     11.80        8.7664        0.2074       13.2835       13.4909       4.724515       2.00122
  30     15.07        8.8161        0.2559       12.7394       12.9953       4.179178       1.40795
  29     18.79        8.8674        0.3097       12.2666       12.5763       3.708919       1.06622
  28     23.16        8.9218        0.3708       11.8300       12.2008       3.279057       0.83121
  27     28.12        8.9775        0.4393       11.4279       11.8671       2.889698       0.66188
  26     33.73        9.0287        0.5147       11.0695       11.5842       2.555485       0.50250
  25     40.54        9.0771        0.6048       10.7209       11.3257       2.248636       0.38068
  24     48.69        9.1225        0.7117       10.3742       11.0859       1.963433       0.29514
  23     57.69        9.1594        0.8274       10.0549       10.8823       1.722918       0.22545
  22     68.43        9.1888        0.9631        9.7327       10.6959       1.507093       0.16967
  21     81.20        9.2017        1.1233        9.4134       10.5368       1.335065       0.11367
  20     96.49        9.1962        1.3116        9.0887       10.4003       1.204166       0.07225
  19     114.6        9.1802        1.5291        8.7388       10.2679       1.087696       0.05438
  18     136.5        9.1565        1.7776        8.3549       10.1325       0.975991       0.04295
  17     162.9        9.1253        2.0608        7.9311        9.9920       0.866676       0.03494
  16     196.4        9.0742        2.4114        7.4333        9.8448       0.770515       0.02420
  15     218.7        9.0378        2.6319        7.1295        9.7614       0.723639       0.01780
  14     243.0        8.9979        2.8622        6.8161        9.6783       0.680374       0.01501
  13     269.0        8.9544        3.1016        6.4943        9.5959       0.641542       0.01260
  12     297.5        8.9073        3.3489        6.1657        9.5146       0.607327       0.01015
  11     328.5        8.8580        3.6031        5.8295        9.4326       0.574587       0.00890
  10     361.9        8.8070        3.8618        5.4886        9.3505       0.543466       0.00787
   9     398.1        8.7544        4.1244        5.1440        9.2684       0.513992       0.00687
   8     437.6        8.7006        4.3893        4.7969        9.1862       0.485597       0.00607
   7     480.5        8.6461        4.6544        4.4504        9.1047       0.458663       0.00529
   6     533.0        8.5831        4.9562        4.0563        9.0125       0.429326       0.00472
   5     589.8        8.5205        5.2533        3.6682        8.9215       0.400947       0.00421
   4     651.6        8.4591        5.5418        3.2905        8.8323       0.373210       0.00379
   3     718.7        8.3994        5.8203        2.9252        8.7455       0.346074       0.00341
   2     792.3        8.3422        6.0853        2.5764        8.6617       0.319544       0.00304
   1     891.5        8.2747        6.3956        2.1659        8.5615       0.286835       0.00278
   0    1013.0        8.2072        6.7055        1.7526        8.4580       0.250784       0.00250



 Wavenumbers: 38000. - 50000. cm-1, ATM      1
 LEVEL PRESSURE   UPWARD FLUX   DIFDOWN FLUX  DIRDOWN FLUX  DOWNWARD FLUX   NET FLUX    HEATING RATE
          mb          W/m2          W/m2          W/m2        W/m2          W/m2       degree/day
  51    .06700        0.0061        0.0000        1.2836        1.2836       1.277518       0.00000
  50    .07753        0.0061        0.0001        1.2812        1.2812       1.275183       1.87150
  49    .09103        0.0060        0.0002        1.2777        1.2778       1.271851       2.08247
  48    0.1069        0.0059        0.0002        1.2731        1.2734       1.267473       2.33059
  47    0.1255        0.0058        0.0004        1.2672        1.2675       1.261717       2.60908
  46    0.1487        0.0057        0.0005        1.2586        1.2591       1.253391       3.03499
  45    0.1794        0.0055        0.0007        1.2455        1.2462       1.240623       3.50520
  44    0.2165        0.0054        0.0009        1.2282        1.2291       1.223697       3.85037
  43    0.2613        0.0052        0.0011        1.2054        1.2065       1.201348       4.21261
  42    0.3336        0.0049        0.0015        1.1639        1.1654       1.160524       4.75970
  41    0.4307        0.0045        0.0020        1.1051        1.1070       1.102565       5.03943
  40    0.5894        0.0039        0.0026        1.0039        1.0064       1.002524       5.32007
  39     1.339        0.0022        0.0035        0.5438        0.5473       0.545104       5.14971
  38     1.782        0.0016        0.0032        0.3635        0.3666       0.365006       3.42879
  37     2.292        0.0012        0.0027        0.2356        0.2383       0.237058       2.11916
  36     2.964        0.0009        0.0022        0.1455        0.1477       0.146786       1.13318
  35     3.853        0.0006        0.0017        0.0858        0.0875       0.086906       0.56828
  34     5.035        0.0004        0.0013        0.0488        0.0501       0.049701       0.26578
  33     6.613        0.0003        0.0010        0.0273        0.0282       0.027974       0.11615
  32     8.786        0.0002        0.0007        0.0144        0.0151       0.014928       0.05067
  31     11.80        0.0001        0.0004        0.0065        0.0070       0.006903       0.02247
  30     15.07        0.0000        0.0003        0.0031        0.0034       0.003329       0.00923
  29     18.79        0.0000        0.0002        0.0014        0.0016       0.001583       0.00396
  28     23.16        0.0000        0.0001        0.0006        0.0007       0.000720       0.00167
  27     28.12        0.0000        0.0001        0.0003        0.0003       0.000317       0.00069
  26     33.73        0.0000        0.0000        0.0001        0.0001       0.000140       0.00027
  25     40.54        0.0000        0.0000        0.0000        0.0001       0.000057       0.00010
  24     48.69        0.0000        0.0000        0.0000        0.0000       0.000021       0.00004
  23     57.69        0.0000        0.0000        0.0000        0.0000       0.000008       0.00001
  22     68.43        0.0000        0.0000        0.0000        0.0000       0.000003       0.00000
  21     81.20        0.0000        0.0000        0.0000        0.0000       0.000001       0.00000
  20     96.49        0.0000        0.0000        0.0000        0.0000       0.000000       0.00000
  19     114.6        0.0000        0.0000        0.0000        0.0000       0.000000       0.00000
  18     136.5        0.0000        0.0000        0.0000        0.0000       0.000000       0.00000
  17     162.9        0.0000        0.0000        0.0000        0.0000       0.000000       0.00000
  16     196.4        0.0000        0.0000        0.0000        0.0000       0.000000       0.00000
  15     218.7        0.0000        0.0000        0.0000        0.0000       0.000000       0.00000
  14     243.0        0.0000        0.0000        0.0000        0.0000       0.000000       0.00000
  13     269.0        0.0000        0.0000        0.0000        0.0000       0.000000       0.00000
  12     297.5        0.0000        0.0000        0.0000        0.0000       0.000000       0.00000
  11     328.5        0.0000        0.0000        0.0000        0.0000       0.000000       0.00000
  10     361.9        0.0000        0.0000        0.0000        0.0000       0.000000       0.00000
   9     398.1        0.0000        0.0000        0.0000        0.0000       0.000000       0.00000
   8     437.6        0.0000        0.0000        0.0000        0.0000       0.000000       0.00000
   7     480.5        0.0000        0.0000        0.0000        0.0000       0.000000       0.00000
   6     533.0        0.0000        0.0000        0.0000        0.0000       0.000000       0.00000
   5     589.8        0.0000        0.0000        0.0000        0.0000       0.000000       0.00000
   4     651.6        0.0000        0.0000        0.0000        0.0000       0.000000       0.00000
   3     718.7        0.0000        0.0000        0.0000        0.0000       0.000000       0.00000
   2     792.3        0.0000        0.0000        0.0000        0.0000       0.000000       0.00000
   1     891.5        0.0000        0.0000        0.0000        0.0000       0.000000       0.00000
   0    1013.0        0.0000        0.0000        0.0000        0.0000       0.000000       0.00000



 Wavenumbers:   820. -  2600. cm-1, ATM      1
 LEVEL PRESSURE   UPWARD FLUX   DIFDOWN FLUX  DIRDOWN FLUX  DOWNWARD FLUX   NET FLUX    HEATING RATE
          mb          W/m2          W/m2          W/m2        W/m2          W/m2       degree/day
  51    .06700        0.6206        0.0000        6.0047        6.0047       5.384046       0.00000
  50    .07753        0.6206        0.0000        6.0008        6.0008       5.380193       3.08820
  49    .09103        0.6206        0.0000        5.9999        5.9999       5.379307       0.55357
  48    0.1069        0.6206        0.0000        5.9989        5.9989       5.378318       0.52651
  47    0.1255        0.6206        0.0000        5.9978        5.9978       5.377201       0.50649
  46    0.1487        0.6206        0.0000        5.9964        5.9964       5.375844       0.49456
  45    0.1794        0.6206        0.0000        5.9947        5.9947       5.374125       0.47199
  44    0.2165        0.6206        0.0000        5.9929        5.9929       5.372283       0.41909
  43    0.2613        0.6206        0.0000        5.9909        5.9909       5.370323       0.36932
  42    0.3336        0.6206        0.0000        5.9880        5.9880       5.367445       0.33555
  41    0.4307        0.6206        0.0000        5.9846        5.9846       5.363976       0.30164
  40    0.5894        0.6206        0.0000        5.9791        5.9791       5.358471       0.29275
  39     1.339        0.6206        0.0000        5.9536        5.9536       5.332985       0.28693
  38     1.782        0.6206        0.0000        5.9395        5.9395       5.318847       0.26916
  37     2.292        0.6206        0.0000        5.9237        5.9237       5.303097       0.26087
  36     2.964        0.6206        0.0000        5.9039        5.9039       5.283324       0.24821
  35     3.853        0.6206        0.0000        5.8793        5.8793       5.258669       0.23398
  34     5.035        0.6206        0.0000        5.8487        5.8487       5.228107       0.21832
  33     6.613        0.6206        0.0000        5.8108        5.8108       5.190144       0.20295
  32     8.786        0.6206        0.0000        5.7631        5.7631       5.142522       0.18494
  31     11.80        0.6206        0.0000        5.7039        5.7039       5.083268       0.16589
  30     15.07        0.6206        0.0000        5.6539        5.6539       5.033231       0.12919
  29     18.79        0.6206        0.0000        5.6127        5.6127       4.992098       0.09326
  28     23.16        0.6206        0.0000        5.5794        5.5794       4.958722       0.06454
  27     28.12        0.6207        0.0000        5.5518        5.5518       4.931156       0.04686
  26     33.73        0.6207        0.0000        5.5268        5.5268       4.906101       0.03767
  25     40.54        0.6207        0.0000        5.4993        5.4993       4.878654       0.03405
  24     48.69        0.6207        0.0000        5.4678        5.4678       4.847106       0.03265
  23     57.69        0.6207        0.0000        5.4340        5.4340       4.813310       0.03168
  22     68.43        0.6207        0.0000        5.3947        5.3948       4.774024       0.03088
  21     81.20        0.6208        0.0000        5.3497        5.3497       4.728975       0.02977
  20     96.49        0.6208        0.0000        5.2982        5.2982       4.677441       0.02844
  19     114.6        0.6208        0.0000        5.2389        5.2389       4.618094       0.02771
  18     136.5        0.6209        0.0000        5.1716        5.1717       4.550805       0.02587
  17     162.9        0.6209        0.0000        5.0890        5.0890       4.468124       0.02643
  16     196.4        0.6210        0.0000        4.9668        4.9668       4.345802       0.03079
  15     218.7        0.6211        0.0000        4.8585        4.8585       4.237332       0.04118
  14     243.0        0.6213        0.0000        4.7078        4.7079       4.086539       0.05230
  13     269.0        0.6216        0.0000        4.5343        4.5343       3.912686       0.05640
  12     297.5        0.6220        0.0000        4.3419        4.3420       3.719920       0.05717
  11     328.5        0.6227        0.0000        4.1281        4.1281       3.505485       0.05830
  10     361.9        0.6235        0.0000        3.8786        3.8787       3.255187       0.06333
   9     398.1        0.6246        0.0000        3.6159        3.6159       2.991362       0.06147
   8     437.6        0.6260        0.0000        3.3759        3.3759       2.749858       0.05164
   7     480.5        0.6278        0.0000        3.1957        3.1958       2.567957       0.03572
   6     533.0        0.6306        0.0000        3.0467        3.0467       2.416081       0.02443
   5     589.8        0.6348        0.0000        2.9023        2.9023       2.267484       0.02206
   4     651.6        0.6425        0.0000        2.7183        2.7184       2.075908       0.02620
   3     718.7        0.6557        0.0000        2.5058        2.5059       1.850169       0.02837
   2     792.3        0.6800        0.0000        2.2756        2.2757       1.595632       0.02919
   1     891.5        0.7420        0.0000        1.9621        1.9622       1.220116       0.03195
   0    1013.0        0.8981        0.0000        1.5468        1.5469       0.648758       0.03967

  Modules and versions used in this calculation:

       rrtmg_sw.1col.f90:  $Revision$                    rrtmg_sw_init.f90:  $Revision$        
     rrtmgsw_cldprop.f90:  $Revision$                  rrtmgsw_cldprmc.f90:  NOT USED          
     rrtmg_sw_reftra.f90:  $Revision$                  rrtmg_sw_spcvrt.f90:  NOT USED          
     rrtmg_sw_spcvmc.f90:  NOT USED                    rrtmgsw_setcoef.f90:  NOT USED          
     rrtmg_sw_taumol.f90:  $Revision$                  rrtmg_sw_vrtqdr.f90:  NOT USED          
                rrtatm.f:  NOT USED                             util_xxx.f:  NOT USED          
                 extra.f:  NOT USED                       rrtmg_sw_k_g.f90:  $Revision$        

