

 Wavenumbers:   820. - 50000. cm-1, ATM      1
 LEVEL PRESSURE   UPWARD FLUX   DIFDOWN FLUX  DIRDOWN FLUX  DOWNWARD FLUX   NET FLUX    HEATING RATE
          mb          W/m2          W/m2          W/m2        W/m2          W/m2       degree/day
  51    .06700      391.3190        0.0000      617.8126      617.8126     226.493611       0.00000
  50    .07753      391.3186        0.0013      617.7947      617.7961     226.477474      12.93454
  49    .09103      391.3181        0.0030      617.7778      617.7808     226.462667       9.25427
  48    0.1069      391.3176        0.0050      617.7581      617.7630     226.445411       9.18587
  47    0.1255      391.3171        0.0072      617.7340      617.7412     226.424072       9.67386
  46    0.1487      391.3165        0.0100      617.7009      617.7109     226.394395      10.81745
  45    0.1794      391.3158        0.0138      617.6521      617.6659     226.350179      12.13860
  44    0.2165      391.3150        0.0184      617.5895      617.6079     226.292876      13.03530
  43    0.2613      391.3142        0.0237      617.5089      617.5326     226.218389      14.04054
  42    0.3336      391.3133        0.0325      617.3641      617.3966     226.083352      15.74398
  41    0.4307      391.3124        0.0441      617.1591      617.2032     225.890800      16.74190
  40    0.5894      391.3120        0.0628      616.8005      616.8633     225.551246      18.05706
  39     1.339      391.3280        0.1473      614.9443      615.0916     223.763640      20.12520
  38     1.782      391.3497        0.1949      613.9670      614.1619     222.812235      18.11320
  37     2.292      391.3860        0.2490      613.0059      613.2549     221.868860      15.62476
  36     2.964      391.4506        0.3194      611.9577      612.2770     220.826386      13.08621
  35     3.853      391.5594        0.4116      610.8024      611.2140     219.654547      11.12096
  34     5.035      391.7271        0.5333      609.5327      610.0660     218.338901       9.39843
  33     6.613      391.9634        0.6948      608.1464      608.8413     216.877875       7.81065
  32     8.786      392.2711        0.9116      606.6250      607.5366     215.265460       6.26204
  31     11.80      392.6693        1.2201      604.8486      606.0687     213.399477       5.22416
  30     15.07      393.0477        1.5493      603.2440      604.7933     211.745547       4.27013
  29     18.79      393.4315        1.9198      601.6511      603.5709     210.139407       3.64161
  28     23.16      393.8293        2.3502      599.9927      602.3429     208.513591       3.14380
  27     28.12      394.2251        2.8401      598.2881      601.1281     206.903004       2.73789
  26     33.73      394.5817        3.3862      596.5951      599.9813     205.399624       2.26037
  25     40.54      394.9117        4.0437      594.7727      598.8164     203.904687       1.85464
  24     48.69      395.2121        4.8327      592.7865      597.6192     202.407099       1.54977
  23     57.69      395.4473        5.6951      590.7959      596.4909     201.043687       1.27799
  22     68.43      395.6246        6.7167      588.6191      595.3358     199.711157       1.04755
  21     81.20      395.6931        7.9279      586.2690      594.1969     198.503770       0.79782
  20     96.49      395.6422        9.3619      583.6961      593.0580     197.415786       0.60049
  19     114.6      395.5296       11.0489      580.7708      591.8198     196.290207       0.52557
  18     136.5      395.3521       13.0242      577.4359      590.4601     195.107947       0.45461
  17     162.9      395.1034       15.3421      573.5624      588.9045     193.801135       0.41771
  16     196.4      394.6945       18.2978      568.5907      586.8885     192.193983       0.40454
  15     218.7      394.3972       20.2086      565.0572      585.2658     190.868597       0.50320
  14     243.0      394.0645       22.2579      560.7495      583.0075     188.942955       0.66788
  13     269.0      393.6957       24.4472      555.3947      579.8419     186.146175       0.90726
  12     297.5      393.2928       26.7769      548.9964      575.7733     182.480530       1.08719
  11     328.5      392.8634       29.2536      542.0895      571.3432     178.479729       1.08781
  10     361.9      392.4111       31.8734      534.6242      566.4976     174.086488       1.11153
   9     398.1      391.9397       34.6407      526.4204      561.0612     169.121447       1.15674
   8     437.6      391.4591       37.5543      517.3907      554.9449     163.485892       1.20492
   7     480.5      390.9780       40.6121      507.7216      548.3336     157.355620       1.20396
   6     533.0      390.4485       44.2879      495.9006      540.1885     149.739987       1.22511
   5     589.8      389.9879       48.1446      483.0788      531.2234     141.235492       1.26235
   4     651.6      389.7072       52.1697      468.6907      520.8604     131.153123       1.37879
   3     718.7      389.7298       56.3552      453.2257      509.5809     119.851147       1.42035
   2     792.3      390.3456       60.6795      436.4928      497.1723     106.826702       1.49376
   1     891.5      392.6940       66.2665      413.9344      480.2009      87.506858       1.64403
   0    1013.0      399.3608       72.6213      388.4125      461.0338      61.672932       1.79378



 Wavenumbers:  2600. -  3250. cm-1, ATM      1
 LEVEL PRESSURE   UPWARD FLUX   DIFDOWN FLUX  DIRDOWN FLUX  DOWNWARD FLUX   NET FLUX    HEATING RATE
          mb          W/m2          W/m2          W/m2        W/m2          W/m2       degree/day
  51    .06700        1.1018        0.0000        5.4450        5.4450       4.343243       0.00000
  50    .07753        1.1018        0.0000        5.4450        5.4450       4.343235       0.00640
  49    .09103        1.1018        0.0000        5.4450        5.4450       4.343225       0.00627
  48    0.1069        1.1018        0.0000        5.4450        5.4450       4.343214       0.00613
  47    0.1255        1.1018        0.0000        5.4450        5.4450       4.343200       0.00599
  46    0.1487        1.1018        0.0000        5.4450        5.4450       4.343184       0.00608
  45    0.1794        1.1018        0.0000        5.4450        5.4450       4.343161       0.00625
  44    0.2165        1.1018        0.0000        5.4449        5.4449       4.343134       0.00612
  43    0.2613        1.1018        0.0000        5.4449        5.4449       4.343102       0.00600
  42    0.3336        1.1018        0.0000        5.4448        5.4448       4.343049       0.00617
  41    0.4307        1.1018        0.0000        5.4448        5.4448       4.342978       0.00620
  40    0.5894        1.1018        0.0000        5.4446        5.4446       4.342858       0.00637
  39     1.339        1.1018        0.0000        5.4439        5.4439       4.342151       0.00797
  38     1.782        1.1018        0.0000        5.4434        5.4434       4.341608       0.01034
  37     2.292        1.1018        0.0000        5.4427        5.4427       4.340892       0.01186
  36     2.964        1.1018        0.0000        5.4416        5.4416       4.339853       0.01304
  35     3.853        1.1018        0.0000        5.4402        5.4402       4.338376       0.01402
  34     5.035        1.1018        0.0000        5.4381        5.4381       4.336320       0.01468
  33     6.613        1.1018        0.0000        5.4353        5.4353       4.333539       0.01487
  32     8.786        1.1018        0.0000        5.4317        5.4317       4.329907       0.01411
  31     11.80        1.1018        0.0000        5.4269        5.4269       4.325126       0.01338
  30     15.07        1.1018        0.0000        5.4224        5.4224       4.320599       0.01169
  29     18.79        1.1018        0.0000        5.4180        5.4180       4.316186       0.01001
  28     23.16        1.1018        0.0000        5.4135        5.4135       4.311699       0.00868
  27     28.12        1.1018        0.0000        5.4088        5.4088       4.307050       0.00790
  26     33.73        1.1018        0.0000        5.4036        5.4036       4.301806       0.00788
  25     40.54        1.1018        0.0000        5.3966        5.3967       4.294861       0.00862
  24     48.69        1.1018        0.0000        5.3872        5.3872       4.285377       0.00981
  23     57.69        1.1018        0.0000        5.3754        5.3754       4.273584       0.01105
  22     68.43        1.1018        0.0000        5.3599        5.3599       4.258083       0.01219
  21     81.20        1.1019        0.0000        5.3401        5.3401       4.238230       0.01312
  20     96.49        1.1019        0.0000        5.3155        5.3155       4.213634       0.01357
  19     114.6        1.1020        0.0000        5.2853        5.2854       4.183398       0.01412
  18     136.5        1.1020        0.0001        5.2504        5.2505       4.148434       0.01344
  17     162.9        1.1021        0.0001        5.2111        5.2112       4.109007       0.01260
  16     196.4        1.1023        0.0001        5.1640        5.1641       4.061767       0.01189
  15     218.7        1.1026        0.0001        5.1331        5.1332       4.030636       0.01182
  14     243.0        1.1029        0.0001        5.0962        5.0963       3.993383       0.01292
  13     269.0        1.1035        0.0001        5.0511        5.0512       3.947697       0.01482
  12     297.5        1.1044        0.0001        4.9956        4.9957       3.891361       0.01671
  11     328.5        1.1056        0.0001        4.9304        4.9305       3.824948       0.01806
  10     361.9        1.1072        0.0001        4.8511        4.8512       3.744071       0.02046
   9     398.1        1.1094        0.0002        4.7507        4.7508       3.641474       0.02390
   8     437.6        1.1123        0.0002        4.6220        4.6222       3.509864       0.02814
   7     480.5        1.1164        0.0002        4.4625        4.4627       3.346301       0.03212
   6     533.0        1.1227        0.0002        4.2460        4.2462       3.123498       0.03584
   5     589.8        1.1322        0.0002        3.9954        3.9956       2.863435       0.03860
   4     651.6        1.1471        0.0002        3.7089        3.7091       2.561990       0.04122
   3     718.7        1.1701        0.0002        3.4018        3.4020       2.231877       0.04149
   2     792.3        1.2079        0.0002        3.0564        3.0566       1.848731       0.04394
   1     891.5        1.2933        0.0002        2.5828        2.5830       1.289668       0.04757
   0    1013.0        1.4941        0.0002        2.0845        2.0847       0.590582       0.04854



 Wavenumbers:  3250. -  4000. cm-1, ATM      1
 LEVEL PRESSURE   UPWARD FLUX   DIFDOWN FLUX  DIRDOWN FLUX  DOWNWARD FLUX   NET FLUX    HEATING RATE
          mb          W/m2          W/m2          W/m2        W/m2          W/m2       degree/day
  51    .06700        0.0005        0.0000        9.1795        9.1795       9.178993       0.00000
  50    .07753        0.0005        0.0000        9.1747        9.1747       9.174150       3.88148
  49    .09103        0.0005        0.0000        9.1713        9.1713       9.170762       2.11747
  48    0.1069        0.0005        0.0000        9.1688        9.1688       9.168237       1.34402
  47    0.1255        0.0005        0.0000        9.1665        9.1665       9.165978       1.02422
  46    0.1487        0.0005        0.0000        9.1641        9.1641       9.163537       0.88991
  45    0.1794        0.0005        0.0000        9.1612        9.1612       9.160659       0.79008
  44    0.2165        0.0005        0.0000        9.1583        9.1583       9.157738       0.66430
  43    0.2613        0.0005        0.0000        9.1553        9.1553       9.154765       0.56041
  42    0.3336        0.0005        0.0000        9.1511        9.1511       9.150586       0.48723
  41    0.4307        0.0005        0.0000        9.1464        9.1464       9.145818       0.41459
  40    0.5894        0.0005        0.0000        9.1393        9.1394       9.138813       0.37255
  39     1.339        0.0005        0.0000        9.1127        9.1127       9.112199       0.29962
  38     1.782        0.0005        0.0000        9.1011        9.1011       9.100611       0.22062
  37     2.292        0.0005        0.0000        9.0901        9.0901       9.089544       0.18329
  36     2.964        0.0005        0.0000        9.0776        9.0776       9.077114       0.15603
  35     3.853        0.0005        0.0000        9.0629        9.0629       9.062324       0.14036
  34     5.035        0.0005        0.0000        9.0441        9.0441       9.043585       0.13386
  33     6.613        0.0005        0.0000        9.0191        9.0191       9.018584       0.13366
  32     8.786        0.0005        0.0000        8.9843        8.9843       8.983800       0.13509
  31     11.80        0.0005        0.0000        8.9327        8.9327       8.932184       0.14451
  30     15.07        0.0005        0.0000        8.8758        8.8759       8.875339       0.14676
  29     18.79        0.0005        0.0000        8.8110        8.8110       8.810512       0.14698
  28     23.16        0.0005        0.0000        8.7365        8.7366       8.736067       0.14395
  27     28.12        0.0005        0.0000        8.6554        8.6555       8.654954       0.13789
  26     33.73        0.0005        0.0000        8.5719        8.5719       8.571454       0.12554
  25     40.54        0.0005        0.0001        8.4812        8.4812       8.480730       0.11255
  24     48.69        0.0005        0.0001        8.3838        8.3839       8.383429       0.10069
  23     57.69        0.0005        0.0001        8.2861        8.2862       8.285694       0.09161
  22     68.43        0.0004        0.0001        8.1751        8.1751       8.174697       0.08726
  21     81.20        0.0004        0.0001        8.0457        8.0458       8.045339       0.08548
  20     96.49        0.0004        0.0001        7.8949        7.8950       7.894636       0.08318
  19     114.6        0.0004        0.0001        7.7162        7.7163       7.715926       0.08344
  18     136.5        0.0004        0.0002        7.5193        7.5194       7.519083       0.07569
  17     162.9        0.0003        0.0002        7.2913        7.2915       7.291191       0.07284
  16     196.4        0.0003        0.0002        6.9660        6.9662       6.965919       0.08187
  15     218.7        0.0003        0.0002        6.6648        6.6650       6.664730       0.11435
  14     243.0        0.0003        0.0002        6.2619        6.2622       6.261936       0.13970
  13     269.0        0.0002        0.0003        5.7576        5.7579       5.757637       0.16359
  12     297.5        0.0002        0.0003        5.1719        5.1722       5.171946       0.17371
  11     328.5        0.0002        0.0002        4.5757        4.5760       4.575786       0.16209
  10     361.9        0.0002        0.0002        3.9995        3.9998       3.999611       0.14578
   9     398.1        0.0002        0.0002        3.4655        3.4657       3.465555       0.12442
   8     437.6        0.0001        0.0002        2.9740        2.9742       2.974107       0.10507
   7     480.5        0.0001        0.0002        2.5307        2.5309       2.530734       0.08708
   6     533.0        0.0001        0.0002        2.0614        2.0616       2.061438       0.07549
   5     589.8        0.0001        0.0002        1.6150        1.6151       1.615008       0.06626
   4     651.6        0.0001        0.0001        1.1565        1.1566       1.156461       0.06271
   3     718.7        0.0001        0.0001        0.7390        0.7391       0.738955       0.05247
   2     792.3        0.0002        0.0001        0.3985        0.3985       0.398289       0.03907
   1     891.5        0.0007        0.0000        0.1139        0.1139       0.113251       0.02426
   0    1013.0        0.0067        0.0000        0.0094        0.0094       0.002658       0.00768



 Wavenumbers:  4000. -  4650. cm-1, ATM      1
 LEVEL PRESSURE   UPWARD FLUX   DIFDOWN FLUX  DIRDOWN FLUX  DOWNWARD FLUX   NET FLUX    HEATING RATE
          mb          W/m2          W/m2          W/m2        W/m2          W/m2       degree/day
  51    .06700        4.4498        0.0000       10.7795       10.7795       6.329758       0.00000
  50    .07753        4.4498        0.0000       10.7795       10.7795       6.329757       0.00080
  49    .09103        4.4498        0.0000       10.7795       10.7795       6.329755       0.00078
  48    0.1069        4.4498        0.0000       10.7795       10.7795       6.329754       0.00076
  47    0.1255        4.4498        0.0000       10.7795       10.7795       6.329752       0.00075
  46    0.1487        4.4498        0.0000       10.7795       10.7795       6.329750       0.00076
  45    0.1794        4.4498        0.0000       10.7795       10.7795       6.329747       0.00078
  44    0.2165        4.4498        0.0000       10.7795       10.7795       6.329744       0.00076
  43    0.2613        4.4498        0.0000       10.7795       10.7795       6.329740       0.00075
  42    0.3336        4.4498        0.0000       10.7795       10.7795       6.329734       0.00077
  41    0.4307        4.4498        0.0000       10.7795       10.7795       6.329725       0.00077
  40    0.5894        4.4498        0.0000       10.7795       10.7795       6.329710       0.00080
  39     1.339        4.4498        0.0000       10.7794       10.7794       6.329620       0.00101
  38     1.782        4.4498        0.0000       10.7793       10.7793       6.329551       0.00133
  37     2.292        4.4498        0.0000       10.7792       10.7792       6.329457       0.00156
  36     2.964        4.4498        0.0000       10.7791       10.7791       6.329316       0.00176
  35     3.853        4.4498        0.0000       10.7789       10.7789       6.329108       0.00197
  34     5.035        4.4498        0.0000       10.7786       10.7786       6.328801       0.00219
  33     6.613        4.4498        0.0000       10.7781       10.7781       6.328350       0.00241
  32     8.786        4.4498        0.0000       10.7774       10.7774       6.327683       0.00259
  31     11.80        4.4498        0.0001       10.7763       10.7764       6.326636       0.00293
  30     15.07        4.4498        0.0001       10.7751       10.7752       6.325408       0.00317
  29     18.79        4.4497        0.0001       10.7736       10.7737       6.323922       0.00337
  28     23.16        4.4497        0.0001       10.7717       10.7718       6.322078       0.00357
  27     28.12        4.4497        0.0001       10.7695       10.7696       6.319846       0.00379
  26     33.73        4.4497        0.0002       10.7667       10.7668       6.317094       0.00414
  25     40.54        4.4497        0.0002       10.7629       10.7631       6.313362       0.00463
  24     48.69        4.4497        0.0002       10.7579       10.7581       6.308390       0.00515
  23     57.69        4.4498        0.0003       10.7520       10.7523       6.302497       0.00552
  22     68.43        4.4498        0.0003       10.7446       10.7449       6.295113       0.00580
  21     81.20        4.4499        0.0004       10.7355       10.7359       6.286024       0.00601
  20     96.49        4.4499        0.0004       10.7245       10.7249       6.274968       0.00610
  19     114.6        4.4501        0.0005       10.7107       10.7112       6.261148       0.00645
  18     136.5        4.4503        0.0006       10.6942       10.6948       6.244503       0.00640
  17     162.9        4.4506        0.0007       10.6740       10.6747       6.224106       0.00652
  16     196.4        4.4513        0.0009       10.6464       10.6472       6.195977       0.00708
  15     218.7        4.4518        0.0010       10.6255       10.6264       6.174576       0.00812
  14     243.0        4.4528        0.0011       10.5980       10.5991       6.146363       0.00979
  13     269.0        4.4542        0.0012       10.5611       10.5623       6.108110       0.01241
  12     297.5        4.4563        0.0013       10.5119       10.5133       6.056979       0.01517
  11     328.5        4.4592        0.0014       10.4499       10.4513       5.992118       0.01764
  10     361.9        4.4630        0.0016       10.3702       10.3718       5.908719       0.02110
   9     398.1        4.4678        0.0017       10.2678       10.2695       5.801695       0.02493
   8     437.6        4.4738        0.0019       10.1390       10.1409       5.667095       0.02878
   7     480.5        4.4812        0.0020        9.9877        9.9897       5.508562       0.03114
   6     533.0        4.4922        0.0022        9.7937        9.7959       5.303730       0.03295
   5     589.8        4.5074        0.0024        9.5752        9.5776       5.070150       0.03467
   4     651.6        4.5306        0.0026        9.2958        9.2984       4.767859       0.04134
   3     718.7        4.5664        0.0028        8.9267        8.9295       4.363149       0.05086
   2     792.3        4.6253        0.0030        8.4542        8.4572       3.831851       0.06093
   1     891.5        4.7606        0.0031        7.7948        7.7980       3.037410       0.06760
   0    1013.0        5.0745        0.0033        7.0767        7.0800       2.005502       0.07165



 Wavenumbers:  4650. -  5150. cm-1, ATM      1
 LEVEL PRESSURE   UPWARD FLUX   DIFDOWN FLUX  DIRDOWN FLUX  DOWNWARD FLUX   NET FLUX    HEATING RATE
          mb          W/m2          W/m2          W/m2        W/m2          W/m2       degree/day
  51    .06700        3.1334        0.0000       10.2033       10.2033       7.069896       0.00000
  50    .07753        3.1334        0.0000       10.2031       10.2031       7.069660       0.18901
  49    .09103        3.1334        0.0000       10.2028       10.2028       7.069365       0.18428
  48    0.1069        3.1334        0.0000       10.2025       10.2025       7.069028       0.17931
  47    0.1255        3.1334        0.0000       10.2021       10.2021       7.068644       0.17426
  46    0.1487        3.1334        0.0000       10.2016       10.2016       7.068163       0.17536
  45    0.1794        3.1334        0.0000       10.2010       10.2010       7.067513       0.17850
  44    0.2165        3.1334        0.0000       10.2002       10.2002       7.066753       0.17277
  43    0.2613        3.1334        0.0000       10.1993       10.1993       7.065868       0.16690
  42    0.3336        3.1334        0.0000       10.1979       10.1979       7.064435       0.16702
  41    0.4307        3.1334        0.0000       10.1960       10.1960       7.062595       0.16002
  40    0.5894        3.1334        0.0000       10.1932       10.1932       7.059721       0.15283
  39     1.339        3.1334        0.0000       10.1816       10.1816       7.048129       0.13050
  38     1.782        3.1334        0.0000       10.1760       10.1760       7.042601       0.10526
  37     2.292        3.1334        0.0000       10.1706       10.1706       7.037144       0.09037
  36     2.964        3.1334        0.0000       10.1646       10.1647       7.031221       0.07435
  35     3.853        3.1334        0.0000       10.1584       10.1584       7.025007       0.05897
  34     5.035        3.1334        0.0000       10.1521       10.1521       7.018672       0.04526
  33     6.613        3.1334        0.0000       10.1456       10.1456       7.012215       0.03452
  32     8.786        3.1334        0.0001       10.1386       10.1386       7.005204       0.02723
  31     11.80        3.1334        0.0001       10.1295       10.1296       6.996163       0.02531
  30     15.07        3.1334        0.0001       10.1196       10.1197       6.986284       0.02551
  29     18.79        3.1334        0.0001       10.1076       10.1077       6.974276       0.02723
  28     23.16        3.1334        0.0002       10.0923       10.0924       6.958969       0.02960
  27     28.12        3.1335        0.0002       10.0731       10.0733       6.939871       0.03246
  26     33.73        3.1335        0.0002       10.0500       10.0503       6.916771       0.03473
  25     40.54        3.1335        0.0003       10.0201       10.0204       6.886859       0.03711
  24     48.69        3.1336        0.0003        9.9820        9.9823       6.848673       0.03952
  23     57.69        3.1337        0.0004        9.9384        9.9388       6.805113       0.04083
  22     68.43        3.1338        0.0004        9.8858        9.8862       6.752350       0.04148
  21     81.20        3.1341        0.0005        9.8234        9.8240       6.689913       0.04126
  20     96.49        3.1344        0.0006        9.7518        9.7524       6.618028       0.03968
  19     114.6        3.1348        0.0007        9.6719        9.6727       6.537878       0.03742
  18     136.5        3.1354        0.0009        9.5858        9.5867       6.451298       0.03329
  17     162.9        3.1362        0.0010        9.4940        9.4951       6.358862       0.02955
  16     196.4        3.1375        0.0012        9.3883        9.3895       6.251987       0.02690
  15     218.7        3.1386        0.0013        9.3229        9.3243       6.185703       0.02517
  14     243.0        3.1400        0.0015        9.2520        9.2535       6.113499       0.02504
  13     269.0        3.1419        0.0016        9.1717        9.1733       6.031396       0.02663
  12     297.5        3.1447        0.0018        9.0763        9.0781       5.933393       0.02907
  11     328.5        3.1483        0.0020        8.9650        8.9669       5.818590       0.03121
  10     361.9        3.1531        0.0021        8.8349        8.8371       5.683974       0.03406
   9     398.1        3.1592        0.0023        8.6820        8.6843       5.525091       0.03702
   8     437.6        3.1673        0.0025        8.5028        8.5053       5.338061       0.03999
   7     480.5        3.1776        0.0027        8.2948        8.2975       5.119910       0.04284
   6     533.0        3.1933        0.0029        8.0209        8.0238       4.830520       0.04655
   5     589.8        3.2149        0.0031        7.7063        7.7095       4.494587       0.04986
   4     651.6        3.2463        0.0033        7.3412        7.3446       4.098241       0.05420
   3     718.7        3.2926        0.0035        6.9387        6.9422       3.649629       0.05638
   2     792.3        3.3626        0.0037        6.5066        6.5103       3.147661       0.05757
   1     891.5        3.5085        0.0039        5.9361        5.9399       2.431447       0.06095
   0    1013.0        3.8035        0.0040        5.3025        5.3065       1.503025       0.06447



 Wavenumbers:  5150. -  6150. cm-1, ATM      1
 LEVEL PRESSURE   UPWARD FLUX   DIFDOWN FLUX  DIRDOWN FLUX  DOWNWARD FLUX   NET FLUX    HEATING RATE
          mb          W/m2          W/m2          W/m2        W/m2          W/m2       degree/day
  51    .06700        8.0040        0.0000       25.5798       25.5798      17.575825       0.00000
  50    .07753        8.0040        0.0000       25.5798       25.5798      17.575786       0.03159
  49    .09103        8.0040        0.0000       25.5797       25.5797      17.575734       0.03208
  48    0.1069        8.0040        0.0000       25.5797       25.5797      17.575673       0.03258
  47    0.1255        8.0040        0.0000       25.5796       25.5796      17.575600       0.03308
  46    0.1487        8.0040        0.0000       25.5795       25.5795      17.575504       0.03486
  45    0.1794        8.0040        0.0000       25.5794       25.5794      17.575369       0.03710
  44    0.2165        8.0040        0.0000       25.5792       25.5792      17.575204       0.03766
  43    0.2613        8.0040        0.0000       25.5790       25.5790      17.575001       0.03824
  42    0.3336        8.0040        0.0000       25.5786       25.5786      17.574654       0.04040
  41    0.4307        8.0040        0.0000       25.5782       25.5782      17.574183       0.04095
  40    0.5894        8.0040        0.0000       25.5774       25.5774      17.573394       0.04195
  39     1.339        8.0040        0.0000       25.5735       25.5736      17.569594       0.04279
  38     1.782        8.0040        0.0001       25.5713       25.5714      17.567381       0.04212
  37     2.292        8.0040        0.0001       25.5688       25.5688      17.564877       0.04147
  36     2.964        8.0040        0.0001       25.5656       25.5657      17.561696       0.03993
  35     3.853        8.0040        0.0001       25.5615       25.5616      17.557653       0.03837
  34     5.035        8.0039        0.0002       25.5562       25.5564      17.552446       0.03719
  33     6.613        8.0039        0.0002       25.5494       25.5496      17.545693       0.03611
  32     8.786        8.0039        0.0003       25.5406       25.5409      17.536941       0.03399
  31     11.80        8.0039        0.0004       25.5287       25.5290      17.525104       0.03314
  30     15.07        8.0039        0.0005       25.5167       25.5171      17.513235       0.03064
  29     18.79        8.0039        0.0006       25.5042       25.5047      17.500827       0.02813
  28     23.16        8.0039        0.0007       25.4907       25.4914      17.487461       0.02584
  27     28.12        8.0039        0.0008       25.4764       25.4773      17.473368       0.02396
  26     33.73        8.0039        0.0010       25.4620       25.4630      17.459087       0.02147
  25     40.54        8.0040        0.0012       25.4463       25.4475      17.443469       0.01937
  24     48.69        8.0041        0.0015       25.4294       25.4308      17.426745       0.01731
  23     57.69        8.0042        0.0017       25.4126       25.4143      17.410140       0.01556
  22     68.43        8.0044        0.0020       25.3944       25.3965      17.392109       0.01417
  21     81.20        8.0046        0.0024       25.3744       25.3768      17.372267       0.01311
  20     96.49        8.0049        0.0029       25.3519       25.3548      17.349965       0.01231
  19     114.6        8.0052        0.0034       25.3262       25.3296      17.324389       0.01194
  18     136.5        8.0056        0.0041       25.2962       25.3003      17.294616       0.01145
  17     162.9        8.0062        0.0048       25.2521       25.2569      17.250729       0.01403
  16     196.4        8.0070        0.0058       25.1593       25.1651      17.158130       0.02331
  15     218.7        8.0075        0.0064       25.0159       25.0224      17.014827       0.05441
  14     243.0        8.0082        0.0071       24.7089       24.7160      16.707760       0.10650
  13     269.0        8.0091        0.0077       24.1619       24.1696      16.160436       0.17755
  12     297.5        8.0103        0.0083       23.4544       23.4627      15.452392       0.21000
  11     328.5        8.0119        0.0090       22.7355       22.7445      14.732584       0.19571
  10     361.9        8.0138        0.0096       21.9224       21.9321      13.918233       0.20604
   9     398.1        8.0163        0.0102       20.9939       21.0042      12.987834       0.21676
   8     437.6        8.0196        0.0108       19.9833       19.9942      11.974545       0.21665
   7     480.5        8.0239        0.0114       18.9483       18.9597      10.935782       0.20401
   6     533.0        8.0307        0.0120       17.7796       17.7916       9.760897       0.18900
   5     589.8        8.0410        0.0127       16.6726       16.6853       8.644236       0.16575
   4     651.6        8.0584        0.0133       15.6343       15.6476       7.589231       0.14427
   3     718.7        8.0879        0.0141       14.7738       14.7879       6.700024       0.11175
   2     792.3        8.1406        0.0149       14.0291       14.0440       5.903448       0.09136
   1     891.5        8.2732        0.0160       13.0822       13.0982       4.824947       0.09178
   0    1013.0        8.6415        0.0171       12.0384       12.0555       3.413992       0.09797



 Wavenumbers:  6150. -  7700. cm-1, ATM      1
 LEVEL PRESSURE   UPWARD FLUX   DIFDOWN FLUX  DIRDOWN FLUX  DOWNWARD FLUX   NET FLUX    HEATING RATE
          mb          W/m2          W/m2          W/m2        W/m2          W/m2       degree/day
  51    .06700       11.7906        0.0000       47.3109       47.3109      35.520281       0.00000
  50    .07753       11.7906        0.0000       47.3108       47.3108      35.520224       0.04553
  49    .09103       11.7906        0.0000       47.3107       47.3107      35.520151       0.04583
  48    0.1069       11.7906        0.0000       47.3106       47.3106      35.520064       0.04614
  47    0.1255       11.7906        0.0000       47.3105       47.3105      35.519962       0.04645
  46    0.1487       11.7906        0.0000       47.3104       47.3104      35.519828       0.04852
  45    0.1794       11.7906        0.0000       47.3102       47.3102      35.519642       0.05127
  44    0.2165       11.7906        0.0000       47.3100       47.3100      35.519415       0.05167
  43    0.2613       11.7906        0.0000       47.3097       47.3097      35.519138       0.05210
  42    0.3336       11.7906        0.0000       47.3092       47.3092      35.518669       0.05471
  41    0.4307       11.7905        0.0000       47.3085       47.3086      35.518034       0.05521
  40    0.5894       11.7905        0.0001       47.3074       47.3075      35.516975       0.05633
  39     1.339       11.7905        0.0002       47.3022       47.3024      35.511882       0.05733
  38     1.782       11.7904        0.0002       47.2991       47.2993      35.508912       0.05655
  37     2.292       11.7904        0.0003       47.2956       47.2959      35.505536       0.05591
  36     2.964       11.7903        0.0004       47.2912       47.2915      35.501218       0.05421
  35     3.853       11.7903        0.0005       47.2855       47.2859      35.495684       0.05252
  34     5.035       11.7901        0.0006       47.2780       47.2787      35.488503       0.05129
  33     6.613       11.7900        0.0008       47.2683       47.2691      35.479116       0.05019
  32     8.786       11.7898        0.0011       47.2556       47.2566      35.466817       0.04777
  31     11.80       11.7896        0.0014       47.2380       47.2395      35.449913       0.04732
  30     15.07       11.7893        0.0018       47.2201       47.2219      35.432626       0.04463
  29     18.79       11.7890        0.0023       47.2008       47.2031      35.414147       0.04190
  28     23.16       11.7886        0.0028       47.1795       47.1823      35.393758       0.03943
  27     28.12       11.7882        0.0034       47.1565       47.1599      35.371765       0.03739
  26     33.73       11.7877        0.0041       47.1324       47.1365      35.348845       0.03446
  25     40.54       11.7871        0.0049       47.1054       47.1103      35.323211       0.03180
  24     48.69       11.7864        0.0059       47.0754       47.0814      35.294960       0.02923
  23     57.69       11.7856        0.0070       47.0449       47.0520      35.266342       0.02683
  22     68.43       11.7847        0.0083       47.0110       47.0193      35.234609       0.02495
  21     81.20       11.7836        0.0099       46.9729       46.9828      35.199122       0.02345
  20     96.49       11.7823        0.0117       46.9294       46.9411      35.158790       0.02226
  19     114.6       11.7808        0.0139       46.8790       46.8930      35.112170       0.02177
  18     136.5       11.7790        0.0166       46.8200       46.8365      35.057568       0.02100
  17     162.9       11.7768        0.0197       46.7361       46.7558      34.978983       0.02512
  16     196.4       11.7741        0.0237       46.5703       46.5939      34.819880       0.04005
  15     218.7       11.7723        0.0263       46.3473       46.3736      34.601243       0.08301
  14     243.0       11.7706        0.0290       45.9299       45.9588      34.188267       0.14323
  13     269.0       11.7689        0.0317       45.1708       45.2025      33.433518       0.24484
  12     297.5       11.7677        0.0343       44.0115       44.0458      32.278121       0.34268
  11     328.5       11.7668        0.0370       42.7242       42.7612      30.994356       0.34905
  10     361.9       11.7668        0.0397       41.3539       41.3936      29.626851       0.34599
   9     398.1       11.7679        0.0423       39.7953       39.8376      28.069735       0.36277
   8     437.6       11.7708        0.0448       37.9948       38.0395      26.268749       0.38506
   7     480.5       11.7764        0.0471       36.0647       36.1118      24.335403       0.37970
   6     533.0       11.7881        0.0496       33.7773       33.8268      22.038783       0.36945
   5     589.8       11.8095        0.0518       31.4082       31.4600      19.650428       0.35451
   4     651.6       11.8514        0.0535       28.8834       28.9369      17.085534       0.35076
   3     718.7       11.9279        0.0551       26.4104       26.4654      14.537557       0.32021
   2     792.3       12.0704        0.0563       24.0056       24.0619      11.991535       0.29200
   1     891.5       12.4313        0.0577       21.2348       21.2925       8.861249       0.26637
   0    1013.0       13.3885        0.0593       18.6150       18.6744       5.285862       0.24826



 Wavenumbers:  7700. -  8050. cm-1, ATM      1
 LEVEL PRESSURE   UPWARD FLUX   DIFDOWN FLUX  DIRDOWN FLUX  DOWNWARD FLUX   NET FLUX    HEATING RATE
          mb          W/m2          W/m2          W/m2        W/m2          W/m2       degree/day
  51    .06700        6.3062        0.0000       11.1810       11.1810       4.874726       0.00000
  50    .07753        6.3062        0.0000       11.1809       11.1809       4.874704       0.01754
  49    .09103        6.3062        0.0000       11.1809       11.1809       4.874677       0.01719
  48    0.1069        6.3063        0.0000       11.1809       11.1809       4.874645       0.01683
  47    0.1255        6.3063        0.0000       11.1809       11.1809       4.874609       0.01647
  46    0.1487        6.3063        0.0000       11.1808       11.1808       4.874563       0.01671
  45    0.1794        6.3063        0.0000       11.1808       11.1808       4.874500       0.01720
  44    0.2165        6.3063        0.0000       11.1807       11.1807       4.874426       0.01687
  43    0.2613        6.3063        0.0000       11.1806       11.1806       4.874338       0.01655
  42    0.3336        6.3063        0.0000       11.1805       11.1805       4.874193       0.01694
  41    0.4307        6.3064        0.0000       11.1803       11.1804       4.874000       0.01675
  40    0.5894        6.3064        0.0000       11.1801       11.1801       4.873686       0.01673
  39     1.339        6.3067        0.0001       11.1788       11.1789       4.872197       0.01676
  38     1.782        6.3068        0.0001       11.1781       11.1782       4.871322       0.01665
  37     2.292        6.3070        0.0001       11.1772       11.1773       4.870310       0.01676
  36     2.964        6.3073        0.0002       11.1761       11.1762       4.868981       0.01668
  35     3.853        6.3076        0.0002       11.1746       11.1748       4.867226       0.01666
  34     5.035        6.3080        0.0003       11.1726       11.1729       4.864894       0.01666
  33     6.613        6.3085        0.0004       11.1700       11.1703       4.861779       0.01665
  32     8.786        6.3093        0.0005       11.1664       11.1669       4.857583       0.01630
  31     11.80        6.3104        0.0007       11.1613       11.1620       4.851584       0.01679
  30     15.07        6.3115        0.0008       11.1558       11.1567       4.845149       0.01661
  29     18.79        6.3128        0.0011       11.1497       11.1507       4.837887       0.01647
  28     23.16        6.3144        0.0013       11.1425       11.1438       4.829415       0.01638
  27     28.12        6.3162        0.0016       11.1343       11.1359       4.819742       0.01644
  26     33.73        6.3181        0.0019       11.1252       11.1271       4.808939       0.01624
  25     40.54        6.3205        0.0023       11.1142       11.1165       4.795916       0.01616
  24     48.69        6.3235        0.0027       11.1010       11.1037       4.780261       0.01620
  23     57.69        6.3267        0.0032       11.0866       11.0898       4.763125       0.01606
  22     68.43        6.3305        0.0038       11.0695       11.0733       4.742796       0.01598
  21     81.20        6.3352        0.0045       11.0494       11.0539       4.718693       0.01593
  20     96.49        6.3408        0.0054       11.0255       11.0309       4.690136       0.01576
  19     114.6        6.3474        0.0064       10.9975       11.0039       4.656460       0.01572
  18     136.5        6.3555        0.0075       10.9648       10.9723       4.616858       0.01523
  17     162.9        6.3651        0.0090       10.9263       10.9352       4.570119       0.01494
  16     196.4        6.3779        0.0108       10.8773       10.8880       4.510149       0.01510
  15     218.7        6.3864        0.0120       10.8455       10.8575       4.471103       0.01482
  14     243.0        6.3958        0.0133       10.8114       10.8247       4.428903       0.01464
  13     269.0        6.4062        0.0147       10.7749       10.7895       4.383369       0.01477
  12     297.5        6.4176        0.0162       10.7357       10.7519       4.334259       0.01457
  11     328.5        6.4303        0.0178       10.6937       10.7116       4.281243       0.01441
  10     361.9        6.4444        0.0196       10.6489       10.6684       4.224070       0.01447
   9     398.1        6.4600        0.0215       10.6008       10.6222       4.162215       0.01441
   8     437.6        6.4776        0.0235       10.5491       10.5726       4.095016       0.01437
   7     480.5        6.4973        0.0257       10.4934       10.5191       4.021866       0.01437
   6     533.0        6.5229        0.0284       10.4243       10.4527       3.929726       0.01482
   5     589.8        6.5528        0.0312       10.3479       10.3791       3.826301       0.01535
   4     651.6        6.5887        0.0343       10.2613       10.2957       3.706972       0.01632
   3     718.7        6.6326        0.0376       10.1618       10.1994       3.566795       0.01762
   2     792.3        6.6881        0.0411       10.0439       10.0849       3.396888       0.01949
   1     891.5        6.7812        0.0456        9.8626        9.9082       3.127018       0.02296
   0    1013.0        6.9281        0.0509        9.6103        9.6612       2.733083       0.02735



 Wavenumbers:  8050. - 12850. cm-1, ATM      1
 LEVEL PRESSURE   UPWARD FLUX   DIFDOWN FLUX  DIRDOWN FLUX  DOWNWARD FLUX   NET FLUX    HEATING RATE
          mb          W/m2          W/m2          W/m2        W/m2          W/m2       degree/day
  51    .06700       76.8756        0.0000      156.5418      156.5418      79.666198       0.00000
  50    .07753       76.8755        0.0000      156.5417      156.5417      79.666198      -0.00000
  49    .09103       76.8755        0.0001      156.5417      156.5417      79.666198       0.00000
  48    0.1069       76.8755        0.0001      156.5416      156.5417      79.666198       0.00000
  47    0.1255       76.8755        0.0002      156.5415      156.5417      79.666198      -0.00000
  46    0.1487       76.8754        0.0002      156.5414      156.5416      79.666198       0.00000
  45    0.1794       76.8754        0.0003      156.5413      156.5416      79.666198       0.00000
  44    0.2165       76.8754        0.0004      156.5412      156.5416      79.666198      -0.00000
  43    0.2613       76.8753        0.0005      156.5410      156.5415      79.666198       0.00000
  42    0.3336       76.8752        0.0007      156.5407      156.5414      79.666198       0.00000
  41    0.4307       76.8751        0.0010      156.5403      156.5413      79.666198      -0.00000
  40    0.5894       76.8749        0.0014      156.5397      156.5411      79.666198       0.00000
  39     1.339       76.8739        0.0034      156.5367      156.5401      79.666198      -0.00000
  38     1.782       76.8734        0.0046      156.5350      156.5396      79.666198      -0.00000
  37     2.292       76.8727        0.0060      156.5330      156.5389      79.666198       0.00000
  36     2.964       76.8719        0.0078      156.5303      156.5381      79.666198       0.00000
  35     3.853       76.8708        0.0101      156.5268      156.5370      79.666198       0.00000
  34     5.035       76.8693        0.0133      156.5222      156.5355      79.666198      -0.00000
  33     6.613       76.8673        0.0175      156.5160      156.5335      79.666198       0.00000
  32     8.786       76.8646        0.0232      156.5076      156.5308      79.666198       0.00000
  31     11.80       76.8608        0.0314      156.4957      156.5270      79.666198       0.00000
  30     15.07       76.8567        0.0401      156.4828      156.5229      79.666198       0.00000
  29     18.79       76.8520        0.0500      156.4682      156.5182      79.666198      -0.00000
  28     23.16       76.8466        0.0616      156.4512      156.5128      79.666198      -0.00000
  27     28.12       76.8404        0.0749      156.4317      156.5066      79.666198       0.00000
  26     33.73       76.8334        0.0897      156.4099      156.4996      79.666198      -0.00000
  25     40.54       76.8249        0.1077      156.3834      156.4911      79.666198       0.00000
  24     48.69       76.8147        0.1294      156.3515      156.4809      79.666198      -0.00000
  23     57.69       76.8035        0.1533      156.3164      156.4697      79.666198       0.00000
  22     68.43       76.7901        0.1817      156.2746      156.4563      79.666198       0.00000
  21     81.20       76.7741        0.2157      156.2246      156.4403      79.666198      -0.00000
  20     96.49       76.7550        0.2563      156.1649      156.4212      79.666198       0.00000
  19     114.6       76.7325        0.3045      156.0879      156.3925      79.660019       0.00289
  18     136.5       76.7056        0.3618      155.9962      156.3580      79.652351       0.00295
  17     162.9       76.6737        0.4302      155.8831      156.3133      79.639614       0.00407
  16     196.4       76.6321        0.5191      155.7199      156.2391      79.606922       0.00823
  15     218.7       76.6050        0.5776      155.5733      156.1509      79.545926       0.02316
  14     243.0       76.5758        0.6411      155.3367      155.9778      79.402017       0.04991
  13     269.0       76.5451        0.7098      154.9514      155.6612      79.116169       0.09273
  12     297.5       76.5137        0.7837      154.3896      155.1734      78.659647       0.13540
  11     328.5       76.4822        0.8634      153.7151      154.5785      78.096339       0.15316
  10     361.9       76.4517        0.9489      152.9087      153.8577      77.405954       0.17467
   9     398.1       76.4242        1.0403      151.8986      152.9389      76.514685       0.20765
   8     437.6       76.4032        1.1374      150.6031      151.7405      75.337346       0.25172
   7     480.5       76.3928        1.2400      149.0014      150.2414      73.848550       0.29239
   6     533.0       76.4029        1.3639      146.7375      148.1015      71.698564       0.34586
   5     589.8       76.4555        1.4935      143.8730      145.3665      68.911017       0.41376
   4     651.6       76.5991        1.6262      140.0955      141.7217      65.122572       0.51808
   3     718.7       76.8964        1.7606      135.5278      137.2884      60.391954       0.59451
   2     792.3       77.4850        1.8935      130.0690      131.9625      54.477482       0.67832
   1     891.5       78.9980        2.0537      122.1273      124.1810      45.183003       0.79092
   0    1013.0       82.7189        2.2252      112.9512      115.1764      32.457467       0.88360



 Wavenumbers: 12850. - 16000. cm-1, ATM      1
 LEVEL PRESSURE   UPWARD FLUX   DIFDOWN FLUX  DIRDOWN FLUX  DOWNWARD FLUX   NET FLUX    HEATING RATE
          mb          W/m2          W/m2          W/m2        W/m2          W/m2       degree/day
  51    .06700       71.5751        0.0000       98.0872       98.0872      26.512150       0.00000
  50    .07753       71.5751        0.0001       98.0864       98.0864      26.511360       0.63309
  49    .09103       71.5751        0.0002       98.0853       98.0854      26.510369       0.61982
  48    0.1069       71.5751        0.0003       98.0841       98.0843      26.509230       0.60627
  47    0.1255       71.5751        0.0004       98.0826       98.0830      26.507922       0.59299
  46    0.1487       71.5751        0.0005       98.0809       98.0814      26.506272       0.60140
  45    0.1794       71.5751        0.0007       98.0784       98.0791      26.504029       0.61580
  44    0.2165       71.5752        0.0009       98.0756       98.0766      26.501392       0.59985
  43    0.2613       71.5753        0.0012       98.0723       98.0735      26.498293       0.58407
  42    0.3336       71.5754        0.0017       98.0670       98.0687      26.493241       0.58906
  41    0.4307       71.5757        0.0023       98.0602       98.0625      26.486714       0.56744
  40    0.5894       71.5764        0.0032       98.0496       98.0528      26.476448       0.54595
  39     1.339       71.5820        0.0079       98.0043       98.0122      26.430220       0.52045
  38     1.782       71.5872        0.0106       97.9793       97.9899      26.402657       0.52476
  37     2.292       71.5951        0.0138       97.9498       97.9635      26.368457       0.56643
  36     2.964       71.6081        0.0179       97.9088       97.9267      26.318582       0.62608
  35     3.853       71.6293        0.0234       97.8503       97.8737      26.244458       0.70345
  34     5.035       71.6611        0.0306       97.7680       97.7986      26.137512       0.76398
  33     6.613       71.7056        0.0403       97.6562       97.6965      25.990904       0.78376
  32     8.786       71.7635        0.0534       97.5107       97.5640      25.800524       0.73937
  31     11.80       71.8388        0.0720       97.3179       97.3899      25.551051       0.69844
  30     15.07       71.9109        0.0920       97.1283       97.2203      25.309461       0.62374
  29     18.79       71.9844        0.1146       96.9300       97.0446      25.060235       0.56507
  28     23.16       72.0611        0.1409       96.7166       96.8575      24.796406       0.51016
  27     28.12       72.1381        0.1710       96.4935       96.6645      24.526351       0.45908
  26     33.73       72.2091        0.2047       96.2731       96.4778      24.268623       0.38750
  25     40.54       72.2773        0.2454       96.0408       96.2861      24.008852       0.32227
  24     48.69       72.3423        0.2944       95.7946       96.0890      23.746703       0.27128
  23     57.69       72.3970        0.3483       95.5573       95.9056      23.508531       0.22325
  22     68.43       72.4442        0.4125       95.3106       95.7231      23.278879       0.18054
  21     81.20       72.4757        0.4891       95.0643       95.5534      23.077676       0.13295
  20     96.49       72.4904        0.5804       94.8153       95.3957      22.905263       0.09516
  19     114.6       72.5092        0.6900       94.5411       95.2311      22.721889       0.08562
  18     136.5       72.5209        0.8199       94.2320       95.0519      22.531030       0.07339
  17     162.9       72.5252        0.9745       93.8753       94.8499      22.324661       0.06596
  16     196.4       72.5103        1.1751       93.4347       94.6097      22.099415       0.05670
  15     218.7       72.4932        1.3067       93.1513       94.4580      21.964864       0.05108
  14     243.0       72.4713        1.4498       92.8439       94.2938      21.822494       0.04938
  13     269.0       72.4446        1.6049       92.5111       94.1160      21.671460       0.04899
  12     297.5       72.4133        1.7724       92.1495       93.9219      21.508596       0.04830
  11     328.5       72.3792        1.9534       91.7554       93.7088      21.329584       0.04867
  10     361.9       72.3430        2.1483       91.3262       93.4745      21.131506       0.05012
   9     398.1       72.3056        2.3579       90.8575       93.2155      20.909889       0.05163
   8     437.6       72.2693        2.5829       90.3418       92.9247      20.655456       0.05440
   7     480.5       72.2362        2.8239       89.7728       92.5967      20.360480       0.05793
   6     533.0       72.2073        3.1201       89.0428       92.1630      19.955656       0.06512
   5     589.8       72.1987        3.4385       88.2038       91.6423      19.443666       0.07600
   4     651.6       72.2360        3.7787       87.1979       90.9766      18.740600       0.09615
   3     718.7       72.3362        4.1390       86.0161       90.1552      17.818945       0.11583
   2     792.3       72.5539        4.5158       84.5970       89.1128      16.558933       0.14451
   1     891.5       73.1094        5.0058       82.4374       87.4433      14.333849       0.18934
   0    1013.0       74.3003        5.5679       79.6182       85.1861      10.885772       0.23942



 Wavenumbers: 16000. - 22650. cm-1, ATM      1
 LEVEL PRESSURE   UPWARD FLUX   DIFDOWN FLUX  DIRDOWN FLUX  DOWNWARD FLUX   NET FLUX    HEATING RATE
          mb          W/m2          W/m2          W/m2        W/m2          W/m2       degree/day
  51    .06700      140.1939        0.0000      156.3892      156.3892      16.195382       0.00000
  50    .07753      140.1938        0.0004      156.3887      156.3891      16.195235       0.11788
  49    .09103      140.1938        0.0009      156.3879      156.3888      16.195021       0.13370
  48    0.1069      140.1938        0.0015      156.3871      156.3885      16.194735       0.15247
  47    0.1255      140.1938        0.0021      156.3861      156.3882      16.194351       0.17379
  46    0.1487      140.1939        0.0029      156.3847      156.3877      16.193786       0.20594
  45    0.1794      140.1940        0.0041      156.3828      156.3869      16.192903       0.24248
  44    0.2165      140.1942        0.0054      156.3805      156.3859      16.191705       0.27252
  43    0.2613      140.1946        0.0070      156.3776      156.3846      16.190080       0.30638
  42    0.3336      140.1953        0.0096      156.3726      156.3823      16.186989       0.36030
  41    0.4307      140.1965        0.0131      156.3657      156.3788      16.182331       0.40501
  40    0.5894      140.1991        0.0188      156.3537      156.3725      16.173448       0.47243
  39     1.339      140.2214        0.0458      156.2834      156.3292      16.107813       0.73892
  38     1.782      140.2420        0.0616      156.2324      156.2939      16.051901       1.06448
  37     2.292      140.2730        0.0799      156.1641      156.2440      15.970967       1.34047
  36     2.964      140.3245        0.1039      156.0605      156.1644      15.839854       1.64586
  35     3.853      140.4079        0.1356      155.9041      156.0397      15.631810       1.97437
  34     5.035      140.5336        0.1777      155.6774      155.8551      15.321428       2.21724
  33     6.613      140.7094        0.2339      155.3656      155.5995      14.890092       2.30592
  32     8.786      140.9383        0.3095      154.9577      155.2671      14.328835       2.17972
  31     11.80      141.2362        0.4175      154.4153      154.8327      13.596553       2.05016
  30     15.07      141.5215        0.5332      153.8804      154.4136      12.892137       1.81866
  29     18.79      141.8127        0.6638      153.3191      153.9829      12.170193       1.63687
  28     23.16      142.1170        0.8161      152.7126      153.5286      11.411633       1.46681
  27     28.12      142.4231        0.9900      152.0755      153.0655      10.642347       1.30774
  26     33.73      142.7055        1.1844      151.4409      152.6253       9.919774       1.08641
  25     40.54      142.9771        1.4190      150.7637      152.1827       9.205629       0.88598
  24     48.69      143.2368        1.7016      150.0338      151.7355       8.498634       0.73163
  23     57.69      143.4567        2.0117      149.3151      151.3268       7.870061       0.58919
  22     68.43      143.6481        2.3805      148.5476      150.9281       7.280011       0.46386
  21     81.20      143.7795        2.8197      147.7517      150.5714       6.791914       0.32253
  20     96.49      143.8462        3.3425      146.9127      150.2551       6.408890       0.21140
  19     114.6      143.8796        3.9614      145.9763      149.9377       6.058119       0.16379
  18     136.5      143.8879        4.6922      144.9088      149.6010       5.713059       0.13268
  17     162.9      143.8695        5.5584      143.6785      149.2369       5.367418       0.11048
  16     196.4      143.7844        6.6759      142.1651      148.8410       5.056557       0.07825
  15     218.7      143.7062        7.4062      141.2033      148.6096       4.903418       0.05814
  14     243.0      143.6108        8.1967      140.1753      148.3720       4.761194       0.04933
  13     269.0      143.4968        9.0494      139.0797      148.1291       4.632302       0.04181
  12     297.5      143.3634        9.9664      137.9141      147.8805       4.517131       0.03416
  11     328.5      143.2146       10.9521      136.6676      147.6197       4.405083       0.03047
  10     361.9      143.0502       12.0073      135.3392      147.3465       4.296305       0.02752
   9     398.1      142.8696       13.1360      133.9235      147.0595       4.189925       0.02478
   8     437.6      142.6737       14.3403      132.4163      146.7566       4.082834       0.02290
   7     480.5      142.4623       15.6223      130.8147      146.4370       3.974764       0.02122
   6     533.0      142.2019       17.1881      128.8599      146.0480       3.846116       0.02070
   5     589.8      141.9251       18.8611      126.7679      145.6290       3.703920       0.02111
   4     651.6      141.6378       20.6427      124.5274      145.1702       3.532387       0.02346
   3     718.7      141.3460       22.5349      122.1285      144.6634       3.317349       0.02702
   2     792.3      141.0661       24.5355      119.5548      144.0903       3.024152       0.03363
   1     891.5      140.7670       27.1909      116.0566      143.2475       2.480579       0.04626
   0    1013.0      140.5364       30.3111      111.8404      142.1516       1.615196       0.06009



 Wavenumbers: 22650. - 29000. cm-1, ATM      1
 LEVEL PRESSURE   UPWARD FLUX   DIFDOWN FLUX  DIRDOWN FLUX  DOWNWARD FLUX   NET FLUX    HEATING RATE
          mb          W/m2          W/m2          W/m2        W/m2          W/m2       degree/day
  51    .06700       58.3795        0.0000       59.0156       59.0156       0.636069       0.00000
  50    .07753       58.3795        0.0005       59.0151       59.0155       0.636069      -0.00000
  49    .09103       58.3793        0.0010       59.0144       59.0154       0.636069       0.00000
  48    0.1069       58.3792        0.0017       59.0136       59.0153       0.636069      -0.00000
  47    0.1255       58.3791        0.0025       59.0127       59.0151       0.636069       0.00000
  46    0.1487       58.3789        0.0034       59.0115       59.0149       0.636069       0.00000
  45    0.1794       58.3786        0.0048       59.0099       59.0147       0.636069      -0.00000
  44    0.2165       58.3783        0.0063       59.0080       59.0144       0.636069       0.00000
  43    0.2613       58.3779        0.0082       59.0058       59.0140       0.636069       0.00000
  42    0.3336       58.3773        0.0113       59.0022       59.0134       0.636069      -0.00000
  41    0.4307       58.3766        0.0153       58.9973       59.0126       0.636069       0.00000
  40    0.5894       58.3753        0.0220       58.9894       59.0113       0.636069       0.00000
  39     1.339       58.3691        0.0534       58.9518       59.0052       0.636069      -0.00000
  38     1.782       58.3655        0.0719       58.9297       59.0016       0.636069       0.00000
  37     2.292       58.3614        0.0933       58.9042       58.9974       0.636069       0.00000
  36     2.964       58.3559        0.1213       58.8706       58.9920       0.636069       0.00000
  35     3.853       58.3487        0.1584       58.8264       58.9847       0.636069      -0.00000
  34     5.035       58.3391        0.2076       58.7676       58.9751       0.636069       0.00000
  33     6.613       58.3263        0.2732       58.6891       58.9623       0.636069      -0.00000
  32     8.786       58.3090        0.3617       58.5834       58.9451       0.636069      -0.00000
  31     11.80       58.2844        0.4880       58.4324       58.9204       0.636069       0.00000
  30     15.07       58.2580        0.6234       58.2706       58.8940       0.636069       0.00000
  29     18.79       58.2282        0.7760       58.0882       58.8643       0.636069       0.00000
  28     23.16       58.1935        0.9539       57.8757       58.8296       0.636069       0.00000
  27     28.12       58.1539        1.1567       57.6333       58.7900       0.636069      -0.00000
  26     33.73       58.1098        1.3828       57.3631       58.7459       0.636069       0.00000
  25     40.54       58.0567        1.6549       57.0379       58.6928       0.636069       0.00000
  24     48.69       57.9930        1.9812       56.6479       58.6291       0.636069       0.00000
  23     57.69       57.9234        2.3374       56.2221       58.5595       0.636069      -0.00000
  22     68.43       57.8412        2.7587       55.7186       58.4772       0.636069       0.00000
  21     81.20       57.7440        3.2561       55.1239       58.3801       0.636069      -0.00000
  20     96.49       57.6294        3.8426       54.4228       58.2654       0.636069       0.00000
  19     114.6       57.4950        4.5300       53.6010       58.1310       0.636069      -0.00000
  18     136.5       57.3380        5.3323       52.6418       57.9741       0.636069       0.00000
  17     162.9       57.1544        6.2702       51.5203       57.7905       0.636069       0.00000
  16     196.4       56.9217        7.4583       50.0994       57.5577       0.636069      -0.00000
  15     218.7       56.7720        8.2218       49.1863       57.4080       0.636069       0.00000
  14     243.0       56.6120        9.0368       48.2113       57.2481       0.636069      -0.00000
  13     269.0       56.4419        9.9031       47.1749       57.0780       0.636069       0.00000
  12     297.5       56.2618       10.8196       46.0783       56.8979       0.636069      -0.00000
  11     328.5       56.0714       11.7879       44.9195       56.7074       0.636069       0.00000
  10     361.9       55.8710       12.8053       43.7018       56.5071       0.636069       0.00000
   9     398.1       55.6608       13.8718       42.4250       56.2969       0.636069       0.00000
   8     437.6       55.4410       14.9854       41.0916       56.0770       0.636069      -0.00000
   7     480.5       55.2120       16.1436       39.7045       55.8481       0.636069      -0.00000
   6     533.0       54.9393       17.5211       38.0543       55.5754       0.636069       0.00000
   5     589.8       54.6560       18.9490       36.3431       55.2921       0.636069      -0.00000
   4     651.6       54.3635       20.4200       34.5795       54.9995       0.636069       0.00000
   3     718.7       54.0626       21.9285       32.7702       54.6987       0.636069       0.00000
   2     792.3       53.7552       23.4657       30.9256       54.3913       0.636069       0.00000
   1     891.5       53.3626       25.4209       28.5778       53.9987       0.636069      -0.00000
   0    1013.0       52.9239       27.5935       25.9665       53.5600       0.636069       0.00000



 Wavenumbers: 29000. - 38000. cm-1, ATM      1
 LEVEL PRESSURE   UPWARD FLUX   DIFDOWN FLUX  DIRDOWN FLUX  DOWNWARD FLUX   NET FLUX    HEATING RATE
          mb          W/m2          W/m2          W/m2        W/m2          W/m2       degree/day
  51    .06700        8.7364        0.0000       20.8114       20.8114      12.074990       0.00000
  50    .07753        8.7362        0.0003       20.8070       20.8074      12.071183       3.05152
  49    .09103        8.7360        0.0007       20.8009       20.8016      12.065646       3.46081
  48    0.1069        8.7357        0.0012       20.7928       20.7939      12.058236       3.94425
  47    0.1255        8.7354        0.0017       20.7820       20.7837      12.048331       4.49029
  46    0.1487        8.7351        0.0024       20.7665       20.7688      12.033768       5.30838
  45    0.1794        8.7346        0.0033       20.7424       20.7457      12.011104       6.22197
  44    0.2165        8.7341        0.0044       20.7103       20.7147      11.980581       6.94332
  43    0.2613        8.7335        0.0056       20.6675       20.6731      11.939587       7.72723
  42    0.3336        8.7326        0.0077       20.5880       20.5956      11.863027       8.92613
  41    0.4307        8.7315        0.0104       20.4722       20.4826      11.751076       9.73389
  40    0.5894        8.7300        0.0147       20.2637       20.2784      11.548395      10.77831
  39     1.339        8.7265        0.0331       19.0984       19.1315      10.404941      12.87322
  38     1.782        8.7270        0.0427       18.4394       18.4820       9.755035      12.37315
  37     2.292        8.7296        0.0530       17.7714       17.8244       9.094717      10.93659
  36     2.964        8.7361        0.0656       17.0421       17.1078       8.371636       9.07685
  35     3.853        8.7489        0.0816       16.2678       16.3494       7.600524       7.31799
  34     5.035        8.7699        0.1017       15.4803       15.5820       6.812129       5.63197
  33     6.613        8.8005        0.1275       14.7157       14.8432       6.042684       4.11345
  32     8.786        8.8409        0.1612       13.9936       14.1548       5.313916       2.83027
  31     11.80        8.8936        0.2082       13.2835       13.4918       4.598191       2.00380
  30     15.07        8.9444        0.2570       12.7394       12.9963       4.051950       1.41029
  29     18.79        8.9969        0.3110       12.2666       12.5776       3.580746       1.06836
  28     23.16        9.0526        0.3725       11.8300       12.2025       3.149868       0.83318
  27     28.12        9.1097        0.4413       11.4279       11.8692       2.759446       0.66369
  26     33.73        9.1624        0.5172       11.0695       11.5866       2.424202       0.50405
  25     40.54        9.2124        0.6078       10.7209       11.3287       2.116300       0.38199
  24     48.69        9.2595        0.7153       10.3742       11.0895       1.830016       0.29626
  23     57.69        9.2981        0.8317       10.0549       10.8866       1.588506       0.22638
  22     68.43        9.3292        0.9682        9.7327       10.7009       1.371710       0.17043
  21     81.20        9.3440        1.1294        9.4134       10.5428       1.198850       0.11422
  20     96.49        9.3403        1.3189        9.0887       10.4076       1.067273       0.07262
  19     114.6        9.3264        1.5378        8.7388       10.2766       0.950161       0.05468
  18     136.5        9.3052        1.7881        8.3549       10.1430       0.837799       0.04321
  17     162.9        9.2767        2.0733        7.9311       10.0045       0.727793       0.03516
  16     196.4        9.2290        2.4267        7.4333        9.8600       0.630978       0.02437
  15     218.7        9.1947        2.6489        7.1295        9.7784       0.583763       0.01793
  14     243.0        9.1571        2.8812        6.8161        9.6973       0.540168       0.01512
  13     269.0        9.1160        3.1227        6.4943        9.6170       0.501027       0.01270
  12     297.5        9.0716        3.3723        6.1657        9.5381       0.466525       0.01023
  11     328.5        9.0251        3.6292        5.8295        9.4586       0.433496       0.00898
  10     361.9        8.9772        3.8906        5.4886        9.3792       0.402086       0.00795
   9     398.1        8.9278        4.1562        5.1440        9.3001       0.372323       0.00693
   8     437.6        8.8776        4.4243        4.7969        9.2212       0.343635       0.00613
   7     480.5        8.8268        4.6929        4.4504        9.1432       0.316407       0.00535
   6     533.0        8.7686        4.9990        4.0563        9.0553       0.286729       0.00477
   5     589.8        8.7111        5.3009        3.6682        8.9691       0.257998       0.00426
   4     651.6        8.6552        5.5946        3.2905        8.8851       0.229894       0.00384
   3     718.7        8.6015        5.8787        2.9252        8.8039       0.202373       0.00346
   2     792.3        8.5508        6.1498        2.5764        8.7262       0.175440       0.00309
   1     891.5        8.4923        6.4685        2.1659        8.6344       0.142195       0.00283
   0    1013.0        8.4358        6.7887        1.7526        8.5412       0.105494       0.00255



 Wavenumbers: 38000. - 50000. cm-1, ATM      1
 LEVEL PRESSURE   UPWARD FLUX   DIFDOWN FLUX  DIRDOWN FLUX  DOWNWARD FLUX   NET FLUX    HEATING RATE
          mb          W/m2          W/m2          W/m2        W/m2          W/m2       degree/day
  51    .06700        0.0061        0.0000        1.2836        1.2836       1.277518       0.00000
  50    .07753        0.0061        0.0001        1.2812        1.2812       1.275183       1.87150
  49    .09103        0.0060        0.0002        1.2777        1.2778       1.271851       2.08247
  48    0.1069        0.0059        0.0002        1.2731        1.2734       1.267473       2.33059
  47    0.1255        0.0058        0.0004        1.2672        1.2675       1.261717       2.60908
  46    0.1487        0.0057        0.0005        1.2586        1.2591       1.253391       3.03499
  45    0.1794        0.0055        0.0007        1.2455        1.2462       1.240623       3.50520
  44    0.2165        0.0054        0.0009        1.2282        1.2291       1.223697       3.85037
  43    0.2613        0.0052        0.0011        1.2054        1.2065       1.201348       4.21261
  42    0.3336        0.0049        0.0015        1.1639        1.1654       1.160524       4.75970
  41    0.4307        0.0045        0.0020        1.1051        1.1070       1.102565       5.03943
  40    0.5894        0.0039        0.0026        1.0039        1.0064       1.002524       5.32007
  39     1.339        0.0022        0.0035        0.5438        0.5473       0.545104       5.14971
  38     1.782        0.0016        0.0032        0.3635        0.3666       0.365006       3.42879
  37     2.292        0.0012        0.0027        0.2356        0.2383       0.237058       2.11916
  36     2.964        0.0009        0.0022        0.1455        0.1477       0.146786       1.13318
  35     3.853        0.0006        0.0017        0.0858        0.0875       0.086906       0.56828
  34     5.035        0.0004        0.0013        0.0488        0.0501       0.049701       0.26578
  33     6.613        0.0003        0.0010        0.0273        0.0282       0.027974       0.11615
  32     8.786        0.0002        0.0007        0.0144        0.0151       0.014928       0.05067
  31     11.80        0.0001        0.0004        0.0065        0.0070       0.006903       0.02247
  30     15.07        0.0000        0.0003        0.0031        0.0034       0.003329       0.00923
  29     18.79        0.0000        0.0002        0.0014        0.0016       0.001583       0.00396
  28     23.16        0.0000        0.0001        0.0006        0.0007       0.000720       0.00167
  27     28.12        0.0000        0.0001        0.0003        0.0003       0.000317       0.00069
  26     33.73        0.0000        0.0000        0.0001        0.0001       0.000140       0.00027
  25     40.54        0.0000        0.0000        0.0000        0.0001       0.000057       0.00010
  24     48.69        0.0000        0.0000        0.0000        0.0000       0.000021       0.00004
  23     57.69        0.0000        0.0000        0.0000        0.0000       0.000008       0.00001
  22     68.43        0.0000        0.0000        0.0000        0.0000       0.000003       0.00000
  21     81.20        0.0000        0.0000        0.0000        0.0000       0.000001       0.00000
  20     96.49        0.0000        0.0000        0.0000        0.0000       0.000000       0.00000
  19     114.6        0.0000        0.0000        0.0000        0.0000       0.000000       0.00000
  18     136.5        0.0000        0.0000        0.0000        0.0000       0.000000       0.00000
  17     162.9        0.0000        0.0000        0.0000        0.0000       0.000000       0.00000
  16     196.4        0.0000        0.0000        0.0000        0.0000       0.000000       0.00000
  15     218.7        0.0000        0.0000        0.0000        0.0000       0.000000       0.00000
  14     243.0        0.0000        0.0000        0.0000        0.0000       0.000000       0.00000
  13     269.0        0.0000        0.0000        0.0000        0.0000       0.000000       0.00000
  12     297.5        0.0000        0.0000        0.0000        0.0000       0.000000       0.00000
  11     328.5        0.0000        0.0000        0.0000        0.0000       0.000000       0.00000
  10     361.9        0.0000        0.0000        0.0000        0.0000       0.000000       0.00000
   9     398.1        0.0000        0.0000        0.0000        0.0000       0.000000       0.00000
   8     437.6        0.0000        0.0000        0.0000        0.0000       0.000000       0.00000
   7     480.5        0.0000        0.0000        0.0000        0.0000       0.000000       0.00000
   6     533.0        0.0000        0.0000        0.0000        0.0000       0.000000       0.00000
   5     589.8        0.0000        0.0000        0.0000        0.0000       0.000000       0.00000
   4     651.6        0.0000        0.0000        0.0000        0.0000       0.000000       0.00000
   3     718.7        0.0000        0.0000        0.0000        0.0000       0.000000       0.00000
   2     792.3        0.0000        0.0000        0.0000        0.0000       0.000000       0.00000
   1     891.5        0.0000        0.0000        0.0000        0.0000       0.000000       0.00000
   0    1013.0        0.0000        0.0000        0.0000        0.0000       0.000000       0.00000



 Wavenumbers:   820. -  2600. cm-1, ATM      1
 LEVEL PRESSURE   UPWARD FLUX   DIFDOWN FLUX  DIRDOWN FLUX  DOWNWARD FLUX   NET FLUX    HEATING RATE
          mb          W/m2          W/m2          W/m2        W/m2          W/m2       degree/day
  51    .06700        0.7661        0.0000        6.0047        6.0047       5.238584       0.00000
  50    .07753        0.7661        0.0000        6.0008        6.0008       5.234731       3.08820
  49    .09103        0.7661        0.0000        5.9999        5.9999       5.233845       0.55357
  48    0.1069        0.7661        0.0000        5.9989        5.9989       5.232856       0.52651
  47    0.1255        0.7661        0.0000        5.9978        5.9978       5.231739       0.50649
  46    0.1487        0.7661        0.0000        5.9964        5.9964       5.230382       0.49456
  45    0.1794        0.7661        0.0000        5.9947        5.9947       5.228663       0.47199
  44    0.2165        0.7661        0.0000        5.9929        5.9929       5.226821       0.41909
  43    0.2613        0.7661        0.0000        5.9909        5.9909       5.224861       0.36932
  42    0.3336        0.7661        0.0000        5.9880        5.9880       5.221983       0.33555
  41    0.4307        0.7661        0.0000        5.9846        5.9846       5.218514       0.30164
  40    0.5894        0.7661        0.0000        5.9791        5.9791       5.213009       0.29275
  39     1.339        0.7661        0.0000        5.9536        5.9536       5.187523       0.28693
  38     1.782        0.7661        0.0000        5.9395        5.9395       5.173385       0.26916
  37     2.292        0.7661        0.0000        5.9237        5.9237       5.157634       0.26087
  36     2.964        0.7661        0.0000        5.9039        5.9039       5.137860       0.24822
  35     3.853        0.7661        0.0000        5.8793        5.8793       5.113205       0.23398
  34     5.035        0.7661        0.0000        5.8487        5.8487       5.082643       0.21832
  33     6.613        0.7661        0.0000        5.8108        5.8108       5.044679       0.20295
  32     8.786        0.7661        0.0000        5.7631        5.7631       4.997056       0.18495
  31     11.80        0.7661        0.0000        5.7039        5.7039       4.937801       0.16590
  30     15.07        0.7661        0.0000        5.6539        5.6539       4.887762       0.12919
  29     18.79        0.7661        0.0000        5.6127        5.6127       4.846627       0.09327
  28     23.16        0.7661        0.0000        5.5794        5.5794       4.813250       0.06454
  27     28.12        0.7661        0.0000        5.5518        5.5518       4.785681       0.04687
  26     33.73        0.7661        0.0000        5.5268        5.5268       4.760624       0.03767
  25     40.54        0.7662        0.0000        5.4993        5.4993       4.733173       0.03406
  24     48.69        0.7662        0.0000        5.4678        5.4678       4.701622       0.03265
  23     57.69        0.7662        0.0000        5.4340        5.4340       4.667821       0.03168
  22     68.43        0.7662        0.0000        5.3947        5.3948       4.628531       0.03089
  21     81.20        0.7663        0.0000        5.3497        5.3497       4.583476       0.02977
  20     96.49        0.7663        0.0000        5.2982        5.2982       4.531935       0.02845
  19     114.6        0.7663        0.0000        5.2389        5.2389       4.472579       0.02772
  18     136.5        0.7664        0.0000        5.1716        5.1717       4.405279       0.02588
  17     162.9        0.7665        0.0000        5.0890        5.0890       4.322584       0.02643
  16     196.4        0.7666        0.0000        4.9668        4.9668       4.200234       0.03080
  15     218.7        0.7667        0.0000        4.8585        4.8585       4.091738       0.04119
  14     243.0        0.7670        0.0000        4.7078        4.7079       3.940902       0.05231
  13     269.0        0.7673        0.0000        4.5343        4.5343       3.766985       0.05642
  12     297.5        0.7679        0.0000        4.3419        4.3420       3.574114       0.05720
  11     328.5        0.7686        0.0000        4.1281        4.1281       3.359534       0.05834
  10     361.9        0.7696        0.0000        3.8786        3.8787       3.109041       0.06338
   9     398.1        0.7710        0.0000        3.6159        3.6159       2.844959       0.06153
   8     437.6        0.7728        0.0000        3.3759        3.3759       2.603115       0.05171
   7     480.5        0.7750        0.0000        3.1957        3.1958       2.420792       0.03581
   6     533.0        0.7784        0.0000        3.0467        3.0467       2.268261       0.02454
   5     589.8        0.7836        0.0000        2.9023        2.9023       2.118676       0.02220
   4     651.6        0.7931        0.0000        2.7183        2.7184       1.925313       0.02644
   3     718.7        0.8094        0.0000        2.5058        2.5059       1.696470       0.02876
   2     792.3        0.8395        0.0000        2.2756        2.2757       1.436224       0.02985
   1     891.5        0.9160        0.0000        1.9621        1.9622       1.046175       0.03319
   0    1013.0        1.1087        0.0000        1.5468        1.5469       0.438228       0.04221

  Modules and versions used in this calculation:

       rrtmg_sw.1col.f90:  $Revision$                    rrtmg_sw_init.f90:  $Revision$        
     rrtmgsw_cldprop.f90:  $Revision$                  rrtmgsw_cldprmc.f90:  NOT USED          
     rrtmg_sw_reftra.f90:  $Revision$                  rrtmg_sw_spcvrt.f90:  NOT USED          
     rrtmg_sw_spcvmc.f90:  NOT USED                    rrtmgsw_setcoef.f90:  NOT USED          
     rrtmg_sw_taumol.f90:  $Revision$                  rrtmg_sw_vrtqdr.f90:  NOT USED          
                rrtatm.f:  NOT USED                             util_xxx.f:  NOT USED          
                 extra.f:  NOT USED                       rrtmg_sw_k_g.f90:  $Revision$        

