

 Wavenumbers:   820. - 50000. cm-1, ATM      1
 LEVEL PRESSURE   UPWARD FLUX   DIFDOWN FLUX  DIRDOWN FLUX  DOWNWARD FLUX   NET FLUX    HEATING RATE
          mb          W/m2          W/m2          W/m2        W/m2          W/m2       degree/day
  51    .06700      366.9710        0.0000      617.8126      617.8126     250.841561       0.00000
  50    .07753      366.9706        0.0013      617.7947      617.7961     250.825425      12.93327
  49    .09103      366.9702        0.0030      617.7778      617.7808     250.810621       9.25309
  48    0.1069      366.9697        0.0050      617.7581      617.7630     250.793366       9.18478
  47    0.1255      366.9691        0.0072      617.7340      617.7412     250.772030       9.67287
  46    0.1487      366.9685        0.0100      617.7009      617.7109     250.742356      10.81654
  45    0.1794      366.9678        0.0138      617.6521      617.6659     250.698142      12.13776
  44    0.2165      366.9670        0.0184      617.5895      617.6079     250.640843      13.03459
  43    0.2613      366.9662        0.0237      617.5089      617.5326     250.566358      14.03997
  42    0.3336      366.9653        0.0325      617.3641      617.3966     250.431325      15.74355
  41    0.4307      366.9644        0.0441      617.1591      617.2032     250.238777      16.74162
  40    0.5894      366.9640        0.0628      616.8005      616.8633     249.899224      18.05700
  39     1.339      366.9800        0.1473      614.9443      615.0915     248.111548      20.12598
  38     1.782      367.0018        0.1948      613.9670      614.1618     247.160047      18.11504
  37     2.292      367.0383        0.2489      613.0059      613.2548     246.216508      15.62747
  36     2.964      367.1031        0.3192      611.9577      612.2769     245.173738      13.08992
  35     3.853      367.2124        0.4114      610.8024      611.2138     244.001395      11.12575
  34     5.035      367.3808        0.5330      609.5327      610.0657     242.684968       9.40401
  33     6.613      367.6181        0.6945      608.1464      608.8409     241.222844       7.81652
  32     8.786      367.9271        0.9111      606.6250      607.5361     239.609014       6.26753
  31     11.80      368.3269        1.2195      604.8486      606.0681     237.741243       5.22917
  30     15.07      368.7068        1.5485      603.2440      604.7925     236.085667       4.27438
  29     18.79      369.0920        1.9187      601.6511      603.5699     234.477917       3.64526
  28     23.16      369.4911        2.3489      599.9927      602.3416     232.850510       3.14688
  27     28.12      369.8882        2.8386      598.2881      601.1266     231.238442       2.74041
  26     33.73      370.2456        3.3844      596.5951      599.9795     229.733885       2.26214
  25     40.54      370.5761        4.0415      594.7727      598.8142     228.238089       1.85570
  24     48.69      370.8765        4.8300      592.7865      597.6165     226.740029       1.55026
  23     57.69      371.1111        5.6919      590.7959      596.4878     225.376651       1.27796
  22     68.43      371.2873        6.7129      588.6191      595.3320     224.044768       1.04704
  21     81.20      371.3534        7.9234      586.2690      594.1924     222.838966       0.79678
  20     96.49      371.2990        9.3566      583.6961      593.0527     221.753652       0.59902
  19     114.6      371.1826       11.0426      580.7708      591.8134     220.630840       0.52427
  18     136.5      371.0001       13.0167      577.4359      590.4526     219.452499       0.45310
  17     162.9      370.7446       15.3333      573.5624      588.8957     218.151087       0.41598
  16     196.4      370.3254       18.2871      568.5907      586.8778     216.552399       0.40241
  15     218.7      370.0204       20.1967      565.0572      585.2539     215.233503       0.50074
  14     243.0      369.6784       22.2448      560.7495      582.9943     213.315960       0.66507
  13     269.0      369.2978       24.4326      555.3947      579.8273     210.529476       0.90392
  12     297.5      368.8800       26.7608      548.9964      575.7572     206.877274       1.08320
  11     328.5      368.4321       29.2359      542.0895      571.3254     202.893337       1.08322
  10     361.9      367.9570       31.8538      534.6242      566.4781     198.521113       1.10622
   9     398.1      367.4574       34.6193      526.4204      561.0397     193.582239       1.15065
   8     437.6      366.9417       37.5307      517.3907      554.9214     187.979665       1.19787
   7     480.5      366.4169       40.5863      507.7216      548.3078     181.890914       1.19581
   6     533.0      365.8221       44.2593      495.9006      540.1599     174.337787       1.21506
   5     589.8      365.2707       48.1130      483.0788      531.1918     165.921118       1.24931
   4     651.6      364.8513       52.1350      468.6907      520.8256     155.974292       1.36026
   3     718.7      364.6571       56.3169      453.2257      509.5426     144.885561       1.39355
   2     792.3      364.9140       60.6373      436.4928      497.1301     132.216088       1.45305
   1     891.5      366.4295       66.2187      413.9344      480.1531     113.723585       1.57362
   0    1013.0      371.0527       72.5663      388.4125      460.9788      89.926088       1.65238



 Wavenumbers:  2600. -  3250. cm-1, ATM      1
 LEVEL PRESSURE   UPWARD FLUX   DIFDOWN FLUX  DIRDOWN FLUX  DOWNWARD FLUX   NET FLUX    HEATING RATE
          mb          W/m2          W/m2          W/m2        W/m2          W/m2       degree/day
  51    .06700        0.0225        0.0000        5.4450        5.4450       5.422489       0.00000
  50    .07753        0.0225        0.0000        5.4450        5.4450       5.422481       0.00640
  49    .09103        0.0225        0.0000        5.4450        5.4450       5.422471       0.00627
  48    0.1069        0.0225        0.0000        5.4450        5.4450       5.422460       0.00613
  47    0.1255        0.0225        0.0000        5.4450        5.4450       5.422446       0.00599
  46    0.1487        0.0225        0.0000        5.4450        5.4450       5.422430       0.00608
  45    0.1794        0.0225        0.0000        5.4450        5.4450       5.422407       0.00625
  44    0.2165        0.0225        0.0000        5.4449        5.4449       5.422380       0.00612
  43    0.2613        0.0225        0.0000        5.4449        5.4449       5.422348       0.00600
  42    0.3336        0.0225        0.0000        5.4448        5.4448       5.422295       0.00617
  41    0.4307        0.0225        0.0000        5.4448        5.4448       5.422224       0.00620
  40    0.5894        0.0225        0.0000        5.4446        5.4446       5.422104       0.00637
  39     1.339        0.0225        0.0000        5.4439        5.4439       5.421397       0.00797
  38     1.782        0.0225        0.0000        5.4434        5.4434       5.420854       0.01034
  37     2.292        0.0225        0.0000        5.4427        5.4427       5.420138       0.01186
  36     2.964        0.0225        0.0000        5.4416        5.4416       5.419099       0.01304
  35     3.853        0.0225        0.0000        5.4402        5.4402       5.417622       0.01402
  34     5.035        0.0225        0.0000        5.4381        5.4381       5.415567       0.01468
  33     6.613        0.0225        0.0000        5.4353        5.4353       5.412786       0.01487
  32     8.786        0.0225        0.0000        5.4317        5.4317       5.409154       0.01411
  31     11.80        0.0225        0.0000        5.4269        5.4269       5.404374       0.01338
  30     15.07        0.0225        0.0000        5.4224        5.4224       5.399848       0.01169
  29     18.79        0.0225        0.0000        5.4180        5.4180       5.395436       0.01000
  28     23.16        0.0225        0.0000        5.4135        5.4135       5.390951       0.00867
  27     28.12        0.0225        0.0000        5.4088        5.4088       5.386304       0.00790
  26     33.73        0.0225        0.0000        5.4036        5.4036       5.381066       0.00788
  25     40.54        0.0225        0.0000        5.3966        5.3967       5.374126       0.00861
  24     48.69        0.0225        0.0000        5.3872        5.3872       5.364653       0.00980
  23     57.69        0.0225        0.0000        5.3754        5.3754       5.352874       0.01104
  22     68.43        0.0225        0.0000        5.3599        5.3599       5.337393       0.01217
  21     81.20        0.0225        0.0000        5.3401        5.3401       5.317570       0.01310
  20     96.49        0.0225        0.0000        5.3155        5.3155       5.293017       0.01355
  19     114.6        0.0225        0.0000        5.2853        5.2853       5.262838       0.01409
  18     136.5        0.0225        0.0000        5.2504        5.2505       5.227956       0.01341
  17     162.9        0.0225        0.0001        5.2111        5.2111       5.188649       0.01256
  16     196.4        0.0225        0.0001        5.1640        5.1641       5.141616       0.01184
  15     218.7        0.0225        0.0001        5.1331        5.1332       5.110698       0.01174
  14     243.0        0.0225        0.0001        5.0962        5.0963       5.073815       0.01279
  13     269.0        0.0225        0.0001        5.0511        5.0512       5.028697       0.01464
  12     297.5        0.0225        0.0001        4.9956        4.9957       4.973210       0.01646
  11     328.5        0.0225        0.0001        4.9304        4.9305       4.907973       0.01774
  10     361.9        0.0225        0.0001        4.8511        4.8512       4.828687       0.02006
   9     398.1        0.0226        0.0001        4.7507        4.7508       4.728248       0.02340
   8     437.6        0.0226        0.0001        4.6220        4.6222       4.599561       0.02751
   7     480.5        0.0227        0.0001        4.4625        4.4626       4.439941       0.03135
   6     533.0        0.0228        0.0002        4.2460        4.2462       4.223395       0.03484
   5     589.8        0.0230        0.0002        3.9954        3.9956       3.972588       0.03723
   4     651.6        0.0233        0.0002        3.7089        3.7090       3.685754       0.03923
   3     718.7        0.0237        0.0002        3.4018        3.4020       3.378264       0.03864
   2     792.3        0.0245        0.0002        3.0564        3.0566       3.032124       0.03970
   1     891.5        0.0262        0.0002        2.5828        2.5830       2.556791       0.04045
   0    1013.0        0.0302        0.0001        2.0845        2.0847       2.054434       0.03488



 Wavenumbers:  3250. -  4000. cm-1, ATM      1
 LEVEL PRESSURE   UPWARD FLUX   DIFDOWN FLUX  DIRDOWN FLUX  DOWNWARD FLUX   NET FLUX    HEATING RATE
          mb          W/m2          W/m2          W/m2        W/m2          W/m2       degree/day
  51    .06700        0.0005        0.0000        9.1795        9.1795       9.179065       0.00000
  50    .07753        0.0005        0.0000        9.1747        9.1747       9.174222       3.88148
  49    .09103        0.0005        0.0000        9.1713        9.1713       9.170834       2.11747
  48    0.1069        0.0005        0.0000        9.1688        9.1688       9.168309       1.34402
  47    0.1255        0.0005        0.0000        9.1665        9.1665       9.166050       1.02422
  46    0.1487        0.0005        0.0000        9.1641        9.1641       9.163609       0.88991
  45    0.1794        0.0005        0.0000        9.1612        9.1612       9.160731       0.79008
  44    0.2165        0.0005        0.0000        9.1583        9.1583       9.157810       0.66430
  43    0.2613        0.0005        0.0000        9.1553        9.1553       9.154837       0.56041
  42    0.3336        0.0005        0.0000        9.1511        9.1511       9.150658       0.48723
  41    0.4307        0.0005        0.0000        9.1464        9.1464       9.145890       0.41459
  40    0.5894        0.0005        0.0000        9.1393        9.1394       9.138884       0.37255
  39     1.339        0.0005        0.0000        9.1127        9.1127       9.112271       0.29962
  38     1.782        0.0005        0.0000        9.1011        9.1011       9.100683       0.22062
  37     2.292        0.0005        0.0000        9.0901        9.0901       9.089616       0.18329
  36     2.964        0.0005        0.0000        9.0776        9.0776       9.077186       0.15603
  35     3.853        0.0005        0.0000        9.0629        9.0629       9.062396       0.14036
  34     5.035        0.0005        0.0000        9.0441        9.0441       9.043657       0.13386
  33     6.613        0.0005        0.0000        9.0191        9.0191       9.018656       0.13366
  32     8.786        0.0005        0.0000        8.9843        8.9843       8.983872       0.13509
  31     11.80        0.0004        0.0000        8.9327        8.9327       8.932255       0.14451
  30     15.07        0.0004        0.0000        8.8758        8.8759       8.875411       0.14676
  29     18.79        0.0004        0.0000        8.8110        8.8110       8.810583       0.14698
  28     23.16        0.0004        0.0000        8.7365        8.7366       8.736139       0.14395
  27     28.12        0.0004        0.0000        8.6554        8.6555       8.655026       0.13789
  26     33.73        0.0004        0.0000        8.5719        8.5719       8.571526       0.12554
  25     40.54        0.0004        0.0001        8.4812        8.4812       8.480802       0.11255
  24     48.69        0.0004        0.0001        8.3838        8.3839       8.383501       0.10069
  23     57.69        0.0004        0.0001        8.2861        8.2862       8.285766       0.09161
  22     68.43        0.0004        0.0001        8.1751        8.1751       8.174769       0.08726
  21     81.20        0.0004        0.0001        8.0457        8.0458       8.045411       0.08548
  20     96.49        0.0003        0.0001        7.8949        7.8950       7.894708       0.08318
  19     114.6        0.0003        0.0001        7.7162        7.7163       7.715998       0.08344
  18     136.5        0.0003        0.0002        7.5193        7.5194       7.519154       0.07569
  17     162.9        0.0003        0.0002        7.2913        7.2915       7.291263       0.07284
  16     196.4        0.0002        0.0002        6.9660        6.9662       6.965991       0.08187
  15     218.7        0.0002        0.0002        6.6648        6.6650       6.664802       0.11435
  14     243.0        0.0002        0.0002        6.2619        6.2622       6.262008       0.13970
  13     269.0        0.0002        0.0003        5.7576        5.7579       5.757708       0.16359
  12     297.5        0.0001        0.0003        5.1719        5.1722       5.172018       0.17371
  11     328.5        0.0001        0.0002        4.5757        4.5760       4.575859       0.16209
  10     361.9        0.0001        0.0002        3.9995        3.9998       3.999684       0.14578
   9     398.1        0.0001        0.0002        3.4655        3.4657       3.465628       0.12442
   8     437.6        0.0001        0.0002        2.9740        2.9742       2.974182       0.10507
   7     480.5        0.0001        0.0002        2.5307        2.5309       2.530811       0.08708
   6     533.0        0.0000        0.0002        2.0614        2.0616       2.061519       0.07549
   5     589.8        0.0000        0.0002        1.6150        1.6151       1.615096       0.06626
   4     651.6        0.0000        0.0001        1.1565        1.1566       1.156564       0.06271
   3     718.7        0.0000        0.0001        0.7390        0.7391       0.739090       0.05246
   2     792.3        0.0000        0.0001        0.3985        0.3985       0.398509       0.03906
   1     891.5        0.0000        0.0000        0.1139        0.1139       0.113929       0.02422
   0    1013.0        0.0002        0.0000        0.0094        0.0094       0.009190       0.00727



 Wavenumbers:  4000. -  4650. cm-1, ATM      1
 LEVEL PRESSURE   UPWARD FLUX   DIFDOWN FLUX  DIRDOWN FLUX  DOWNWARD FLUX   NET FLUX    HEATING RATE
          mb          W/m2          W/m2          W/m2        W/m2          W/m2       degree/day
  51    .06700        0.2536        0.0000       10.7795       10.7795      10.525940       0.00000
  50    .07753        0.2536        0.0000       10.7795       10.7795      10.525939       0.00080
  49    .09103        0.2536        0.0000       10.7795       10.7795      10.525938       0.00078
  48    0.1069        0.2536        0.0000       10.7795       10.7795      10.525936       0.00076
  47    0.1255        0.2536        0.0000       10.7795       10.7795      10.525935       0.00075
  46    0.1487        0.2536        0.0000       10.7795       10.7795      10.525933       0.00076
  45    0.1794        0.2536        0.0000       10.7795       10.7795      10.525930       0.00078
  44    0.2165        0.2536        0.0000       10.7795       10.7795      10.525927       0.00076
  43    0.2613        0.2536        0.0000       10.7795       10.7795      10.525923       0.00075
  42    0.3336        0.2536        0.0000       10.7795       10.7795      10.525916       0.00077
  41    0.4307        0.2536        0.0000       10.7795       10.7795      10.525907       0.00077
  40    0.5894        0.2536        0.0000       10.7795       10.7795      10.525892       0.00080
  39     1.339        0.2536        0.0000       10.7794       10.7794      10.525803       0.00101
  38     1.782        0.2536        0.0000       10.7793       10.7793      10.525733       0.00133
  37     2.292        0.2536        0.0000       10.7792       10.7792      10.525639       0.00156
  36     2.964        0.2536        0.0000       10.7791       10.7791      10.525499       0.00176
  35     3.853        0.2536        0.0000       10.7789       10.7789      10.525291       0.00197
  34     5.035        0.2536        0.0000       10.7786       10.7786      10.524984       0.00219
  33     6.613        0.2536        0.0000       10.7781       10.7781      10.524533       0.00241
  32     8.786        0.2536        0.0000       10.7774       10.7774      10.523867       0.00259
  31     11.80        0.2536        0.0000       10.7763       10.7764      10.522821       0.00293
  30     15.07        0.2536        0.0001       10.7751       10.7751      10.521595       0.00317
  29     18.79        0.2535        0.0001       10.7736       10.7737      10.520113       0.00336
  28     23.16        0.2535        0.0001       10.7717       10.7718      10.518274       0.00356
  27     28.12        0.2535        0.0001       10.7695       10.7696      10.516049       0.00378
  26     33.73        0.2535        0.0001       10.7667       10.7668      10.513308       0.00412
  25     40.54        0.2535        0.0001       10.7629       10.7631      10.509593       0.00461
  24     48.69        0.2534        0.0002       10.7579       10.7581      10.504648       0.00512
  23     57.69        0.2534        0.0002       10.7520       10.7522      10.498793       0.00549
  22     68.43        0.2534        0.0002       10.7446       10.7448      10.491466       0.00576
  21     81.20        0.2533        0.0003       10.7355       10.7358      10.482459       0.00595
  20     96.49        0.2533        0.0003       10.7245       10.7248      10.471522       0.00604
  19     114.6        0.2532        0.0004       10.7107       10.7111      10.457880       0.00637
  18     136.5        0.2532        0.0005       10.6942       10.6947      10.441490       0.00630
  17     162.9        0.2531        0.0006       10.6740       10.6746      10.421469       0.00640
  16     196.4        0.2530        0.0007       10.6464       10.6470      10.394001       0.00691
  15     218.7        0.2530        0.0008       10.6255       10.6262      10.373211       0.00789
  14     243.0        0.2530        0.0009       10.5980       10.5989      10.345915       0.00947
  13     269.0        0.2530        0.0009       10.5611       10.5620      10.309047       0.01196
  12     297.5        0.2530        0.0010       10.5119       10.5130      10.259967       0.01456
  11     328.5        0.2531        0.0011       10.4499       10.4510      10.197933       0.01687
  10     361.9        0.2532        0.0012       10.3702       10.3714      10.118232       0.02017
   9     398.1        0.2534        0.0014       10.2678       10.2691      10.015785       0.02387
   8     437.6        0.2536        0.0015       10.1390       10.1405       9.886897       0.02756
   7     480.5        0.2539        0.0016        9.9877        9.9893       9.735431       0.02975
   6     533.0        0.2543        0.0017        9.7937        9.7954       9.541083       0.03126
   5     589.8        0.2550        0.0019        9.5752        9.5770       9.322009       0.03252
   4     651.6        0.2562        0.0020        9.2958        9.2978       9.041648       0.03834
   3     718.7        0.2580        0.0021        8.9267        8.9289       8.670858       0.04660
   2     792.3        0.2612        0.0022        8.4542        8.4565       8.195316       0.05454
   1     891.5        0.2685        0.0023        7.7948        7.7972       7.528621       0.05673
   0    1013.0        0.2860        0.0024        7.0767        7.0791       6.793118       0.05107



 Wavenumbers:  4650. -  5150. cm-1, ATM      1
 LEVEL PRESSURE   UPWARD FLUX   DIFDOWN FLUX  DIRDOWN FLUX  DOWNWARD FLUX   NET FLUX    HEATING RATE
          mb          W/m2          W/m2          W/m2        W/m2          W/m2       degree/day
  51    .06700        0.0476        0.0000       10.2033       10.2033      10.155715       0.00000
  50    .07753        0.0476        0.0000       10.2031       10.2031      10.155479       0.18901
  49    .09103        0.0476        0.0000       10.2028       10.2028      10.155184       0.18428
  48    0.1069        0.0476        0.0000       10.2025       10.2025      10.154847       0.17931
  47    0.1255        0.0476        0.0000       10.2021       10.2021      10.154463       0.17426
  46    0.1487        0.0476        0.0000       10.2016       10.2016      10.153982       0.17536
  45    0.1794        0.0476        0.0000       10.2010       10.2010      10.153331       0.17850
  44    0.2165        0.0476        0.0000       10.2002       10.2002      10.152572       0.17277
  43    0.2613        0.0476        0.0000       10.1993       10.1993      10.151686       0.16690
  42    0.3336        0.0476        0.0000       10.1979       10.1979      10.150254       0.16702
  41    0.4307        0.0476        0.0000       10.1960       10.1960      10.148414       0.16002
  40    0.5894        0.0476        0.0000       10.1932       10.1932      10.145540       0.15283
  39     1.339        0.0476        0.0000       10.1816       10.1816      10.133948       0.13050
  38     1.782        0.0476        0.0000       10.1760       10.1760      10.128420       0.10525
  37     2.292        0.0476        0.0000       10.1706       10.1706      10.122964       0.09036
  36     2.964        0.0476        0.0000       10.1646       10.1647      10.117042       0.07434
  35     3.853        0.0476        0.0000       10.1584       10.1584      10.110829       0.05896
  34     5.035        0.0476        0.0000       10.1521       10.1521      10.104495       0.04524
  33     6.613        0.0476        0.0000       10.1456       10.1456      10.098042       0.03450
  32     8.786        0.0476        0.0000       10.1386       10.1386      10.091037       0.02720
  31     11.80        0.0476        0.0001       10.1295       10.1296      10.082007       0.02528
  30     15.07        0.0475        0.0001       10.1196       10.1197      10.072142       0.02547
  29     18.79        0.0475        0.0001       10.1076       10.1077      10.060154       0.02718
  28     23.16        0.0475        0.0001       10.0923       10.0924      10.044875       0.02954
  27     28.12        0.0475        0.0002       10.0731       10.0733      10.025816       0.03240
  26     33.73        0.0475        0.0002       10.0500       10.0502      10.002768       0.03465
  25     40.54        0.0474        0.0002       10.0201       10.0203       9.972929       0.03702
  24     48.69        0.0474        0.0003        9.9820        9.9822       9.934846       0.03941
  23     57.69        0.0473        0.0003        9.9384        9.9388       9.891419       0.04071
  22     68.43        0.0473        0.0004        9.8858        9.8861       9.838840       0.04133
  21     81.20        0.0472        0.0004        9.8234        9.8239       9.776657       0.04109
  20     96.49        0.0471        0.0005        9.7518        9.7523       9.705124       0.03948
  19     114.6        0.0471        0.0006        9.6719        9.6725       9.625456       0.03720
  18     136.5        0.0470        0.0007        9.5858        9.5865       9.539539       0.03304
  17     162.9        0.0469        0.0008        9.4940        9.4949       9.448022       0.02925
  16     196.4        0.0467        0.0010        9.3883        9.3893       9.342557       0.02655
  15     218.7        0.0466        0.0011        9.3229        9.3240       9.277391       0.02474
  14     243.0        0.0465        0.0012        9.2520        9.2532       9.206654       0.02453
  13     269.0        0.0464        0.0013        9.1717        9.1730       9.126550       0.02599
  12     297.5        0.0464        0.0015        9.0763        9.0777       9.031384       0.02823
  11     328.5        0.0463        0.0016        8.9650        8.9666       8.920292       0.03021
  10     361.9        0.0462        0.0017        8.8349        8.8366       8.790456       0.03285
   9     398.1        0.0461        0.0019        8.6820        8.6839       8.637766       0.03557
   8     437.6        0.0461        0.0020        8.5028        8.5048       8.458745       0.03828
   7     480.5        0.0461        0.0022        8.2948        8.2970       8.250926       0.04081
   6     533.0        0.0461        0.0023        8.0209        8.0232       7.977148       0.04404
   5     589.8        0.0462        0.0025        7.7063        7.7088       7.662653       0.04668
   4     651.6        0.0464        0.0026        7.3412        7.3438       7.297469       0.04994
   3     718.7        0.0468        0.0027        6.9387        6.9414       6.894597       0.05063
   2     792.3        0.0475        0.0028        6.5066        6.5094       6.461875       0.04963
   1     891.5        0.0493        0.0029        5.9361        5.9390       5.889705       0.04869
   0    1013.0        0.0530        0.0030        5.3025        5.3054       5.252400       0.04425



 Wavenumbers:  5150. -  6150. cm-1, ATM      1
 LEVEL PRESSURE   UPWARD FLUX   DIFDOWN FLUX  DIRDOWN FLUX  DOWNWARD FLUX   NET FLUX    HEATING RATE
          mb          W/m2          W/m2          W/m2        W/m2          W/m2       degree/day
  51    .06700        0.5978        0.0000       25.5798       25.5798      24.982045       0.00000
  50    .07753        0.5978        0.0000       25.5798       25.5798      24.982006       0.03156
  49    .09103        0.5978        0.0000       25.5797       25.5797      24.981955       0.03204
  48    0.1069        0.5978        0.0000       25.5797       25.5797      24.981894       0.03255
  47    0.1255        0.5978        0.0000       25.5796       25.5796      24.981821       0.03305
  46    0.1487        0.5978        0.0000       25.5795       25.5795      24.981725       0.03482
  45    0.1794        0.5978        0.0000       25.5794       25.5794      24.981590       0.03707
  44    0.2165        0.5978        0.0000       25.5792       25.5792      24.981425       0.03763
  43    0.2613        0.5978        0.0000       25.5790       25.5790      24.981222       0.03821
  42    0.3336        0.5978        0.0000       25.5786       25.5786      24.980876       0.04037
  41    0.4307        0.5978        0.0000       25.5782       25.5782      24.980405       0.04091
  40    0.5894        0.5978        0.0000       25.5774       25.5774      24.979617       0.04192
  39     1.339        0.5977        0.0000       25.5735       25.5736      24.975820       0.04274
  38     1.782        0.5977        0.0000       25.5713       25.5713      24.973611       0.04207
  37     2.292        0.5977        0.0001       25.5688       25.5688      24.971111       0.04141
  36     2.964        0.5977        0.0001       25.5656       25.5656      24.967935       0.03986
  35     3.853        0.5977        0.0001       25.5615       25.5616      24.963901       0.03828
  34     5.035        0.5977        0.0001       25.5562       25.5564      24.958708       0.03710
  33     6.613        0.5976        0.0002       25.5494       25.5496      24.951974       0.03600
  32     8.786        0.5976        0.0002       25.5406       25.5408      24.943250       0.03388
  31     11.80        0.5975        0.0003       25.5287       25.5290      24.931459       0.03301
  30     15.07        0.5974        0.0004       25.5167       25.5171      24.919644       0.03051
  29     18.79        0.5973        0.0005       25.5042       25.5046      24.907300       0.02799
  28     23.16        0.5972        0.0006       25.4907       25.4913      24.894015       0.02569
  27     28.12        0.5971        0.0007       25.4764       25.4772      24.880020       0.02379
  26     33.73        0.5970        0.0008       25.4620       25.4629      24.865861       0.02129
  25     40.54        0.5969        0.0010       25.4463       25.4473      24.850411       0.01917
  24     48.69        0.5967        0.0012       25.4294       25.4306      24.833911       0.01707
  23     57.69        0.5965        0.0014       25.4126       25.4141      24.817576       0.01531
  22     68.43        0.5963        0.0017       25.3944       25.3961      24.799888       0.01391
  21     81.20        0.5960        0.0020       25.3744       25.3764      24.780473       0.01283
  20     96.49        0.5957        0.0024       25.3519       25.3544      24.758699       0.01202
  19     114.6        0.5953        0.0029       25.3262       25.3290      24.733769       0.01164
  18     136.5        0.5948        0.0034       25.2962       25.2996      24.704786       0.01114
  17     162.9        0.5943        0.0040       25.2521       25.2561      24.661870       0.01372
  16     196.4        0.5936        0.0049       25.1593       25.1641      24.570579       0.02298
  15     218.7        0.5931        0.0054       25.0159       25.0213      24.428182       0.05406
  14     243.0        0.5926        0.0059       24.7089       24.7148      24.122170       0.10614
  13     269.0        0.5922        0.0064       24.1619       24.1683      23.576101       0.17714
  12     297.5        0.5917        0.0069       23.4544       23.4613      22.869604       0.20954
  11     328.5        0.5912        0.0074       22.7355       22.7429      22.151668       0.19520
  10     361.9        0.5907        0.0079       21.9224       21.9303      21.339589       0.20546
   9     398.1        0.5902        0.0083       20.9939       21.0022      20.411981       0.21611
   8     437.6        0.5898        0.0087       19.9833       19.9920      19.402216       0.21589
   7     480.5        0.5894        0.0091       18.9483       18.9574      18.367910       0.20313
   6     533.0        0.5891        0.0094       17.7796       17.7890      17.199897       0.18790
   5     589.8        0.5891        0.0098       16.6726       16.6824      16.093319       0.16425
   4     651.6        0.5895        0.0102       15.6343       15.6445      15.054979       0.14200
   3     718.7        0.5908        0.0106       14.7738       14.7844      14.193611       0.10825
   2     792.3        0.5937        0.0111       14.0291       14.0402      13.446482       0.08569
   1     891.5        0.6022        0.0117       13.0822       13.0939      12.491674       0.08125
   0    1013.0        0.6277        0.0123       12.0384       12.0507      11.423004       0.07420



 Wavenumbers:  6150. -  7700. cm-1, ATM      1
 LEVEL PRESSURE   UPWARD FLUX   DIFDOWN FLUX  DIRDOWN FLUX  DOWNWARD FLUX   NET FLUX    HEATING RATE
          mb          W/m2          W/m2          W/m2        W/m2          W/m2       degree/day
  51    .06700        1.6147        0.0000       47.3109       47.3109      45.696150       0.00000
  50    .07753        1.6147        0.0000       47.3108       47.3108      45.696093       0.04553
  49    .09103        1.6147        0.0000       47.3107       47.3107      45.696019       0.04583
  48    0.1069        1.6147        0.0000       47.3106       47.3106      45.695933       0.04614
  47    0.1255        1.6147        0.0000       47.3105       47.3105      45.695830       0.04645
  46    0.1487        1.6147        0.0000       47.3104       47.3104      45.695697       0.04852
  45    0.1794        1.6147        0.0000       47.3102       47.3102      45.695511       0.05127
  44    0.2165        1.6147        0.0000       47.3100       47.3100      45.695283       0.05167
  43    0.2613        1.6147        0.0000       47.3097       47.3097      45.695007       0.05210
  42    0.3336        1.6147        0.0000       47.3092       47.3092      45.694538       0.05471
  41    0.4307        1.6147        0.0000       47.3085       47.3086      45.693903       0.05521
  40    0.5894        1.6147        0.0001       47.3074       47.3075      45.692843       0.05633
  39     1.339        1.6146        0.0001       47.3022       47.3023      45.687751       0.05733
  38     1.782        1.6145        0.0002       47.2991       47.2993      45.684781       0.05655
  37     2.292        1.6145        0.0002       47.2956       47.2959      45.681405       0.05591
  36     2.964        1.6144        0.0003       47.2912       47.2915      45.677087       0.05421
  35     3.853        1.6143        0.0004       47.2855       47.2859      45.671553       0.05252
  34     5.035        1.6142        0.0005       47.2780       47.2786      45.664372       0.05129
  33     6.613        1.6140        0.0007       47.2683       47.2690      45.654985       0.05019
  32     8.786        1.6138        0.0009       47.2556       47.2565      45.642686       0.04776
  31     11.80        1.6135        0.0013       47.2380       47.2393      45.625783       0.04732
  30     15.07        1.6132        0.0016       47.2201       47.2217      45.608496       0.04463
  29     18.79        1.6128        0.0020       47.2008       47.2028      45.590018       0.04190
  28     23.16        1.6124        0.0025       47.1795       47.1820      45.569629       0.03942
  27     28.12        1.6119        0.0030       47.1565       47.1595      45.547638       0.03738
  26     33.73        1.6113        0.0036       47.1324       47.1360      45.524719       0.03446
  25     40.54        1.6106        0.0043       47.1054       47.1097      45.499087       0.03180
  24     48.69        1.6098        0.0052       47.0754       47.0806      45.470839       0.02923
  23     57.69        1.6089        0.0061       47.0449       47.0511      45.442224       0.02682
  22     68.43        1.6078        0.0073       47.0110       47.0183      45.410496       0.02494
  21     81.20        1.6065        0.0086       46.9729       46.9815      45.375015       0.02345
  20     96.49        1.6050        0.0103       46.9294       46.9396      45.334691       0.02226
  19     114.6        1.6031        0.0122       46.8790       46.8912      45.288085       0.02176
  18     136.5        1.6009        0.0145       46.8200       46.8344      45.233501       0.02099
  17     162.9        1.5983        0.0172       46.7361       46.7533      45.154951       0.02511
  16     196.4        1.5950        0.0207       46.5703       46.5909      44.995937       0.04003
  15     218.7        1.5928        0.0229       46.3473       46.3702      44.777404       0.08297
  14     243.0        1.5905        0.0252       45.9299       45.9551      44.364627       0.14316
  13     269.0        1.5881        0.0276       45.1708       45.1983      43.610276       0.24471
  12     297.5        1.5856        0.0298       44.0115       44.0412      42.455645       0.34245
  11     328.5        1.5831        0.0319       42.7242       42.7562      41.173123       0.34871
  10     361.9        1.5805        0.0341       41.3539       41.3881      39.807555       0.34550
   9     398.1        1.5781        0.0362       39.7953       39.8315      38.253425       0.36208
   8     437.6        1.5758        0.0381       37.9948       38.0329      36.457068       0.38407
   7     480.5        1.5738        0.0398       36.0647       36.1045      34.530677       0.37834
   6     533.0        1.5721        0.0414       33.7773       33.8187      32.246568       0.36744
   5     589.8        1.5718        0.0428       31.4082       31.4510      29.879216       0.35139
   4     651.6        1.5740        0.0436       28.8834       28.9270      27.352947       0.34547
   3     718.7        1.5809        0.0442       26.4104       26.4545      24.873609       0.31158
   2     792.3        1.5965        0.0444       24.0056       24.0500      22.453486       0.27756
   1     891.5        1.6401        0.0445       21.2348       21.2793      19.639183       0.23948
   0    1013.0        1.7617        0.0446       18.6150       18.6597      16.897964       0.19034



 Wavenumbers:  7700. -  8050. cm-1, ATM      1
 LEVEL PRESSURE   UPWARD FLUX   DIFDOWN FLUX  DIRDOWN FLUX  DOWNWARD FLUX   NET FLUX    HEATING RATE
          mb          W/m2          W/m2          W/m2        W/m2          W/m2       degree/day
  51    .06700        3.2554        0.0000       11.1810       11.1810       7.925596       0.00000
  50    .07753        3.2554        0.0000       11.1809       11.1809       7.925576       0.01593
  49    .09103        3.2554        0.0000       11.1809       11.1809       7.925551       0.01561
  48    0.1069        3.2554        0.0000       11.1809       11.1809       7.925522       0.01528
  47    0.1255        3.2554        0.0000       11.1809       11.1809       7.925489       0.01496
  46    0.1487        3.2554        0.0000       11.1808       11.1808       7.925448       0.01518
  45    0.1794        3.2554        0.0000       11.1808       11.1808       7.925391       0.01562
  44    0.2165        3.2554        0.0000       11.1807       11.1807       7.925323       0.01532
  43    0.2613        3.2554        0.0000       11.1806       11.1806       7.925244       0.01503
  42    0.3336        3.2554        0.0000       11.1805       11.1805       7.925112       0.01538
  41    0.4307        3.2554        0.0000       11.1803       11.1804       7.924937       0.01521
  40    0.5894        3.2555        0.0000       11.1801       11.1801       7.924651       0.01520
  39     1.339        3.2556        0.0001       11.1788       11.1789       7.923299       0.01522
  38     1.782        3.2556        0.0001       11.1781       11.1782       7.922505       0.01512
  37     2.292        3.2557        0.0001       11.1772       11.1773       7.921586       0.01522
  36     2.964        3.2558        0.0001       11.1761       11.1762       7.920379       0.01515
  35     3.853        3.2560        0.0002       11.1746       11.1748       7.918786       0.01512
  34     5.035        3.2562        0.0002       11.1726       11.1728       7.916669       0.01512
  33     6.613        3.2564        0.0003       11.1700       11.1703       7.913842       0.01511
  32     8.786        3.2568        0.0004       11.1664       11.1668       7.910034       0.01479
  31     11.80        3.2573        0.0006       11.1613       11.1619       7.904592       0.01524
  30     15.07        3.2578        0.0007       11.1558       11.1566       7.898757       0.01507
  29     18.79        3.2584        0.0009       11.1497       11.1506       7.892173       0.01493
  28     23.16        3.2591        0.0011       11.1425       11.1436       7.884497       0.01484
  27     28.12        3.2599        0.0014       11.1343       11.1357       7.875737       0.01489
  26     33.73        3.2609        0.0016       11.1252       11.1268       7.865958       0.01470
  25     40.54        3.2620        0.0020       11.1142       11.1162       7.854179       0.01461
  24     48.69        3.2633        0.0023       11.1010       11.1034       7.840031       0.01464
  23     57.69        3.2648        0.0028       11.0866       11.0894       7.824557       0.01450
  22     68.43        3.2666        0.0033       11.0695       11.0728       7.806221       0.01441
  21     81.20        3.2688        0.0039       11.0494       11.0533       7.784510       0.01435
  20     96.49        3.2713        0.0046       11.0255       11.0302       7.758826       0.01418
  19     114.6        3.2744        0.0055       10.9975       11.0030       7.728593       0.01412
  18     136.5        3.2782        0.0065       10.9648       10.9713       7.693117       0.01364
  17     162.9        3.2827        0.0077       10.9263       10.9340       7.651357       0.01335
  16     196.4        3.2886        0.0093       10.8773       10.8866       7.597948       0.01344
  15     218.7        3.2926        0.0103       10.8455       10.8559       7.563279       0.01316
  14     243.0        3.2970        0.0114       10.8114       10.8229       7.525905       0.01296
  13     269.0        3.3018        0.0127       10.7749       10.7875       7.485689       0.01305
  12     297.5        3.3072        0.0140       10.7357       10.7497       7.442449       0.01282
  11     328.5        3.3132        0.0154       10.6937       10.7091       7.395925       0.01265
  10     361.9        3.3198        0.0169       10.6489       10.6657       7.345936       0.01265
   9     398.1        3.3272        0.0185       10.6008       10.6193       7.292067       0.01255
   8     437.6        3.3355        0.0202       10.5491       10.5693       7.233803       0.01246
   7     480.5        3.3449        0.0221       10.4934       10.5155       7.170664       0.01240
   6     533.0        3.3571        0.0244       10.4243       10.4487       7.091542       0.01273
   5     589.8        3.3715        0.0268       10.3479       10.3747       7.003243       0.01311
   4     651.6        3.3888        0.0294       10.2613       10.2908       6.901981       0.01385
   3     718.7        3.4102        0.0322       10.1618       10.1940       6.783814       0.01485
   2     792.3        3.4374        0.0352       10.0439       10.0790       6.641633       0.01631
   1     891.5        3.4835        0.0390        9.8626        9.9016       6.418072       0.01902
   0    1013.0        3.5569        0.0434        9.6103        9.6537       6.096820       0.02231



 Wavenumbers:  8050. - 12850. cm-1, ATM      1
 LEVEL PRESSURE   UPWARD FLUX   DIFDOWN FLUX  DIRDOWN FLUX  DOWNWARD FLUX   NET FLUX    HEATING RATE
          mb          W/m2          W/m2          W/m2        W/m2          W/m2       degree/day
  51    .06700       78.6520        0.0000      156.5418      156.5418      77.889734       0.00000
  50    .07753       78.6520        0.0000      156.5417      156.5417      77.889734       0.00000
  49    .09103       78.6520        0.0001      156.5417      156.5417      77.889734      -0.00000
  48    0.1069       78.6520        0.0001      156.5416      156.5417      77.889734       0.00000
  47    0.1255       78.6519        0.0002      156.5415      156.5417      77.889734      -0.00000
  46    0.1487       78.6519        0.0002      156.5414      156.5416      77.889734       0.00000
  45    0.1794       78.6519        0.0003      156.5413      156.5416      77.889734       0.00000
  44    0.2165       78.6518        0.0004      156.5412      156.5416      77.889734      -0.00000
  43    0.2613       78.6518        0.0005      156.5410      156.5415      77.889734       0.00000
  42    0.3336       78.6517        0.0007      156.5407      156.5414      77.889734      -0.00000
  41    0.4307       78.6516        0.0010      156.5403      156.5413      77.889734      -0.00000
  40    0.5894       78.6514        0.0014      156.5397      156.5411      77.889734       0.00000
  39     1.339       78.6504        0.0034      156.5367      156.5402      77.889734      -0.00000
  38     1.782       78.6499        0.0046      156.5350      156.5396      77.889734      -0.00000
  37     2.292       78.6492        0.0060      156.5330      156.5390      77.889734       0.00000
  36     2.964       78.6484        0.0078      156.5303      156.5381      77.889734       0.00000
  35     3.853       78.6473        0.0102      156.5268      156.5370      77.889734      -0.00000
  34     5.035       78.6458        0.0134      156.5222      156.5356      77.889734       0.00000
  33     6.613       78.6439        0.0176      156.5160      156.5336      77.889734      -0.00000
  32     8.786       78.6413        0.0234      156.5076      156.5310      77.889734       0.00000
  31     11.80       78.6375        0.0315      156.4957      156.5272      77.889734       0.00000
  30     15.07       78.6334        0.0404      156.4828      156.5231      77.889734       0.00000
  29     18.79       78.6288        0.0503      156.4682      156.5185      77.889734      -0.00000
  28     23.16       78.6234        0.0620      156.4512      156.5132      77.889734      -0.00000
  27     28.12       78.6173        0.0753      156.4317      156.5070      77.889734      -0.00000
  26     33.73       78.6104        0.0903      156.4099      156.5001      77.889734       0.00000
  25     40.54       78.6021        0.1084      156.3834      156.4918      77.889734       0.00000
  24     48.69       78.5920        0.1302      156.3515      156.4817      77.889734      -0.00000
  23     57.69       78.5809        0.1542      156.3164      156.4706      77.889734      -0.00000
  22     68.43       78.5677        0.1829      156.2746      156.4574      77.889734       0.00000
  21     81.20       78.5519        0.2170      156.2246      156.4416      77.889734      -0.00000
  20     96.49       78.5331        0.2579      156.1649      156.4228      77.889734       0.00000
  19     114.6       78.5108        0.3064      156.0879      156.3943      77.883552       0.00289
  18     136.5       78.4843        0.3640      155.9962      156.3602      77.875880       0.00295
  17     162.9       78.4528        0.4329      155.8831      156.3159      77.863138       0.00407
  16     196.4       78.4118        0.5223      155.7199      156.2423      77.830436       0.00823
  15     218.7       78.3850        0.5811      155.5733      156.1544      77.769432       0.02316
  14     243.0       78.3562        0.6451      155.3367      155.9817      77.625504       0.04992
  13     269.0       78.3260        0.7142      154.9514      155.6656      77.339616       0.09274
  12     297.5       78.2952        0.7886      154.3896      155.1782      76.883010       0.13542
  11     328.5       78.2643        0.8688      153.7151      154.5839      76.319558       0.15320
  10     361.9       78.2346        0.9548      152.9087      153.8635      75.628938       0.17473
   9     398.1       78.2081        1.0468      151.8986      152.9454      74.737296       0.20773
   8     437.6       78.1883        1.1445      150.6031      151.7477      73.559360       0.25185
   7     480.5       78.1795        1.2478      149.0014      150.2492      72.069642       0.29257
   6     533.0       78.1921        1.3726      146.7375      148.1101      69.917988       0.34613
   5     589.8       78.2484        1.5031      143.8730      145.3761      67.127659       0.41418
   4     651.6       78.3981        1.6368      140.0955      141.7323      63.334159       0.51877
   3     718.7       78.7053        1.7722      135.5278      137.3000      58.594704       0.59562
   2     792.3       79.3109        1.9062      130.0690      131.9752      52.664284       0.68015
   1     891.5       80.8643        2.0679      122.1273      124.1952      43.330943       0.79422
   0    1013.0       84.6798        2.2411      112.9512      115.1923      30.512510       0.89005



 Wavenumbers: 12850. - 16000. cm-1, ATM      1
 LEVEL PRESSURE   UPWARD FLUX   DIFDOWN FLUX  DIRDOWN FLUX  DOWNWARD FLUX   NET FLUX    HEATING RATE
          mb          W/m2          W/m2          W/m2        W/m2          W/m2       degree/day
  51    .06700       76.6667        0.0000       98.0872       98.0872      21.420532       0.00000
  50    .07753       76.6667        0.0001       98.0864       98.0864      21.419741       0.63400
  49    .09103       76.6667        0.0002       98.0853       98.0854      21.418748       0.62086
  48    0.1069       76.6667        0.0003       98.0841       98.0843      21.417607       0.60746
  47    0.1255       76.6667        0.0004       98.0826       98.0830      21.416296       0.59434
  46    0.1487       76.6667        0.0005       98.0809       98.0814      21.414642       0.60299
  45    0.1794       76.6668        0.0007       98.0784       98.0792      21.412392       0.61768
  44    0.2165       76.6668        0.0010       98.0756       98.0766      21.409745       0.60196
  43    0.2613       76.6669        0.0012       98.0723       98.0736      21.406634       0.58644
  42    0.3336       76.6672        0.0017       98.0670       98.0687      21.401558       0.59186
  41    0.4307       76.6675        0.0023       98.0602       98.0625      21.394995       0.57058
  40    0.5894       76.6682        0.0033       98.0496       98.0529      21.384660       0.54962
  39     1.339       76.6745        0.0081       98.0043       98.0124      21.337922       0.52619
  38     1.782       76.6802        0.0109       97.9793       97.9901      21.309924       0.53303
  37     2.292       76.6888        0.0141       97.9498       97.9639      21.275095       0.57686
  36     2.964       76.7029        0.0183       97.9088       97.9271      21.224200       0.63889
  35     3.853       76.7258        0.0239       97.8503       97.8743      21.148457       0.71882
  34     5.035       76.7602        0.0313       97.7680       97.7993      21.039091       0.78126
  33     6.613       76.8083        0.0412       97.6562       97.6974      20.889115       0.80177
  32     8.786       76.8709        0.0546       97.5107       97.5653      20.694340       0.75644
  31     11.80       76.9524        0.0737       97.3179       97.3915      20.439111       0.71456
  30     15.07       77.0305        0.0941       97.1283       97.2225      20.191959       0.63810
  29     18.79       77.1102        0.1172       96.9300       97.0473      19.937007       0.57805
  28     23.16       77.1936        0.1442       96.7166       96.8608      19.667133       0.52185
  27     28.12       77.2776        0.1750       96.4935       96.6685      19.390916       0.46955
  26     33.73       77.3552        0.2095       96.2731       96.4825      19.127367       0.39625
  25     40.54       77.4301        0.2511       96.0408       96.2919      18.861809       0.32946
  24     48.69       77.5020        0.3013       95.7946       96.0959      18.593895       0.27725
  23     57.69       77.5632        0.3565       95.5573       95.9138      18.350567       0.22808
  22     68.43       77.6168        0.4222       95.3106       95.7328      18.116051       0.18436
  21     81.20       77.6542        0.5006       95.0643       95.5650      17.910803       0.13562
  20     96.49       77.6742        0.5942       94.8153       95.4094      17.735194       0.09692
  19     114.6       77.6995        0.7064       94.5411       95.2475      17.547958       0.08743
  18     136.5       77.7183        0.8395       94.2320       95.0715      17.353276       0.07486
  17     162.9       77.7302        0.9979       93.8753       94.8733      17.143052       0.06720
  16     196.4       77.7238        1.2034       93.4347       94.6381      16.914287       0.05758
  15     218.7       77.7117        1.3384       93.1513       94.4897      16.777961       0.05176
  14     243.0       77.6951        1.4851       92.8439       94.3290      16.633896       0.04997
  13     269.0       77.6739        1.6440       92.5111       94.1551      16.481248       0.04952
  12     297.5       77.6484        1.8158       92.1495       93.9652      16.316816       0.04877
  11     328.5       77.6206        2.0014       91.7554       93.7568      16.136135       0.04913
  10     361.9       77.5912        2.2012       91.3262       93.5274      15.936235       0.05058
   9     398.1       77.5612        2.4162       90.8575       93.2737      15.712546       0.05211
   8     437.6       77.5332        2.6470       90.3418       92.9888      15.455610       0.05493
   7     480.5       77.5096        2.8943       89.7728       92.6671      15.157530       0.05854
   6     533.0       77.4932        3.1984       89.0428       92.2412      14.748027       0.06588
   5     589.8       77.4997        3.5252       88.2038       91.7291      14.229348       0.07699
   4     651.6       77.5570        3.8747       87.1979       91.0727      13.515654       0.09760
   3     718.7       77.6831        4.2451       86.0161       90.2612      12.578104       0.11782
   2     792.3       77.9368        4.6326       84.5970       89.2296      11.292794       0.14741
   1     891.5       78.5605        5.1370       82.4374       87.5744       9.013885       0.19392
   0    1013.0       79.8727        5.7162       79.6182       85.3343       5.461684       0.24665



 Wavenumbers: 16000. - 22650. cm-1, ATM      1
 LEVEL PRESSURE   UPWARD FLUX   DIFDOWN FLUX  DIRDOWN FLUX  DOWNWARD FLUX   NET FLUX    HEATING RATE
          mb          W/m2          W/m2          W/m2        W/m2          W/m2       degree/day
  51    .06700      138.8671        0.0000      156.3892      156.3892      17.522174       0.00000
  50    .07753      138.8670        0.0004      156.3887      156.3891      17.522028       0.11740
  49    .09103      138.8670        0.0009      156.3879      156.3888      17.521815       0.13316
  48    0.1069      138.8670        0.0015      156.3871      156.3885      17.521529       0.15184
  47    0.1255      138.8670        0.0021      156.3861      156.3882      17.521148       0.17308
  46    0.1487      138.8671        0.0029      156.3847      156.3877      17.520585       0.20510
  45    0.1794      138.8672        0.0041      156.3828      156.3869      17.519705       0.24149
  44    0.2165      138.8674        0.0054      156.3805      156.3859      17.518512       0.27140
  43    0.2613      138.8677        0.0070      156.3776      156.3846      17.516893       0.30512
  42    0.3336      138.8684        0.0096      156.3726      156.3822      17.513816       0.35882
  41    0.4307      138.8696        0.0131      156.3657      156.3788      17.509177       0.40335
  40    0.5894      138.8721        0.0187      156.3537      156.3724      17.500330       0.47049
  39     1.339      138.8940        0.0456      156.2834      156.3290      17.434965       0.73589
  38     1.782      138.9144        0.0613      156.2324      156.2937      17.379282       1.06011
  37     2.292      138.9450        0.0796      156.1641      156.2437      17.298681       1.33496
  36     2.964      138.9959        0.1035      156.0605      156.1640      17.168107       1.63909
  35     3.853      139.0783        0.1351      155.9041      156.0392      16.960921       1.96624
  34     5.035      139.2026        0.1771      155.6774      155.8544      16.651819       2.20809
  33     6.613      139.3764        0.2330      155.3656      155.5986      16.222267       2.29639
  32     8.786      139.6027        0.3083      154.9577      155.2660      15.663338       2.17068
  31     11.80      139.8971        0.4159      154.4153      154.8312      14.934108       2.04161
  30     15.07      140.1790        0.5313      153.8804      154.4116      14.232642       1.81105
  29     18.79      140.4667        0.6614      153.3191      153.9804      13.513735       1.62998
  28     23.16      140.7672        0.8131      152.7126      153.5256      12.758383       1.46061
  27     28.12      141.0694        0.9863      152.0755      153.0618      11.992366       1.30218
  26     33.73      141.3480        1.1800      151.4409      152.6209      11.272881       1.08176
  25     40.54      141.6156        1.4138      150.7637      152.1774      10.561806       0.88217
  24     48.69      141.8713        1.6953      150.0338      151.7291       9.857865       0.72847
  23     57.69      142.0873        2.0042      149.3151      151.3193       9.232022       0.58663
  22     68.43      142.2747        2.3716      148.5476      150.9192       8.644549       0.46183
  21     81.20      142.4022        2.8091      147.7517      150.5608       8.158596       0.32111
  20     96.49      142.4652        3.3298      146.9127      150.2425       7.777263       0.21047
  19     114.6      142.4946        3.9464      145.9763      149.9226       7.428055       0.16306
  18     136.5      142.4985        4.6743      144.9088      149.5831       7.084541       0.13209
  17     162.9      142.4751        5.5370      143.6785      149.2156       6.740458       0.10998
  16     196.4      142.3842        6.6501      142.1651      148.8152       6.431010       0.07789
  15     218.7      142.3023        7.3775      141.2033      148.5808       6.278571       0.05788
  14     243.0      142.2031        8.1647      140.1753      148.3401       6.137000       0.04910
  13     269.0      142.0849        9.0139      139.0797      148.0936       6.008703       0.04162
  12     297.5      141.9472        9.9272      137.9141      147.8413       5.894064       0.03400
  11     328.5      141.7938       10.9087      136.6676      147.5763       5.782535       0.03032
  10     361.9      141.6244       11.9595      135.3392      147.2986       5.674262       0.02739
   9     398.1      141.4385       13.0834      133.9235      147.0069       5.568376       0.02467
   8     437.6      141.2370       14.2825      132.4163      146.6987       5.461781       0.02279
   7     480.5      141.0194       15.5589      130.8147      146.3736       5.354209       0.02113
   6     533.0      140.7515       17.1177      128.8599      145.9776       5.226149       0.02060
   5     589.8      140.4664       18.7830      126.7679      145.5510       5.084599       0.02101
   4     651.6      140.1701       20.5565      124.5274      145.0840       4.913835       0.02335
   3     718.7      139.8685       22.4398      122.1285      144.5682       4.699758       0.02690
   2     792.3      139.5776       24.4306      119.5548      143.9855       4.407886       0.03347
   1     891.5      139.2627       27.0729      116.0566      143.1295       3.866861       0.04604
   0    1013.0      139.0116       30.1770      111.8404      142.0174       3.005793       0.05979



 Wavenumbers: 22650. - 29000. cm-1, ATM      1
 LEVEL PRESSURE   UPWARD FLUX   DIFDOWN FLUX  DIRDOWN FLUX  DOWNWARD FLUX   NET FLUX    HEATING RATE
          mb          W/m2          W/m2          W/m2        W/m2          W/m2       degree/day
  51    .06700       58.2777        0.0000       59.0156       59.0156       0.737880       0.00000
  50    .07753       58.2776        0.0005       59.0151       59.0155       0.737880      -0.00000
  49    .09103       58.2775        0.0010       59.0144       59.0154       0.737880       0.00000
  48    0.1069       58.2774        0.0017       59.0136       59.0153       0.737880      -0.00000
  47    0.1255       58.2772        0.0025       59.0127       59.0151       0.737880      -0.00000
  46    0.1487       58.2771        0.0034       59.0115       59.0149       0.737880       0.00000
  45    0.1794       58.2768        0.0048       59.0099       59.0147       0.737880       0.00000
  44    0.2165       58.2765        0.0063       59.0080       59.0144       0.737880       0.00000
  43    0.2613       58.2761        0.0082       59.0058       59.0140       0.737880       0.00000
  42    0.3336       58.2755        0.0112       59.0022       59.0134       0.737880      -0.00000
  41    0.4307       58.2747        0.0153       58.9973       59.0126       0.737880      -0.00000
  40    0.5894       58.2734        0.0220       58.9894       59.0113       0.737880       0.00000
  39     1.339       58.2673        0.0534       58.9518       59.0052       0.737880       0.00000
  38     1.782       58.2637        0.0718       58.9297       59.0015       0.737880      -0.00000
  37     2.292       58.2595        0.0932       58.9042       58.9974       0.737880       0.00000
  36     2.964       58.2540        0.1212       58.8706       58.9919       0.737880       0.00000
  35     3.853       58.2467        0.1582       58.8264       58.9846       0.737880       0.00000
  34     5.035       58.2371        0.2074       58.7676       58.9750       0.737880      -0.00000
  33     6.613       58.2243        0.2730       58.6891       58.9621       0.737880       0.00000
  32     8.786       58.2069        0.3614       58.5834       58.9448       0.737880       0.00000
  31     11.80       58.1822        0.4876       58.4324       58.9201       0.737880      -0.00000
  30     15.07       58.1557        0.6229       58.2706       58.8936       0.737880       0.00000
  29     18.79       58.1258        0.7755       58.0882       58.8637       0.737880      -0.00000
  28     23.16       58.0910        0.9532       57.8757       58.8289       0.737880      -0.00000
  27     28.12       58.0513        1.1558       57.6333       58.7892       0.737880       0.00000
  26     33.73       58.0070        1.3818       57.3631       58.7449       0.737880      -0.00000
  25     40.54       57.9537        1.6537       57.0379       58.6916       0.737880       0.00000
  24     48.69       57.8898        1.9798       56.6479       58.6276       0.737880       0.00000
  23     57.69       57.8199        2.3357       56.2221       58.5578       0.737880       0.00000
  22     68.43       57.7374        2.7567       55.7186       58.4752       0.737880       0.00000
  21     81.20       57.6398        3.2538       55.1239       58.3777       0.737880      -0.00000
  20     96.49       57.5247        3.8398       54.4228       58.2626       0.737880      -0.00000
  19     114.6       57.3898        4.5267       53.6010       58.1277       0.737880       0.00000
  18     136.5       57.2322        5.3283       52.6418       57.9701       0.737880       0.00000
  17     162.9       57.0479        6.2654       51.5203       57.7857       0.737880       0.00000
  16     196.4       56.8141        7.4525       50.0994       57.5520       0.737880       0.00000
  15     218.7       56.6638        8.2154       49.1863       57.4016       0.737880       0.00000
  14     243.0       56.5031        9.0297       48.2113       57.2410       0.737880       0.00000
  13     269.0       56.3323        9.8952       47.1749       57.0701       0.737880       0.00000
  12     297.5       56.1513       10.8109       46.0783       56.8892       0.737880      -0.00000
  11     328.5       55.9599       11.7783       44.9195       56.6978       0.737880      -0.00000
  10     361.9       55.7586       12.7947       43.7018       56.4965       0.737880       0.00000
   9     398.1       55.5473       13.8602       42.4250       56.2852       0.737880      -0.00000
   8     437.6       55.3264       14.9726       41.0916       56.0642       0.737880      -0.00000
   7     480.5       55.0962       16.1296       39.7045       55.8341       0.737880       0.00000
   6     533.0       54.8219       17.5055       38.0543       55.5598       0.737880       0.00000
   5     589.8       54.5370       18.9318       36.3431       55.2748       0.737880      -0.00000
   4     651.6       54.2426       20.4009       34.5795       54.9805       0.737880      -0.00000
   3     718.7       53.9398       21.9075       32.7702       54.6777       0.737880       0.00000
   2     792.3       53.6303       23.4426       30.9256       54.3681       0.737880       0.00000
   1     891.5       53.2347       25.3948       28.5778       53.9726       0.737880      -0.00000
   0    1013.0       52.7925       27.5639       25.9665       53.5304       0.737880       0.00000



 Wavenumbers: 29000. - 38000. cm-1, ATM      1
 LEVEL PRESSURE   UPWARD FLUX   DIFDOWN FLUX  DIRDOWN FLUX  DOWNWARD FLUX   NET FLUX    HEATING RATE
          mb          W/m2          W/m2          W/m2        W/m2          W/m2       degree/day
  51    .06700        8.6974        0.0000       20.8114       20.8114      12.114007       0.00000
  50    .07753        8.6972        0.0003       20.8070       20.8074      12.110199       3.05148
  49    .09103        8.6969        0.0007       20.8009       20.8016      12.104662       3.46076
  48    0.1069        8.6967        0.0012       20.7928       20.7939      12.097253       3.94419
  47    0.1255        8.6964        0.0017       20.7820       20.7837      12.087348       4.49022
  46    0.1487        8.6960        0.0024       20.7665       20.7688      12.072785       5.30830
  45    0.1794        8.6956        0.0033       20.7424       20.7457      12.050121       6.22187
  44    0.2165        8.6951        0.0043       20.7103       20.7147      12.019599       6.94321
  43    0.2613        8.6945        0.0056       20.6675       20.6731      11.978606       7.72711
  42    0.3336        8.6936        0.0077       20.5880       20.5956      11.902047       8.92599
  41    0.4307        8.6925        0.0104       20.4722       20.4826      11.790098       9.73373
  40    0.5894        8.6909        0.0147       20.2637       20.2784      11.587421      10.77811
  39     1.339        8.6875        0.0331       19.0984       19.1315      10.443994      12.87291
  38     1.782        8.6879        0.0426       18.4394       18.4820       9.794113      12.37270
  37     2.292        8.6905        0.0529       17.7714       17.8243       9.133828      10.93603
  36     2.964        8.6969        0.0656       17.0421       17.1077       8.410801       9.07618
  35     3.853        8.7095        0.0815       16.2678       16.3493       7.639773       7.31720
  34     5.035        8.7304        0.1016       15.4803       15.5819       6.851502       5.63108
  33     6.613        8.7608        0.1273       14.7157       14.8430       6.082228       4.11254
  32     8.786        8.8009        0.1610       13.9936       14.1546       5.353683       2.82941
  31     11.80        8.8532        0.2080       13.2835       13.4915       4.638252       2.00298
  30     15.07        8.9037        0.2566       12.7394       12.9960       4.092299       1.40955
  29     18.79        8.9558        0.3106       12.2666       12.5772       3.621395       1.06768
  28     23.16        9.0111        0.3720       11.8300       12.2020       3.190841       0.83255
  27     28.12        9.0678        0.4407       11.4279       11.8685       2.800757       0.66312
  26     33.73        9.1200        0.5164       11.0695       11.5858       2.465840       0.50356
  25     40.54        9.1695        0.6069       10.7209       11.3277       2.158274       0.38157
  24     48.69        9.2160        0.7142       10.3742       11.0884       1.872334       0.29590
  23     57.69        9.2541        0.8303       10.0549       10.8852       1.631140       0.22608
  22     68.43        9.2847        0.9666        9.7327       10.6993       1.414653       0.17019
  21     81.20        9.2988        1.1275        9.4134       10.5409       1.242058       0.11405
  20     96.49        9.2946        1.3166        9.0887       10.4053       1.110697       0.07250
  19     114.6        9.2800        1.5350        8.7388       10.2738       0.993789       0.05459
  18     136.5        9.2580        1.7848        8.3549       10.1396       0.881636       0.04313
  17     162.9        9.2287        2.0694        7.9311       10.0005       0.771850       0.03509
  16     196.4        9.1799        2.4218        7.4333        9.8551       0.675243       0.02432
  15     218.7        9.1449        2.6435        7.1295        9.7730       0.628136       0.01788
  14     243.0        9.1066        2.8752        6.8161        9.6912       0.584646       0.01508
  13     269.0        9.0647        3.1160        6.4943        9.6103       0.545603       0.01267
  12     297.5        9.0194        3.3649        6.1657        9.5306       0.511193       0.01021
  11     328.5        8.9721        3.6209        5.8295        9.4504       0.478255       0.00896
  10     361.9        8.9232        3.8815        5.4886        9.3701       0.446938       0.00792
   9     398.1        8.8728        4.1461        5.1440        9.2901       0.417267       0.00691
   8     437.6        8.8215        4.4132        4.7969        9.2101       0.388672       0.00611
   7     480.5        8.7695        4.6807        4.4504        9.1310       0.361537       0.00533
   6     533.0        8.7097        4.9854        4.0563        9.0417       0.331968       0.00476
   5     589.8        8.6506        5.2858        3.6682        8.9539       0.303349       0.00425
   4     651.6        8.5930        5.5779        3.2905        8.8684       0.275362       0.00383
   3     718.7        8.5374        5.8602        2.9252        8.7854       0.247964       0.00344
   2     792.3        8.4846        6.1293        2.5764        8.7058       0.221159       0.00307
   1     891.5        8.4232        6.4454        2.1659        8.6113       0.188084       0.00281
   0    1013.0        8.3633        6.7623        1.7526        8.5148       0.151591       0.00253



 Wavenumbers: 38000. - 50000. cm-1, ATM      1
 LEVEL PRESSURE   UPWARD FLUX   DIFDOWN FLUX  DIRDOWN FLUX  DOWNWARD FLUX   NET FLUX    HEATING RATE
          mb          W/m2          W/m2          W/m2        W/m2          W/m2       degree/day
  51    .06700        0.0061        0.0000        1.2836        1.2836       1.277518       0.00000
  50    .07753        0.0061        0.0001        1.2812        1.2812       1.275183       1.87150
  49    .09103        0.0060        0.0002        1.2777        1.2778       1.271851       2.08247
  48    0.1069        0.0059        0.0002        1.2731        1.2734       1.267473       2.33059
  47    0.1255        0.0058        0.0004        1.2672        1.2675       1.261717       2.60908
  46    0.1487        0.0057        0.0005        1.2586        1.2591       1.253391       3.03499
  45    0.1794        0.0055        0.0007        1.2455        1.2462       1.240623       3.50520
  44    0.2165        0.0054        0.0009        1.2282        1.2291       1.223697       3.85037
  43    0.2613        0.0052        0.0011        1.2054        1.2065       1.201348       4.21261
  42    0.3336        0.0049        0.0015        1.1639        1.1654       1.160524       4.75970
  41    0.4307        0.0045        0.0020        1.1051        1.1070       1.102565       5.03943
  40    0.5894        0.0039        0.0026        1.0039        1.0064       1.002524       5.32007
  39     1.339        0.0022        0.0035        0.5438        0.5473       0.545104       5.14971
  38     1.782        0.0016        0.0032        0.3635        0.3666       0.365006       3.42879
  37     2.292        0.0012        0.0027        0.2356        0.2383       0.237058       2.11916
  36     2.964        0.0009        0.0022        0.1455        0.1477       0.146786       1.13318
  35     3.853        0.0006        0.0017        0.0858        0.0875       0.086906       0.56828
  34     5.035        0.0004        0.0013        0.0488        0.0501       0.049701       0.26578
  33     6.613        0.0003        0.0010        0.0273        0.0282       0.027974       0.11615
  32     8.786        0.0002        0.0007        0.0144        0.0151       0.014928       0.05067
  31     11.80        0.0001        0.0004        0.0065        0.0070       0.006903       0.02247
  30     15.07        0.0000        0.0003        0.0031        0.0034       0.003329       0.00923
  29     18.79        0.0000        0.0002        0.0014        0.0016       0.001583       0.00396
  28     23.16        0.0000        0.0001        0.0006        0.0007       0.000720       0.00167
  27     28.12        0.0000        0.0001        0.0003        0.0003       0.000317       0.00069
  26     33.73        0.0000        0.0000        0.0001        0.0001       0.000140       0.00027
  25     40.54        0.0000        0.0000        0.0000        0.0001       0.000057       0.00010
  24     48.69        0.0000        0.0000        0.0000        0.0000       0.000021       0.00004
  23     57.69        0.0000        0.0000        0.0000        0.0000       0.000008       0.00001
  22     68.43        0.0000        0.0000        0.0000        0.0000       0.000003       0.00000
  21     81.20        0.0000        0.0000        0.0000        0.0000       0.000001       0.00000
  20     96.49        0.0000        0.0000        0.0000        0.0000       0.000000       0.00000
  19     114.6        0.0000        0.0000        0.0000        0.0000       0.000000       0.00000
  18     136.5        0.0000        0.0000        0.0000        0.0000       0.000000       0.00000
  17     162.9        0.0000        0.0000        0.0000        0.0000       0.000000       0.00000
  16     196.4        0.0000        0.0000        0.0000        0.0000       0.000000       0.00000
  15     218.7        0.0000        0.0000        0.0000        0.0000       0.000000       0.00000
  14     243.0        0.0000        0.0000        0.0000        0.0000       0.000000       0.00000
  13     269.0        0.0000        0.0000        0.0000        0.0000       0.000000       0.00000
  12     297.5        0.0000        0.0000        0.0000        0.0000       0.000000       0.00000
  11     328.5        0.0000        0.0000        0.0000        0.0000       0.000000       0.00000
  10     361.9        0.0000        0.0000        0.0000        0.0000       0.000000       0.00000
   9     398.1        0.0000        0.0000        0.0000        0.0000       0.000000       0.00000
   8     437.6        0.0000        0.0000        0.0000        0.0000       0.000000       0.00000
   7     480.5        0.0000        0.0000        0.0000        0.0000       0.000000       0.00000
   6     533.0        0.0000        0.0000        0.0000        0.0000       0.000000       0.00000
   5     589.8        0.0000        0.0000        0.0000        0.0000       0.000000       0.00000
   4     651.6        0.0000        0.0000        0.0000        0.0000       0.000000       0.00000
   3     718.7        0.0000        0.0000        0.0000        0.0000       0.000000       0.00000
   2     792.3        0.0000        0.0000        0.0000        0.0000       0.000000       0.00000
   1     891.5        0.0000        0.0000        0.0000        0.0000       0.000000       0.00000
   0    1013.0        0.0000        0.0000        0.0000        0.0000       0.000000       0.00000



 Wavenumbers:   820. -  2600. cm-1, ATM      1
 LEVEL PRESSURE   UPWARD FLUX   DIFDOWN FLUX  DIRDOWN FLUX  DOWNWARD FLUX   NET FLUX    HEATING RATE
          mb          W/m2          W/m2          W/m2        W/m2          W/m2       degree/day
  51    .06700        0.0119        0.0000        6.0047        6.0047       5.992718       0.00000
  50    .07753        0.0119        0.0000        6.0008        6.0008       5.988865       3.08819
  49    .09103        0.0119        0.0000        5.9999        5.9999       5.987979       0.55356
  48    0.1069        0.0119        0.0000        5.9989        5.9989       5.986990       0.52650
  47    0.1255        0.0119        0.0000        5.9978        5.9978       5.985873       0.50647
  46    0.1487        0.0119        0.0000        5.9964        5.9964       5.984516       0.49454
  45    0.1794        0.0119        0.0000        5.9947        5.9947       5.982797       0.47197
  44    0.2165        0.0119        0.0000        5.9929        5.9929       5.980955       0.41908
  43    0.2613        0.0119        0.0000        5.9909        5.9909       5.978996       0.36930
  42    0.3336        0.0119        0.0000        5.9880        5.9880       5.976118       0.33553
  41    0.4307        0.0119        0.0000        5.9846        5.9846       5.972649       0.30162
  40    0.5894        0.0119        0.0000        5.9791        5.9791       5.967144       0.29273
  39     1.339        0.0119        0.0000        5.9536        5.9536       5.941660       0.28691
  38     1.782        0.0119        0.0000        5.9395        5.9395       5.927523       0.26914
  37     2.292        0.0119        0.0000        5.9237        5.9237       5.911773       0.26085
  36     2.964        0.0119        0.0000        5.9039        5.9039       5.892002       0.24820
  35     3.853        0.0119        0.0000        5.8793        5.8793       5.867348       0.23396
  34     5.035        0.0119        0.0000        5.8487        5.8487       5.836789       0.21830
  33     6.613        0.0119        0.0000        5.8108        5.8108       5.798829       0.20293
  32     8.786        0.0119        0.0000        5.7631        5.7631       5.751211       0.18493
  31     11.80        0.0119        0.0000        5.7039        5.7039       5.691963       0.16588
  30     15.07        0.0119        0.0000        5.6539        5.6539       5.641933       0.12917
  29     18.79        0.0119        0.0000        5.6127        5.6127       5.600806       0.09325
  28     23.16        0.0119        0.0000        5.5794        5.5794       5.567439       0.06452
  27     28.12        0.0119        0.0000        5.5518        5.5518       5.539882       0.04685
  26     33.73        0.0119        0.0000        5.5268        5.5268       5.514838       0.03765
  25     40.54        0.0119        0.0000        5.4993        5.4993       5.487403       0.03404
  24     48.69        0.0119        0.0000        5.4678        5.4678       5.455871       0.03263
  23     57.69        0.0119        0.0000        5.4340        5.4340       5.422091       0.03166
  22     68.43        0.0119        0.0000        5.3947        5.3948       5.382826       0.03087
  21     81.20        0.0119        0.0000        5.3497        5.3497       5.337801       0.02975
  20     96.49        0.0119        0.0000        5.2982        5.2982       5.286298       0.02843
  19     114.6        0.0119        0.0000        5.2389        5.2389       5.226987       0.02769
  18     136.5        0.0119        0.0000        5.1716        5.1717       5.159743       0.02586
  17     162.9        0.0119        0.0000        5.0890        5.0890       5.077127       0.02641
  16     196.4        0.0119        0.0000        4.9668        4.9668       4.954916       0.03076
  15     218.7        0.0119        0.0000        4.8585        4.8585       4.846555       0.04114
  14     243.0        0.0119        0.0000        4.7078        4.7079       4.695940       0.05224
  13     269.0        0.0119        0.0000        4.5343        4.5343       4.522357       0.05631
  12     297.5        0.0119        0.0000        4.3419        4.3420       4.330033       0.05704
  11     328.5        0.0119        0.0000        4.1281        4.1281       4.116201       0.05814
  10     361.9        0.0120        0.0000        3.8786        3.8787       3.866720       0.06312
   9     398.1        0.0120        0.0000        3.6159        3.6159       3.603975       0.06121
   8     437.6        0.0120        0.0000        3.3759        3.3759       3.363889       0.05133
   7     480.5        0.0120        0.0000        3.1957        3.1958       3.183753       0.03538
   6     533.0        0.0121        0.0000        3.0467        3.0467       3.034623       0.02399
   5     589.8        0.0122        0.0000        2.9023        2.9023       2.890160       0.02144
   4     651.6        0.0123        0.0000        2.7183        2.7184       2.706060       0.02518
   3     718.7        0.0125        0.0000        2.5058        2.5059       2.493309       0.02674
   2     792.3        0.0130        0.0000        2.2756        2.2757       2.262660       0.02645
   1     891.5        0.0142        0.0000        1.9621        1.9621       1.947959       0.02678
   0    1013.0        0.0172        0.0000        1.5468        1.5469       1.529702       0.02904

  Modules and versions used in this calculation:

       rrtmg_sw.1col.f90:  $Revision$                    rrtmg_sw_init.f90:  $Revision$        
     rrtmgsw_cldprop.f90:  $Revision$                  rrtmgsw_cldprmc.f90:  NOT USED          
     rrtmg_sw_reftra.f90:  $Revision$                  rrtmg_sw_spcvrt.f90:  NOT USED          
     rrtmg_sw_spcvmc.f90:  NOT USED                    rrtmgsw_setcoef.f90:  NOT USED          
     rrtmg_sw_taumol.f90:  $Revision$                  rrtmg_sw_vrtqdr.f90:  NOT USED          
                rrtatm.f:  NOT USED                             util_xxx.f:  NOT USED          
                 extra.f:  NOT USED                       rrtmg_sw_k_g.f90:  $Revision$        

