

 Wavenumbers:   820. - 50000. cm-1, ATM      1
 LEVEL PRESSURE   UPWARD FLUX   DIFDOWN FLUX  DIRDOWN FLUX  DOWNWARD FLUX   NET FLUX    HEATING RATE
          mb          W/m2          W/m2          W/m2        W/m2          W/m2       degree/day
  51    .06700      360.4586        0.0000      617.8126      617.8126     257.353966       0.00000
  50    .07753      360.4582        0.0013      617.7947      617.7961     257.337831      12.93264
  49    .09103      360.4578        0.0030      617.7778      617.7808     257.323028       9.25241
  48    0.1069      360.4573        0.0050      617.7581      617.7630     257.305774       9.18405
  47    0.1255      360.4567        0.0072      617.7340      617.7412     257.284440       9.67207
  46    0.1487      360.4561        0.0100      617.7009      617.7109     257.254768      10.81564
  45    0.1794      360.4554        0.0138      617.6521      617.6659     257.210558      12.13674
  44    0.2165      360.4546        0.0183      617.5895      617.6078     257.153263      13.03348
  43    0.2613      360.4538        0.0237      617.5089      617.5326     257.078786      14.03876
  42    0.3336      360.4528        0.0325      617.3641      617.3966     256.943764      15.74215
  41    0.4307      360.4519        0.0440      617.1591      617.2032     256.751234      16.74009
  40    0.5894      360.4515        0.0627      616.8005      616.8632     256.411714      18.05525
  39     1.339      360.4671        0.1471      614.9443      615.0913     254.624268      20.12339
  38     1.782      360.4886        0.1945      613.9670      614.1616     253.672958      18.11141
  37     2.292      360.5247        0.2485      613.0059      613.2544     252.729690      15.62297
  36     2.964      360.5890        0.3187      611.9577      612.2764     251.687355      13.08446
  35     3.853      360.6975        0.4108      610.8024      611.2132     250.515697      11.11925
  34     5.035      360.8646        0.5322      609.5327      610.0649     249.200287       9.39674
  33     6.613      361.1003        0.6934      608.1464      608.8399     247.739578       7.80896
  32     8.786      361.4071        0.9097      606.6250      607.5347     246.127598       6.26035
  31     11.80      361.8039        1.2175      604.8486      606.0662     244.262257       5.22237
  30     15.07      362.1810        1.5461      603.2440      604.7900     242.609042       4.26828
  29     18.79      362.5631        1.9157      601.6511      603.5668     241.003737       3.63972
  28     23.16      362.9589        2.3452      599.9927      602.3379     239.378927       3.14186
  27     28.12      363.3525        2.8340      598.2881      601.1220     237.769530       2.73587
  26     33.73      363.7065        3.3789      596.5951      599.9740     236.267528       2.25830
  25     40.54      364.0333        4.0349      594.7727      598.8076     234.774314       1.85250
  24     48.69      364.3297        4.8221      592.7865      597.6086     233.278877       1.54754
  23     57.69      364.5605        5.6825      590.7959      596.4784     231.917905       1.27571
  22     68.43      364.7325        6.7018      588.6191      595.3209     230.588370       1.04519
  21     81.20      364.7945        7.9102      586.2690      594.1792     229.384651       0.79540
  20     96.49      364.7358        9.3408      583.6961      593.0369     228.301153       0.59801
  19     114.6      364.6144       11.0239      580.7708      591.7947     227.180324       0.52335
  18     136.5      364.4262       12.9944      577.4359      590.4303     226.004076       0.45230
  17     162.9      364.1641       15.3066      573.5624      588.8691     224.704925       0.41526
  16     196.4      363.7369       18.2549      568.5907      586.8456     223.108663       0.40180
  15     218.7      363.4269       20.1608      565.0572      585.2181     221.791188       0.50020
  14     243.0      363.0793       22.2049      560.7495      582.9544     219.875141       0.66455
  13     269.0      362.6928       24.3884      555.3947      579.7831     217.090262       0.90340
  12     297.5      362.2684       26.7118      548.9964      575.7082     213.439850       1.08267
  11     328.5      361.8133       29.1817      542.0895      571.2713     209.457986       1.08266
  10     361.9      361.3301       31.7941      534.6242      566.4183     205.088214       1.10560
   9     398.1      360.8216       34.5535      526.4204      560.9739     200.152329       1.14995
   8     437.6      360.2956       37.4585      517.3907      554.8491     194.553550       1.19705
   7     480.5      359.7589       40.5070      507.7216      548.2286     188.469697       1.19485
   6     533.0      359.1478       44.1713      495.9006      540.0719     180.924186       1.21383
   5     589.8      358.5757       48.0156      483.0788      531.0944     172.518660       1.24766
   4     651.6      358.1280       52.0272      468.6907      520.7179     162.589914       1.35778
   3     718.7      357.8934       56.1981      453.2257      509.4238     151.530431       1.38987
   2     792.3      358.0885       60.5065      436.4928      496.9993     138.910828       1.44733
   1     891.5      359.4715       66.0717      413.9344      480.0062     120.534661       1.56372
   0    1013.0      363.8058       72.3999      388.4125      460.8124      97.006573       1.63368



 Wavenumbers:  2600. -  3250. cm-1, ATM      1
 LEVEL PRESSURE   UPWARD FLUX   DIFDOWN FLUX  DIRDOWN FLUX  DOWNWARD FLUX   NET FLUX    HEATING RATE
          mb          W/m2          W/m2          W/m2        W/m2          W/m2       degree/day
  51    .06700        0.0225        0.0000        5.4450        5.4450       5.422489       0.00000
  50    .07753        0.0225        0.0000        5.4450        5.4450       5.422481       0.00640
  49    .09103        0.0225        0.0000        5.4450        5.4450       5.422471       0.00627
  48    0.1069        0.0225        0.0000        5.4450        5.4450       5.422460       0.00613
  47    0.1255        0.0225        0.0000        5.4450        5.4450       5.422446       0.00599
  46    0.1487        0.0225        0.0000        5.4450        5.4450       5.422430       0.00608
  45    0.1794        0.0225        0.0000        5.4450        5.4450       5.422407       0.00625
  44    0.2165        0.0225        0.0000        5.4449        5.4449       5.422380       0.00612
  43    0.2613        0.0225        0.0000        5.4449        5.4449       5.422348       0.00600
  42    0.3336        0.0225        0.0000        5.4448        5.4448       5.422295       0.00617
  41    0.4307        0.0225        0.0000        5.4448        5.4448       5.422224       0.00620
  40    0.5894        0.0225        0.0000        5.4446        5.4446       5.422104       0.00637
  39     1.339        0.0225        0.0000        5.4439        5.4439       5.421397       0.00797
  38     1.782        0.0225        0.0000        5.4434        5.4434       5.420854       0.01034
  37     2.292        0.0225        0.0000        5.4427        5.4427       5.420138       0.01186
  36     2.964        0.0225        0.0000        5.4416        5.4416       5.419099       0.01304
  35     3.853        0.0225        0.0000        5.4402        5.4402       5.417622       0.01402
  34     5.035        0.0225        0.0000        5.4381        5.4381       5.415567       0.01468
  33     6.613        0.0225        0.0000        5.4353        5.4353       5.412786       0.01487
  32     8.786        0.0225        0.0000        5.4317        5.4317       5.409154       0.01411
  31     11.80        0.0225        0.0000        5.4269        5.4269       5.404374       0.01338
  30     15.07        0.0225        0.0000        5.4224        5.4224       5.399848       0.01169
  29     18.79        0.0225        0.0000        5.4180        5.4180       5.395436       0.01000
  28     23.16        0.0225        0.0000        5.4135        5.4135       5.390951       0.00867
  27     28.12        0.0225        0.0000        5.4088        5.4088       5.386304       0.00790
  26     33.73        0.0225        0.0000        5.4036        5.4036       5.381066       0.00788
  25     40.54        0.0225        0.0000        5.3966        5.3967       5.374126       0.00861
  24     48.69        0.0225        0.0000        5.3872        5.3872       5.364653       0.00980
  23     57.69        0.0225        0.0000        5.3754        5.3754       5.352874       0.01104
  22     68.43        0.0225        0.0000        5.3599        5.3599       5.337393       0.01217
  21     81.20        0.0225        0.0000        5.3401        5.3401       5.317570       0.01310
  20     96.49        0.0225        0.0000        5.3155        5.3155       5.293017       0.01355
  19     114.6        0.0225        0.0000        5.2853        5.2853       5.262838       0.01409
  18     136.5        0.0225        0.0000        5.2504        5.2505       5.227956       0.01341
  17     162.9        0.0225        0.0001        5.2111        5.2111       5.188649       0.01256
  16     196.4        0.0225        0.0001        5.1640        5.1641       5.141616       0.01184
  15     218.7        0.0225        0.0001        5.1331        5.1332       5.110698       0.01174
  14     243.0        0.0225        0.0001        5.0962        5.0963       5.073815       0.01279
  13     269.0        0.0225        0.0001        5.0511        5.0512       5.028697       0.01464
  12     297.5        0.0225        0.0001        4.9956        4.9957       4.973210       0.01646
  11     328.5        0.0225        0.0001        4.9304        4.9305       4.907973       0.01774
  10     361.9        0.0225        0.0001        4.8511        4.8512       4.828687       0.02006
   9     398.1        0.0226        0.0001        4.7507        4.7508       4.728248       0.02340
   8     437.6        0.0226        0.0001        4.6220        4.6222       4.599561       0.02751
   7     480.5        0.0227        0.0001        4.4625        4.4626       4.439941       0.03135
   6     533.0        0.0228        0.0002        4.2460        4.2462       4.223395       0.03484
   5     589.8        0.0230        0.0002        3.9954        3.9956       3.972588       0.03723
   4     651.6        0.0233        0.0002        3.7089        3.7090       3.685754       0.03923
   3     718.7        0.0237        0.0002        3.4018        3.4020       3.378264       0.03864
   2     792.3        0.0245        0.0002        3.0564        3.0566       3.032124       0.03970
   1     891.5        0.0262        0.0002        2.5828        2.5830       2.556791       0.04045
   0    1013.0        0.0302        0.0001        2.0845        2.0847       2.054434       0.03488



 Wavenumbers:  3250. -  4000. cm-1, ATM      1
 LEVEL PRESSURE   UPWARD FLUX   DIFDOWN FLUX  DIRDOWN FLUX  DOWNWARD FLUX   NET FLUX    HEATING RATE
          mb          W/m2          W/m2          W/m2        W/m2          W/m2       degree/day
  51    .06700        0.0005        0.0000        9.1795        9.1795       9.179065       0.00000
  50    .07753        0.0005        0.0000        9.1747        9.1747       9.174222       3.88148
  49    .09103        0.0005        0.0000        9.1713        9.1713       9.170834       2.11747
  48    0.1069        0.0005        0.0000        9.1688        9.1688       9.168309       1.34402
  47    0.1255        0.0005        0.0000        9.1665        9.1665       9.166050       1.02422
  46    0.1487        0.0005        0.0000        9.1641        9.1641       9.163609       0.88991
  45    0.1794        0.0005        0.0000        9.1612        9.1612       9.160731       0.79008
  44    0.2165        0.0005        0.0000        9.1583        9.1583       9.157810       0.66430
  43    0.2613        0.0005        0.0000        9.1553        9.1553       9.154837       0.56041
  42    0.3336        0.0005        0.0000        9.1511        9.1511       9.150658       0.48723
  41    0.4307        0.0005        0.0000        9.1464        9.1464       9.145890       0.41459
  40    0.5894        0.0005        0.0000        9.1393        9.1394       9.138884       0.37255
  39     1.339        0.0005        0.0000        9.1127        9.1127       9.112271       0.29962
  38     1.782        0.0005        0.0000        9.1011        9.1011       9.100683       0.22062
  37     2.292        0.0005        0.0000        9.0901        9.0901       9.089616       0.18329
  36     2.964        0.0005        0.0000        9.0776        9.0776       9.077186       0.15603
  35     3.853        0.0005        0.0000        9.0629        9.0629       9.062396       0.14036
  34     5.035        0.0005        0.0000        9.0441        9.0441       9.043657       0.13386
  33     6.613        0.0005        0.0000        9.0191        9.0191       9.018656       0.13366
  32     8.786        0.0005        0.0000        8.9843        8.9843       8.983872       0.13509
  31     11.80        0.0004        0.0000        8.9327        8.9327       8.932256       0.14451
  30     15.07        0.0004        0.0000        8.8758        8.8759       8.875411       0.14676
  29     18.79        0.0004        0.0000        8.8110        8.8110       8.810583       0.14698
  28     23.16        0.0004        0.0000        8.7365        8.7366       8.736139       0.14395
  27     28.12        0.0004        0.0000        8.6554        8.6555       8.655026       0.13789
  26     33.73        0.0004        0.0000        8.5719        8.5719       8.571526       0.12554
  25     40.54        0.0004        0.0001        8.4812        8.4812       8.480802       0.11255
  24     48.69        0.0004        0.0001        8.3838        8.3839       8.383501       0.10069
  23     57.69        0.0004        0.0001        8.2861        8.2862       8.285766       0.09161
  22     68.43        0.0004        0.0001        8.1751        8.1751       8.174769       0.08726
  21     81.20        0.0004        0.0001        8.0457        8.0458       8.045411       0.08548
  20     96.49        0.0003        0.0001        7.8949        7.8950       7.894708       0.08318
  19     114.6        0.0003        0.0001        7.7162        7.7163       7.715998       0.08344
  18     136.5        0.0003        0.0002        7.5193        7.5194       7.519155       0.07569
  17     162.9        0.0003        0.0002        7.2913        7.2915       7.291263       0.07284
  16     196.4        0.0002        0.0002        6.9660        6.9662       6.965991       0.08187
  15     218.7        0.0002        0.0002        6.6648        6.6650       6.664802       0.11435
  14     243.0        0.0002        0.0002        6.2619        6.2622       6.262008       0.13970
  13     269.0        0.0002        0.0003        5.7576        5.7579       5.757709       0.16359
  12     297.5        0.0001        0.0003        5.1719        5.1722       5.172018       0.17371
  11     328.5        0.0001        0.0002        4.5757        4.5760       4.575859       0.16209
  10     361.9        0.0001        0.0002        3.9995        3.9998       3.999684       0.14578
   9     398.1        0.0001        0.0002        3.4655        3.4657       3.465629       0.12442
   8     437.6        0.0001        0.0002        2.9740        2.9742       2.974182       0.10507
   7     480.5        0.0001        0.0002        2.5307        2.5309       2.530811       0.08708
   6     533.0        0.0000        0.0002        2.0614        2.0616       2.061519       0.07549
   5     589.8        0.0000        0.0002        1.6150        1.6151       1.615096       0.06626
   4     651.6        0.0000        0.0001        1.1565        1.1566       1.156564       0.06271
   3     718.7        0.0000        0.0001        0.7390        0.7391       0.739090       0.05246
   2     792.3        0.0000        0.0001        0.3985        0.3985       0.398510       0.03906
   1     891.5        0.0000        0.0000        0.1139        0.1139       0.113929       0.02422
   0    1013.0        0.0002        0.0000        0.0094        0.0094       0.009194       0.00727



 Wavenumbers:  4000. -  4650. cm-1, ATM      1
 LEVEL PRESSURE   UPWARD FLUX   DIFDOWN FLUX  DIRDOWN FLUX  DOWNWARD FLUX   NET FLUX    HEATING RATE
          mb          W/m2          W/m2          W/m2        W/m2          W/m2       degree/day
  51    .06700        0.1674        0.0000       10.7795       10.7795      10.612160       0.00000
  50    .07753        0.1674        0.0000       10.7795       10.7795      10.612159       0.00080
  49    .09103        0.1674        0.0000       10.7795       10.7795      10.612158       0.00078
  48    0.1069        0.1674        0.0000       10.7795       10.7795      10.612157       0.00076
  47    0.1255        0.1674        0.0000       10.7795       10.7795      10.612155       0.00075
  46    0.1487        0.1674        0.0000       10.7795       10.7795      10.612153       0.00076
  45    0.1794        0.1674        0.0000       10.7795       10.7795      10.612150       0.00078
  44    0.2165        0.1674        0.0000       10.7795       10.7795      10.612147       0.00076
  43    0.2613        0.1674        0.0000       10.7795       10.7795      10.612143       0.00075
  42    0.3336        0.1674        0.0000       10.7795       10.7795      10.612136       0.00077
  41    0.4307        0.1674        0.0000       10.7795       10.7795      10.612127       0.00077
  40    0.5894        0.1674        0.0000       10.7795       10.7795      10.612112       0.00080
  39     1.339        0.1674        0.0000       10.7794       10.7794      10.612023       0.00101
  38     1.782        0.1674        0.0000       10.7793       10.7793      10.611953       0.00133
  37     2.292        0.1674        0.0000       10.7792       10.7792      10.611859       0.00156
  36     2.964        0.1674        0.0000       10.7791       10.7791      10.611719       0.00176
  35     3.853        0.1674        0.0000       10.7789       10.7789      10.611511       0.00197
  34     5.035        0.1674        0.0000       10.7786       10.7786      10.611205       0.00219
  33     6.613        0.1674        0.0000       10.7781       10.7781      10.610753       0.00241
  32     8.786        0.1674        0.0000       10.7774       10.7774      10.610088       0.00259
  31     11.80        0.1673        0.0000       10.7763       10.7764      10.609042       0.00293
  30     15.07        0.1673        0.0001       10.7751       10.7751      10.607816       0.00317
  29     18.79        0.1673        0.0001       10.7736       10.7737      10.606333       0.00336
  28     23.16        0.1673        0.0001       10.7717       10.7718      10.604495       0.00356
  27     28.12        0.1673        0.0001       10.7695       10.7696      10.602270       0.00378
  26     33.73        0.1673        0.0001       10.7667       10.7668      10.599529       0.00412
  25     40.54        0.1672        0.0001       10.7629       10.7631      10.595814       0.00461
  24     48.69        0.1672        0.0002       10.7579       10.7581      10.590870       0.00512
  23     57.69        0.1672        0.0002       10.7520       10.7522      10.585016       0.00549
  22     68.43        0.1672        0.0002       10.7446       10.7448      10.577690       0.00576
  21     81.20        0.1671        0.0003       10.7355       10.7358      10.568684       0.00595
  20     96.49        0.1671        0.0003       10.7245       10.7248      10.557749       0.00604
  19     114.6        0.1670        0.0004       10.7107       10.7111      10.544111       0.00637
  18     136.5        0.1669        0.0005       10.6942       10.6947      10.527726       0.00630
  17     162.9        0.1669        0.0006       10.6740       10.6746      10.507714       0.00640
  16     196.4        0.1668        0.0007       10.6464       10.6470      10.480259       0.00691
  15     218.7        0.1667        0.0008       10.6255       10.6262      10.459482       0.00789
  14     243.0        0.1667        0.0008       10.5980       10.5989      10.432204       0.00946
  13     269.0        0.1667        0.0009       10.5611       10.5620      10.395365       0.01195
  12     297.5        0.1666        0.0010       10.5119       10.5130      10.346327       0.01454
  11     328.5        0.1667        0.0011       10.4499       10.4510      10.284351       0.01685
  10     361.9        0.1667        0.0012       10.3702       10.3714      10.204726       0.02015
   9     398.1        0.1668        0.0014       10.2678       10.2691      10.102374       0.02385
   8     437.6        0.1669        0.0015       10.1390       10.1405       9.973603       0.02753
   7     480.5        0.1670        0.0016        9.9877        9.9893       9.822282       0.02972
   6     533.0        0.1673        0.0017        9.7937        9.7954       9.628150       0.03123
   5     589.8        0.1677        0.0019        9.5752        9.5770       9.409373       0.03247
   4     651.6        0.1683        0.0020        9.2958        9.2978       9.129463       0.03828
   3     718.7        0.1695        0.0021        8.9267        8.9289       8.759370       0.04651
   2     792.3        0.1715        0.0022        8.4542        8.4565       8.284973       0.05441
   1     891.5        0.1762        0.0023        7.7948        7.7972       7.620904       0.05651
   0    1013.0        0.1876        0.0024        7.0767        7.0791       6.891491       0.05065



 Wavenumbers:  4650. -  5150. cm-1, ATM      1
 LEVEL PRESSURE   UPWARD FLUX   DIFDOWN FLUX  DIRDOWN FLUX  DOWNWARD FLUX   NET FLUX    HEATING RATE
          mb          W/m2          W/m2          W/m2        W/m2          W/m2       degree/day
  51    .06700        0.0367        0.0000       10.2033       10.2033      10.166626       0.00000
  50    .07753        0.0367        0.0000       10.2031       10.2031      10.166391       0.18901
  49    .09103        0.0367        0.0000       10.2028       10.2028      10.166096       0.18428
  48    0.1069        0.0367        0.0000       10.2025       10.2025      10.165759       0.17931
  47    0.1255        0.0367        0.0000       10.2021       10.2021      10.165375       0.17426
  46    0.1487        0.0367        0.0000       10.2016       10.2016      10.164894       0.17536
  45    0.1794        0.0367        0.0000       10.2010       10.2010      10.164243       0.17850
  44    0.2165        0.0367        0.0000       10.2002       10.2002      10.163484       0.17277
  43    0.2613        0.0367        0.0000       10.1993       10.1993      10.162598       0.16690
  42    0.3336        0.0367        0.0000       10.1979       10.1979      10.161166       0.16702
  41    0.4307        0.0367        0.0000       10.1960       10.1960      10.159326       0.16002
  40    0.5894        0.0367        0.0000       10.1932       10.1932      10.156452       0.15283
  39     1.339        0.0367        0.0000       10.1816       10.1816      10.144860       0.13050
  38     1.782        0.0367        0.0000       10.1760       10.1760      10.139332       0.10525
  37     2.292        0.0367        0.0000       10.1706       10.1706      10.133876       0.09036
  36     2.964        0.0367        0.0000       10.1646       10.1647      10.127954       0.07434
  35     3.853        0.0367        0.0000       10.1584       10.1584      10.121741       0.05896
  34     5.035        0.0367        0.0000       10.1521       10.1521      10.115407       0.04524
  33     6.613        0.0367        0.0000       10.1456       10.1456      10.108954       0.03450
  32     8.786        0.0367        0.0000       10.1386       10.1386      10.101949       0.02720
  31     11.80        0.0367        0.0001       10.1295       10.1296      10.092919       0.02528
  30     15.07        0.0366        0.0001       10.1196       10.1197      10.083054       0.02547
  29     18.79        0.0366        0.0001       10.1076       10.1077      10.071066       0.02718
  28     23.16        0.0366        0.0001       10.0923       10.0924      10.055788       0.02954
  27     28.12        0.0366        0.0002       10.0731       10.0733      10.036729       0.03240
  26     33.73        0.0365        0.0002       10.0500       10.0502      10.013680       0.03465
  25     40.54        0.0365        0.0002       10.0201       10.0203       9.983841       0.03702
  24     48.69        0.0365        0.0003        9.9820        9.9822       9.945759       0.03941
  23     57.69        0.0364        0.0003        9.9384        9.9388       9.902333       0.04071
  22     68.43        0.0364        0.0004        9.8858        9.8861       9.849754       0.04133
  21     81.20        0.0363        0.0004        9.8234        9.8239       9.787572       0.04109
  20     96.49        0.0362        0.0005        9.7518        9.7523       9.716040       0.03948
  19     114.6        0.0361        0.0006        9.6719        9.6725       9.636374       0.03720
  18     136.5        0.0360        0.0007        9.5858        9.5865       9.550459       0.03304
  17     162.9        0.0359        0.0008        9.4940        9.4949       9.458946       0.02925
  16     196.4        0.0358        0.0010        9.3883        9.3893       9.353486       0.02655
  15     218.7        0.0357        0.0011        9.3229        9.3240       9.288324       0.02474
  14     243.0        0.0356        0.0012        9.2520        9.2532       9.217592       0.02453
  13     269.0        0.0355        0.0013        9.1717        9.1730       9.137495       0.02598
  12     297.5        0.0354        0.0015        9.0763        9.0777       9.042339       0.02822
  11     328.5        0.0353        0.0016        8.9650        8.9666       8.931260       0.03020
  10     361.9        0.0352        0.0017        8.8349        8.8366       8.801441       0.03285
   9     398.1        0.0351        0.0019        8.6820        8.6839       8.648773       0.03557
   8     437.6        0.0350        0.0020        8.5028        8.5048       8.469780       0.03827
   7     480.5        0.0350        0.0022        8.2948        8.2970       8.261998       0.04081
   6     533.0        0.0349        0.0023        8.0209        8.0232       7.988275       0.04403
   5     589.8        0.0350        0.0025        7.7063        7.7088       7.673856       0.04667
   4     651.6        0.0351        0.0026        7.3412        7.3438       7.308782       0.04992
   3     718.7        0.0353        0.0027        6.9387        6.9414       6.906072       0.05061
   2     792.3        0.0358        0.0028        6.5066        6.5094       6.473594       0.04960
   1     891.5        0.0370        0.0029        5.9361        5.9390       5.901934       0.04865
   0    1013.0        0.0398        0.0030        5.3025        5.3054       5.265658       0.04418



 Wavenumbers:  5150. -  6150. cm-1, ATM      1
 LEVEL PRESSURE   UPWARD FLUX   DIFDOWN FLUX  DIRDOWN FLUX  DOWNWARD FLUX   NET FLUX    HEATING RATE
          mb          W/m2          W/m2          W/m2        W/m2          W/m2       degree/day
  51    .06700        0.3974        0.0000       25.5798       25.5798      25.182457       0.00000
  50    .07753        0.3974        0.0000       25.5798       25.5798      25.182417       0.03155
  49    .09103        0.3974        0.0000       25.5797       25.5797      25.182366       0.03204
  48    0.1069        0.3974        0.0000       25.5797       25.5797      25.182305       0.03255
  47    0.1255        0.3974        0.0000       25.5796       25.5796      25.182232       0.03305
  46    0.1487        0.3974        0.0000       25.5795       25.5795      25.182137       0.03482
  45    0.1794        0.3974        0.0000       25.5794       25.5794      25.182002       0.03707
  44    0.2165        0.3974        0.0000       25.5792       25.5792      25.181836       0.03763
  43    0.2613        0.3974        0.0000       25.5790       25.5790      25.181633       0.03821
  42    0.3336        0.3974        0.0000       25.5786       25.5786      25.181287       0.04037
  41    0.4307        0.3974        0.0000       25.5782       25.5782      25.180817       0.04091
  40    0.5894        0.3974        0.0000       25.5774       25.5774      25.180028       0.04192
  39     1.339        0.3973        0.0000       25.5735       25.5736      25.176232       0.04274
  38     1.782        0.3973        0.0000       25.5713       25.5713      25.174022       0.04206
  37     2.292        0.3973        0.0001       25.5688       25.5688      25.171523       0.04140
  36     2.964        0.3973        0.0001       25.5656       25.5656      25.168347       0.03986
  35     3.853        0.3973        0.0001       25.5615       25.5616      25.164314       0.03828
  34     5.035        0.3972        0.0001       25.5562       25.5564      25.159121       0.03710
  33     6.613        0.3972        0.0002       25.5494       25.5496      25.152387       0.03600
  32     8.786        0.3972        0.0002       25.5406       25.5408      25.143664       0.03387
  31     11.80        0.3971        0.0003       25.5287       25.5290      25.131875       0.03301
  30     15.07        0.3970        0.0004       25.5167       25.5171      25.120060       0.03050
  29     18.79        0.3969        0.0005       25.5042       25.5046      25.107718       0.02798
  28     23.16        0.3968        0.0006       25.4907       25.4913      25.094436       0.02568
  27     28.12        0.3967        0.0007       25.4764       25.4771      25.080444       0.02379
  26     33.73        0.3966        0.0008       25.4620       25.4629      25.066287       0.02128
  25     40.54        0.3964        0.0010       25.4463       25.4473      25.050842       0.01916
  24     48.69        0.3962        0.0012       25.4294       25.4306      25.034348       0.01707
  23     57.69        0.3960        0.0014       25.4126       25.4140      25.018020       0.01531
  22     68.43        0.3958        0.0017       25.3944       25.3961      25.000341       0.01390
  21     81.20        0.3955        0.0020       25.3744       25.3764      24.980938       0.01282
  20     96.49        0.3952        0.0024       25.3519       25.3543      24.959179       0.01201
  19     114.6        0.3948        0.0028       25.3262       25.3290      24.934266       0.01163
  18     136.5        0.3943        0.0034       25.2962       25.2996      24.905305       0.01114
  17     162.9        0.3937        0.0040       25.2521       25.2561      24.862414       0.01371
  16     196.4        0.3930        0.0048       25.1593       25.1641      24.771159       0.02297
  15     218.7        0.3925        0.0053       25.0159       25.0213      24.628787       0.05405
  14     243.0        0.3920        0.0059       24.7089       24.7148      24.322803       0.10613
  13     269.0        0.3915        0.0064       24.1619       24.1682      23.776768       0.17713
  12     297.5        0.3909        0.0069       23.4544       23.4612      23.070313       0.20953
  11     328.5        0.3904        0.0073       22.7355       22.7428      22.352428       0.19519
  10     361.9        0.3898        0.0078       21.9224       21.9302      21.540410       0.20545
   9     398.1        0.3893        0.0083       20.9939       21.0022      20.612877       0.21609
   8     437.6        0.3888        0.0086       19.9833       19.9920      19.603208       0.21587
   7     480.5        0.3883        0.0090       18.9483       18.9573      18.569023       0.20311
   6     533.0        0.3878        0.0094       17.7796       17.7890      17.401195       0.18787
   5     589.8        0.3874        0.0097       16.6726       16.6823      16.294891       0.16421
   4     651.6        0.3874        0.0101       15.6343       15.6444      15.257001       0.14193
   3     718.7        0.3879        0.0105       14.7738       14.7843      14.396387       0.10816
   2     792.3        0.3895        0.0110       14.0291       14.0401      13.650596       0.08553
   1     891.5        0.3947        0.0116       13.0822       13.0938      12.699136       0.08096
   0    1013.0        0.4108        0.0121       12.0384       12.0505      11.639730       0.07356



 Wavenumbers:  6150. -  7700. cm-1, ATM      1
 LEVEL PRESSURE   UPWARD FLUX   DIFDOWN FLUX  DIRDOWN FLUX  DOWNWARD FLUX   NET FLUX    HEATING RATE
          mb          W/m2          W/m2          W/m2        W/m2          W/m2       degree/day
  51    .06700        1.3223        0.0000       47.3109       47.3109      45.988548       0.00000
  50    .07753        1.3223        0.0000       47.3108       47.3108      45.988491       0.04553
  49    .09103        1.3223        0.0000       47.3107       47.3107      45.988418       0.04583
  48    0.1069        1.3223        0.0000       47.3106       47.3106      45.988331       0.04614
  47    0.1255        1.3223        0.0000       47.3105       47.3105      45.988229       0.04645
  46    0.1487        1.3223        0.0000       47.3104       47.3104      45.988095       0.04852
  45    0.1794        1.3223        0.0000       47.3102       47.3102      45.987909       0.05127
  44    0.2165        1.3223        0.0000       47.3100       47.3100      45.987682       0.05167
  43    0.2613        1.3223        0.0000       47.3097       47.3097      45.987405       0.05210
  42    0.3336        1.3223        0.0000       47.3092       47.3092      45.986936       0.05471
  41    0.4307        1.3223        0.0000       47.3085       47.3086      45.986301       0.05521
  40    0.5894        1.3223        0.0001       47.3074       47.3075      45.985242       0.05633
  39     1.339        1.3222        0.0001       47.3022       47.3023      45.980149       0.05733
  38     1.782        1.3221        0.0002       47.2991       47.2993      45.977179       0.05655
  37     2.292        1.3221        0.0002       47.2956       47.2959      45.973803       0.05591
  36     2.964        1.3220        0.0003       47.2912       47.2915      45.969485       0.05421
  35     3.853        1.3219        0.0004       47.2855       47.2859      45.963951       0.05252
  34     5.035        1.3218        0.0005       47.2780       47.2786      45.956770       0.05129
  33     6.613        1.3216        0.0007       47.2683       47.2690      45.947383       0.05019
  32     8.786        1.3214        0.0009       47.2556       47.2565      45.935084       0.04776
  31     11.80        1.3211        0.0013       47.2380       47.2393      45.918181       0.04732
  30     15.07        1.3208        0.0016       47.2201       47.2217      45.900894       0.04463
  29     18.79        1.3204        0.0020       47.2008       47.2028      45.882416       0.04190
  28     23.16        1.3200        0.0025       47.1795       47.1820      45.862028       0.03942
  27     28.12        1.3194        0.0030       47.1565       47.1595      45.840036       0.03738
  26     33.73        1.3189        0.0036       47.1324       47.1360      45.817118       0.03446
  25     40.54        1.3182        0.0043       47.1054       47.1097      45.791485       0.03180
  24     48.69        1.3174        0.0052       47.0754       47.0806      45.763237       0.02923
  23     57.69        1.3164        0.0061       47.0449       47.0511      45.734622       0.02682
  22     68.43        1.3154        0.0073       47.0110       47.0183      45.702895       0.02494
  21     81.20        1.3141        0.0086       46.9729       46.9815      45.667413       0.02345
  20     96.49        1.3125        0.0102       46.9294       46.9396      45.627091       0.02226
  19     114.6        1.3107        0.0121       46.8790       46.8912      45.580484       0.02176
  18     136.5        1.3085        0.0144       46.8200       46.8344      45.525901       0.02099
  17     162.9        1.3059        0.0171       46.7361       46.7532      45.447352       0.02511
  16     196.4        1.3025        0.0206       46.5703       46.5908      45.288340       0.04003
  15     218.7        1.3003        0.0228       46.3473       46.3701      45.069811       0.08297
  14     243.0        1.2980        0.0251       45.9299       45.9550      44.657040       0.14316
  13     269.0        1.2955        0.0274       45.1708       45.1982      43.902700       0.24470
  12     297.5        1.2930        0.0296       44.0115       44.0411      42.748090       0.34244
  11     328.5        1.2904        0.0318       42.7242       42.7560      41.465604       0.34870
  10     361.9        1.2878        0.0340       41.3539       41.3879      40.100092       0.34549
   9     398.1        1.2853        0.0361       39.7953       39.8313      38.546048       0.36206
   8     437.6        1.2828        0.0379       37.9948       38.0327      36.749824       0.38404
   7     480.5        1.2806        0.0395       36.0647       36.1043      34.823633       0.37830
   6     533.0        1.2786        0.0412       33.7773       33.8185      32.539884       0.36738
   5     589.8        1.2776        0.0425       31.4082       31.4507      30.173135       0.35130
   4     651.6        1.2787        0.0433       28.8834       28.9267      27.647977       0.34532
   3     718.7        1.2836        0.0439       26.4104       26.4542      25.170611       0.31134
   2     792.3        1.2956        0.0441       24.0056       24.0497      22.754108       0.27715
   1     891.5        1.3300        0.0441       21.2348       21.2789      19.948888       0.23871
   0    1013.0        1.4276        0.0442       18.6150       18.6593      17.231651       0.18867



 Wavenumbers:  7700. -  8050. cm-1, ATM      1
 LEVEL PRESSURE   UPWARD FLUX   DIFDOWN FLUX  DIRDOWN FLUX  DOWNWARD FLUX   NET FLUX    HEATING RATE
          mb          W/m2          W/m2          W/m2        W/m2          W/m2       degree/day
  51    .06700        2.7537        0.0000       11.1810       11.1810       8.427244       0.00000
  50    .07753        2.7537        0.0000       11.1809       11.1809       8.427224       0.01567
  49    .09103        2.7537        0.0000       11.1809       11.1809       8.427200       0.01535
  48    0.1069        2.7537        0.0000       11.1809       11.1809       8.427171       0.01503
  47    0.1255        2.7537        0.0000       11.1809       11.1809       8.427139       0.01471
  46    0.1487        2.7537        0.0000       11.1808       11.1808       8.427098       0.01492
  45    0.1794        2.7537        0.0000       11.1808       11.1808       8.427042       0.01536
  44    0.2165        2.7537        0.0000       11.1807       11.1807       8.426976       0.01506
  43    0.2613        2.7537        0.0000       11.1806       11.1806       8.426897       0.01478
  42    0.3336        2.7538        0.0000       11.1805       11.1805       8.426768       0.01513
  41    0.4307        2.7538        0.0000       11.1803       11.1804       8.426596       0.01496
  40    0.5894        2.7538        0.0000       11.1801       11.1801       8.426315       0.01494
  39     1.339        2.7539        0.0001       11.1788       11.1789       8.424985       0.01497
  38     1.782        2.7539        0.0001       11.1781       11.1781       8.424205       0.01486
  37     2.292        2.7540        0.0001       11.1772       11.1773       8.423301       0.01497
  36     2.964        2.7541        0.0001       11.1761       11.1762       8.422114       0.01489
  35     3.853        2.7542        0.0002       11.1746       11.1748       8.420547       0.01487
  34     5.035        2.7544        0.0002       11.1726       11.1728       8.418466       0.01487
  33     6.613        2.7546        0.0003       11.1700       11.1703       8.415686       0.01486
  32     8.786        2.7549        0.0004       11.1664       11.1668       8.411942       0.01454
  31     11.80        2.7553        0.0006       11.1613       11.1619       8.406592       0.01498
  30     15.07        2.7557        0.0007       11.1558       11.1566       8.400855       0.01481
  29     18.79        2.7562        0.0009       11.1497       11.1506       8.394383       0.01467
  28     23.16        2.7568        0.0011       11.1425       11.1436       8.386838       0.01459
  27     28.12        2.7574        0.0013       11.1343       11.1356       8.378228       0.01464
  26     33.73        2.7582        0.0016       11.1252       11.1268       8.368617       0.01445
  25     40.54        2.7591        0.0019       11.1142       11.1161       8.357043       0.01436
  24     48.69        2.7602        0.0023       11.1010       11.1033       8.343142       0.01438
  23     57.69        2.7614        0.0027       11.0866       11.0893       8.327942       0.01425
  22     68.43        2.7628        0.0032       11.0695       11.0727       8.309934       0.01416
  21     81.20        2.7646        0.0038       11.0494       11.0532       8.288616       0.01409
  20     96.49        2.7666        0.0045       11.0255       11.0300       8.263405       0.01391
  19     114.6        2.7692        0.0054       10.9975       11.0029       8.233738       0.01385
  18     136.5        2.7722        0.0063       10.9648       10.9711       8.198940       0.01338
  17     162.9        2.7758        0.0075       10.9263       10.9338       8.157999       0.01309
  16     196.4        2.7807        0.0091       10.8773       10.8863       8.105668       0.01317
  15     218.7        2.7839        0.0101       10.8455       10.8556       8.071720       0.01289
  14     243.0        2.7875        0.0111       10.8114       10.8226       8.035138       0.01269
  13     269.0        2.7914        0.0123       10.7749       10.7872       7.995798       0.01276
  12     297.5        2.7958        0.0136       10.7357       10.7493       7.953523       0.01254
  11     328.5        2.8006        0.0150       10.6937       10.7087       7.908066       0.01236
  10     361.9        2.8060        0.0164       10.6489       10.6653       7.859258       0.01235
   9     398.1        2.8121        0.0180       10.6008       10.6188       7.806703       0.01224
   8     437.6        2.8189        0.0197       10.5491       10.5688       7.749908       0.01214
   7     480.5        2.8265        0.0215       10.4934       10.5149       7.688415       0.01208
   6     533.0        2.8366        0.0237       10.4243       10.4480       7.611434       0.01238
   5     589.8        2.8484        0.0261       10.3479       10.3740       7.525623       0.01274
   4     651.6        2.8627        0.0286       10.2613       10.2900       7.427332       0.01344
   3     718.7        2.8803        0.0313       10.1618       10.1931       7.312783       0.01440
   2     792.3        2.9029        0.0342       10.0439       10.0781       7.175162       0.01578
   1     891.5        2.9413        0.0379        9.8626        9.9005       6.959216       0.01838
   0    1013.0        3.0026        0.0422        9.6103        9.6525       6.649917       0.02148



 Wavenumbers:  8050. - 12850. cm-1, ATM      1
 LEVEL PRESSURE   UPWARD FLUX   DIFDOWN FLUX  DIRDOWN FLUX  DOWNWARD FLUX   NET FLUX    HEATING RATE
          mb          W/m2          W/m2          W/m2        W/m2          W/m2       degree/day
  51    .06700       74.7788        0.0000      156.5418      156.5418      81.762914       0.00000
  50    .07753       74.7788        0.0000      156.5417      156.5417      81.762914      -0.00000
  49    .09103       74.7788        0.0001      156.5417      156.5417      81.762914       0.00000
  48    0.1069       74.7788        0.0001      156.5416      156.5417      81.762914      -0.00000
  47    0.1255       74.7788        0.0002      156.5415      156.5417      81.762914       0.00000
  46    0.1487       74.7787        0.0002      156.5414      156.5416      81.762914      -0.00000
  45    0.1794       74.7787        0.0003      156.5413      156.5416      81.762914       0.00000
  44    0.2165       74.7786        0.0004      156.5412      156.5416      81.762914      -0.00000
  43    0.2613       74.7786        0.0005      156.5410      156.5415      81.762914       0.00000
  42    0.3336       74.7785        0.0007      156.5407      156.5414      81.762914       0.00000
  41    0.4307       74.7784        0.0010      156.5403      156.5413      81.762914      -0.00000
  40    0.5894       74.7782        0.0014      156.5397      156.5411      81.762914       0.00000
  39     1.339       74.7772        0.0034      156.5367      156.5401      81.762914      -0.00000
  38     1.782       74.7766        0.0046      156.5350      156.5396      81.762914      -0.00000
  37     2.292       74.7760        0.0059      156.5330      156.5389      81.762914       0.00000
  36     2.964       74.7751        0.0077      156.5303      156.5380      81.762914       0.00000
  35     3.853       74.7740        0.0101      156.5268      156.5369      81.762914      -0.00000
  34     5.035       74.7725        0.0132      156.5222      156.5354      81.762914       0.00000
  33     6.613       74.7705        0.0174      156.5160      156.5334      81.762914      -0.00000
  32     8.786       74.7678        0.0230      156.5076      156.5307      81.762914      -0.00000
  31     11.80       74.7639        0.0311      156.4957      156.5268      81.762914       0.00000
  30     15.07       74.7597        0.0398      156.4828      156.5226      81.762914       0.00000
  29     18.79       74.7550        0.0497      156.4682      156.5179      81.762914      -0.00000
  28     23.16       74.7494        0.0612      156.4512      156.5124      81.762914      -0.00000
  27     28.12       74.7431        0.0743      156.4317      156.5060      81.762914      -0.00000
  26     33.73       74.7360        0.0891      156.4099      156.4989      81.762914       0.00000
  25     40.54       74.7274        0.1069      156.3834      156.4903      81.762914       0.00000
  24     48.69       74.7171        0.1285      156.3515      156.4800      81.762914      -0.00000
  23     57.69       74.7057        0.1522      156.3164      156.4686      81.762914       0.00000
  22     68.43       74.6921        0.1804      156.2746      156.4550      81.762914      -0.00000
  21     81.20       74.6758        0.2142      156.2246      156.4387      81.762914      -0.00000
  20     96.49       74.6564        0.2544      156.1649      156.4194      81.762914       0.00000
  19     114.6       74.6335        0.3023      156.0879      156.3903      81.756740       0.00288
  18     136.5       74.6063        0.3592      155.9962      156.3554      81.749076       0.00295
  17     162.9       74.5738        0.4271      155.8831      156.3101      81.736346       0.00407
  16     196.4       74.5316        0.5154      155.7199      156.2353      81.703663       0.00823
  15     218.7       74.5040        0.5734      155.5733      156.1467      81.642678       0.02315
  14     243.0       74.4743        0.6365      155.3367      155.9731      81.498791       0.04990
  13     269.0       74.4431        0.7046      154.9514      155.6561      81.212988       0.09271
  12     297.5       74.4111        0.7780      154.3896      155.1676      80.756562       0.13537
  11     328.5       74.3788        0.8571      153.7151      154.5722      80.193417       0.15312
  10     361.9       74.3474        0.9419      152.9087      153.8507      79.503297       0.17461
   9     398.1       74.3188        1.0326      151.8986      152.9312      78.612451       0.20755
   8     437.6       74.2964        1.1290      150.6031      151.7321      77.435790       0.25158
   7     480.5       74.2841        1.2308      149.0014      150.2322      75.948038       0.29219
   6     533.0       74.2913        1.3537      146.7375      148.0912      73.799943       0.34556
   5     589.8       74.3397        1.4822      143.8730      145.3552      71.015547       0.41330
   4     651.6       74.4764        1.6137      140.0955      141.7093      67.232825       0.51730
   3     718.7       74.7625        1.7469      135.5278      137.2747      62.512213       0.59325
   2     792.3       75.3317        1.8784      130.0690      131.9474      56.615778       0.67626
   1     891.5       76.7991        2.0369      122.1273      124.1642      47.365166       0.78718
   0    1013.0       80.4136        2.2064      112.9512      115.1576      34.743980       0.87635



 Wavenumbers: 12850. - 16000. cm-1, ATM      1
 LEVEL PRESSURE   UPWARD FLUX   DIFDOWN FLUX  DIRDOWN FLUX  DOWNWARD FLUX   NET FLUX    HEATING RATE
          mb          W/m2          W/m2          W/m2        W/m2          W/m2       degree/day
  51    .06700       75.7785        0.0000       98.0872       98.0872      22.308776       0.00000
  50    .07753       75.7785        0.0001       98.0864       98.0864      22.307985       0.63384
  49    .09103       75.7785        0.0002       98.0853       98.0854      22.306992       0.62068
  48    0.1069       75.7785        0.0003       98.0841       98.0843      22.305851       0.60725
  47    0.1255       75.7785        0.0004       98.0826       98.0830      22.304541       0.59410
  46    0.1487       75.7785        0.0005       98.0809       98.0814      22.302887       0.60271
  45    0.1794       75.7785        0.0007       98.0784       98.0792      22.300639       0.61735
  44    0.2165       75.7786        0.0010       98.0756       98.0766      22.297994       0.60159
  43    0.2613       75.7787        0.0012       98.0723       98.0736      22.294885       0.58603
  42    0.3336       75.7789        0.0017       98.0670       98.0687      22.289813       0.59137
  41    0.4307       75.7792        0.0023       98.0602       98.0625      22.283257       0.57003
  40    0.5894       75.7800        0.0033       98.0496       98.0529      22.272934       0.54898
  39     1.339       75.7861        0.0080       98.0043       98.0124      22.226285       0.52518
  38     1.782       75.7917        0.0108       97.9793       97.9901      22.198363       0.53159
  37     2.292       75.8002        0.0140       97.9498       97.9638      22.163644       0.57504
  36     2.964       75.8141        0.0182       97.9088       97.9271      22.112927       0.63665
  35     3.853       75.8367        0.0238       97.8503       97.8742      22.037466       0.71613
  34     5.035       75.8707        0.0312       97.7680       97.7992      21.928524       0.77824
  33     6.613       75.9181        0.0411       97.6562       97.6973      21.779137       0.79862
  32     8.786       75.9799        0.0544       97.5107       97.5651      21.585130       0.75345
  31     11.80       76.0603        0.0734       97.3179       97.3912      21.330907       0.71174
  30     15.07       76.1374        0.0938       97.1283       97.2221      21.084727       0.63559
  29     18.79       76.2160        0.1168       96.9300       97.0468      20.830776       0.57579
  28     23.16       76.2982        0.1436       96.7166       96.8602      20.561959       0.51981
  27     28.12       76.3810        0.1743       96.4935       96.6678      20.286819       0.46772
  26     33.73       76.4574        0.2086       96.2731       96.4817      20.024288       0.39472
  25     40.54       76.5311        0.2501       96.0408       96.2909      19.759741       0.32820
  24     48.69       76.6018        0.3001       95.7946       96.0947      19.492835       0.27621
  23     57.69       76.6619        0.3550       95.5573       95.9123      19.250408       0.22724
  22     68.43       76.7144        0.4205       95.3106       95.7311      19.016742       0.18369
  21     81.20       76.7507        0.4986       95.0643       95.5629      18.812202       0.13516
  20     96.49       76.7699        0.5918       94.8153       95.4070      18.637151       0.09662
  19     114.6       76.7940        0.7036       94.5411       95.2446      18.450589       0.08711
  18     136.5       76.8115        0.8361       94.2320       95.0681      18.256575       0.07460
  17     162.9       76.8222        0.9939       93.8753       94.8692      18.047024       0.06698
  16     196.4       76.8143        1.1985       93.4347       94.6331      17.818873       0.05743
  15     218.7       76.8013        1.3329       93.1513       94.4841      17.682857       0.05164
  14     243.0       76.7838        1.4789       92.8439       94.3229      17.539087       0.04986
  13     269.0       76.7616        1.6372       92.5111       94.1483      17.386721       0.04943
  12     297.5       76.7351        1.8082       92.1495       93.9577      17.222562       0.04869
  11     328.5       76.7062        1.9930       91.7554       93.7484      17.042172       0.04905
  10     361.9       76.6756        2.1919       91.3262       93.5182      16.842589       0.05050
   9     398.1       76.6443        2.4060       90.8575       93.2636      16.619261       0.05203
   8     437.6       76.6149        2.6358       90.3418       92.9776      16.362761       0.05484
   7     480.5       76.5896        2.8820       89.7728       92.6548      16.065221       0.05844
   6     533.0       76.5710        3.1847       89.0428       92.2275      15.656532       0.06575
   5     589.8       76.5749        3.5101       88.2038       91.7139      15.139017       0.07682
   4     651.6       76.6287        3.8579       87.1979       91.0559      14.427173       0.09735
   3     718.7       76.7503        4.2265       86.0161       90.2427      13.492389       0.11748
   2     792.3       76.9977        4.6122       84.5970       89.2092      12.211482       0.14691
   1     891.5       77.6096        5.1141       82.4374       87.5515       9.941939       0.19313
   0    1013.0       78.9006        5.6903       79.6182       85.3085       6.407840       0.24539



 Wavenumbers: 16000. - 22650. cm-1, ATM      1
 LEVEL PRESSURE   UPWARD FLUX   DIFDOWN FLUX  DIRDOWN FLUX  DOWNWARD FLUX   NET FLUX    HEATING RATE
          mb          W/m2          W/m2          W/m2        W/m2          W/m2       degree/day
  51    .06700      138.3605        0.0000      156.3892      156.3892      18.028734       0.00000
  50    .07753      138.3605        0.0004      156.3887      156.3891      18.028587       0.11721
  49    .09103      138.3605        0.0009      156.3879      156.3888      18.028375       0.13295
  48    0.1069      138.3604        0.0015      156.3871      156.3885      18.028090       0.15160
  47    0.1255      138.3605        0.0021      156.3861      156.3882      18.027709       0.17281
  46    0.1487      138.3605        0.0029      156.3847      156.3876      18.027147       0.20477
  45    0.1794      138.3606        0.0041      156.3828      156.3869      18.026269       0.24111
  44    0.2165      138.3608        0.0054      156.3805      156.3859      18.025078       0.27097
  43    0.2613      138.3611        0.0070      156.3776      156.3846      18.023461       0.30464
  42    0.3336      138.3618        0.0096      156.3726      156.3822      18.020389       0.35825
  41    0.4307      138.3630        0.0131      156.3657      156.3788      18.015757       0.40271
  40    0.5894      138.3655        0.0187      156.3537      156.3724      18.006924       0.46975
  39     1.339      138.3873        0.0455      156.2834      156.3289      17.941662       0.73473
  38     1.782      138.4075        0.0613      156.2324      156.2936      17.886067       1.05844
  37     2.292      138.4380        0.0795      156.1641      156.2436      17.805593       1.33286
  36     2.964      138.4886        0.1034      156.0605      156.1639      17.675225       1.63651
  35     3.853      138.5706        0.1349      155.9041      156.0390      17.468366       1.96313
  34     5.035      138.6944        0.1768      155.6774      155.8542      17.159754       2.20460
  33     6.613      138.8674        0.2327      155.3656      155.5983      16.730883       2.29274
  32     8.786      139.0927        0.3079      154.9577      155.2656      16.172844       2.16722
  31     11.80      139.3858        0.4153      154.4153      154.8306      15.444780       2.03835
  30     15.07      139.6665        0.5305      153.8804      154.4109      14.744440       1.80814
  29     18.79      139.9528        0.6604      153.3191      153.9795      14.026694       1.62735
  28     23.16      140.2519        0.8119      152.7126      153.5245      13.272567       1.45824
  27     28.12      140.5526        0.9849      152.0755      153.0604      12.507800       1.30005
  26     33.73      140.8297        1.1783      151.4409      152.6192      11.789495       1.07999
  25     40.54      141.0958        1.4117      150.7637      152.1754      11.079592       0.88072
  24     48.69      141.3499        1.6929      150.0338      151.7267      10.376818       0.72726
  23     57.69      141.5644        2.0013      149.3151      151.3164       9.752018       0.58566
  22     68.43      141.7503        2.3682      148.5476      150.9158       9.165530       0.46106
  21     81.20      141.8763        2.8050      147.7517      150.5567       8.680395       0.32057
  20     96.49      141.9380        3.3250      146.9127      150.2377       8.299708       0.21011
  19     114.6      141.9658        3.9406      145.9763      149.9169       7.951097       0.16278
  18     136.5      141.9681        4.6675      144.9088      149.5762       7.608174       0.13186
  17     162.9      141.9428        5.5289      143.6785      149.2074       7.264687       0.10979
  16     196.4      141.8496        6.6403      142.1651      148.8054       6.955778       0.07776
  15     218.7      141.7663        7.3665      141.2033      148.5699       6.803608       0.05777
  14     243.0      141.6656        8.1525      140.1753      148.3279       6.662286       0.04901
  13     269.0      141.5459        9.0004      139.0797      148.0801       6.534216       0.04155
  12     297.5      141.4065        9.9122      137.9141      147.8263       6.419780       0.03394
  11     328.5      141.2513       10.8922      136.6676      147.5598       6.308450       0.03027
  10     361.9      141.0800       11.9412      135.3392      147.2804       6.200370       0.02735
   9     398.1      140.8921       13.0633      133.9235      146.9868       6.094672       0.02463
   8     437.6      140.6884       14.2604      132.4163      146.6767       5.988266       0.02275
   7     480.5      140.4685       15.5347      130.8147      146.3493       5.880885       0.02109
   6     533.0      140.1977       17.0908      128.8599      145.9507       5.753050       0.02056
   5     589.8      139.9095       18.7533      126.7679      145.5212       5.611746       0.02097
   4     651.6      139.6098       20.5236      124.5274      145.0510       5.441276       0.02331
   3     718.7      139.3043       22.4034      122.1285      144.5319       5.227566       0.02686
   2     792.3      139.0093       24.3906      119.5548      143.9455       4.936201       0.03342
   1     891.5      138.6883       27.0279      116.0566      143.0845       4.396150       0.04596
   0    1013.0      138.4295       30.1258      111.8404      141.9662       3.536731       0.05967



 Wavenumbers: 22650. - 29000. cm-1, ATM      1
 LEVEL PRESSURE   UPWARD FLUX   DIFDOWN FLUX  DIRDOWN FLUX  DOWNWARD FLUX   NET FLUX    HEATING RATE
          mb          W/m2          W/m2          W/m2        W/m2          W/m2       degree/day
  51    .06700       58.1468        0.0000       59.0156       59.0156       0.868761       0.00000
  50    .07753       58.1468        0.0005       59.0151       59.0155       0.868761       0.00000
  49    .09103       58.1466        0.0010       59.0144       59.0154       0.868761      -0.00000
  48    0.1069       58.1465        0.0017       59.0136       59.0153       0.868761      -0.00000
  47    0.1255       58.1464        0.0025       59.0127       59.0151       0.868761       0.00000
  46    0.1487       58.1462        0.0034       59.0115       59.0149       0.868761      -0.00000
  45    0.1794       58.1459        0.0048       59.0099       59.0147       0.868761       0.00000
  44    0.2165       58.1456        0.0063       59.0080       59.0144       0.868761       0.00000
  43    0.2613       58.1452        0.0082       59.0058       59.0140       0.868761      -0.00000
  42    0.3336       58.1446        0.0112       59.0022       59.0134       0.868761       0.00000
  41    0.4307       58.1438        0.0153       58.9973       59.0126       0.868761      -0.00000
  40    0.5894       58.1425        0.0219       58.9894       59.0113       0.868761       0.00000
  39     1.339       58.1363        0.0533       58.9518       59.0051       0.868761       0.00000
  38     1.782       58.1327        0.0718       58.9297       59.0015       0.868761      -0.00000
  37     2.292       58.1285        0.0931       58.9042       58.9973       0.868761       0.00000
  36     2.964       58.1230        0.1211       58.8706       58.9918       0.868761      -0.00000
  35     3.853       58.1157        0.1581       58.8264       58.9845       0.868761      -0.00000
  34     5.035       58.1060        0.2072       58.7676       58.9748       0.868761       0.00000
  33     6.613       58.0931        0.2728       58.6891       58.9619       0.868761      -0.00000
  32     8.786       58.0757        0.3611       58.5834       58.9445       0.868761       0.00000
  31     11.80       58.0509        0.4872       58.4324       58.9197       0.868761       0.00000
  30     15.07       58.0243        0.6224       58.2706       58.8930       0.868761      -0.00000
  29     18.79       57.9942        0.7748       58.0882       58.8630       0.868761       0.00000
  28     23.16       57.9593        0.9523       57.8757       58.8280       0.868761      -0.00000
  27     28.12       57.9194        1.1548       57.6333       58.7881       0.868761       0.00000
  26     33.73       57.8748        1.3805       57.3631       58.7436       0.868761      -0.00000
  25     40.54       57.8213        1.6522       57.0379       58.6901       0.868761       0.00000
  24     48.69       57.7570        1.9779       56.6479       58.6258       0.868761       0.00000
  23     57.69       57.6869        2.3336       56.2221       58.5557       0.868761       0.00000
  22     68.43       57.6039        2.7541       55.7186       58.4727       0.868761       0.00000
  21     81.20       57.5059        3.2507       55.1239       58.3746       0.868761      -0.00000
  20     96.49       57.3902        3.8362       54.4228       58.2590       0.868761      -0.00000
  19     114.6       57.2546        4.5224       53.6010       58.1234       0.868761       0.00000
  18     136.5       57.0962        5.3232       52.6418       57.9650       0.868761      -0.00000
  17     162.9       56.9109        6.2593       51.5203       57.7797       0.868761       0.00000
  16     196.4       56.6759        7.4452       50.0994       57.5446       0.868761      -0.00000
  15     218.7       56.5247        8.2072       49.1863       57.3935       0.868761       0.00000
  14     243.0       56.3632        9.0207       48.2113       57.2319       0.868761      -0.00000
  13     269.0       56.1913        9.8851       47.1749       57.0601       0.868761      -0.00000
  12     297.5       56.0093       10.7998       46.0783       56.8780       0.868761       0.00000
  11     328.5       55.8168       11.7660       44.9195       56.6855       0.868761       0.00000
  10     361.9       55.6142       12.7811       43.7018       56.4829       0.868761       0.00000
   9     398.1       55.4015       13.8452       42.4250       56.2703       0.868761      -0.00000
   8     437.6       55.1791       14.9562       41.0916       56.0479       0.868761       0.00000
   7     480.5       54.9473       16.1116       39.7045       55.8161       0.868761       0.00000
   6     533.0       54.6711       17.4856       38.0543       55.5399       0.868761       0.00000
   5     589.8       54.3840       18.9097       36.3431       55.2528       0.868761       0.00000
   4     651.6       54.0873       20.3765       34.5795       54.9561       0.868761       0.00000
   3     718.7       53.7821       21.8806       32.7702       54.6508       0.868761       0.00000
   2     792.3       53.4697       23.4129       30.9256       54.3385       0.868761      -0.00000
   1     891.5       53.0705       25.3615       28.5778       53.9393       0.868761       0.00000
   0    1013.0       52.6237       27.5260       25.9665       53.4925       0.868761       0.00000



 Wavenumbers: 29000. - 38000. cm-1, ATM      1
 LEVEL PRESSURE   UPWARD FLUX   DIFDOWN FLUX  DIRDOWN FLUX  DOWNWARD FLUX   NET FLUX    HEATING RATE
          mb          W/m2          W/m2          W/m2        W/m2          W/m2       degree/day
  51    .06700        8.6753        0.0000       20.8114       20.8114      12.136063       0.00000
  50    .07753        8.6751        0.0003       20.8070       20.8074      12.132256       3.05145
  49    .09103        8.6749        0.0007       20.8009       20.8016      12.126719       3.46074
  48    0.1069        8.6746        0.0012       20.7928       20.7939      12.119309       3.94416
  47    0.1255        8.6743        0.0017       20.7820       20.7837      12.109405       4.49019
  46    0.1487        8.6740        0.0024       20.7665       20.7688      12.094842       5.30826
  45    0.1794        8.6735        0.0033       20.7424       20.7457      12.072178       6.22182
  44    0.2165        8.6730        0.0043       20.7103       20.7147      12.041657       6.94315
  43    0.2613        8.6724        0.0056       20.6675       20.6731      12.000663       7.72704
  42    0.3336        8.6715        0.0077       20.5880       20.5956      11.924105       8.92591
  41    0.4307        8.6704        0.0104       20.4722       20.4826      11.812157       9.73363
  40    0.5894        8.6689        0.0147       20.2637       20.2784      11.609482      10.77800
  39     1.339        8.6654        0.0331       19.0984       19.1314      10.466072      12.87273
  38     1.782        8.6658        0.0426       18.4394       18.4820       9.816203      12.37244
  37     2.292        8.6683        0.0529       17.7714       17.8243       9.155938      10.93571
  36     2.964        8.6747        0.0655       17.0421       17.1077       8.432941       9.07580
  35     3.853        8.6873        0.0814       16.2678       16.3493       7.661960       7.31675
  34     5.035        8.7081        0.1015       15.4803       15.5818       6.873759       5.63058
  33     6.613        8.7383        0.1272       14.7157       14.8429       6.104582       4.11202
  32     8.786        8.7783        0.1609       13.9936       14.1545       5.376163       2.82892
  31     11.80        8.8305        0.2078       13.2835       13.4913       4.660898       2.00252
  30     15.07        8.8807        0.2565       12.7394       12.9958       4.115107       1.40913
  29     18.79        8.9326        0.3104       12.2666       12.5770       3.644373       1.06730
  28     23.16        8.9877        0.3717       11.8300       12.2017       3.214001       0.83220
  27     28.12        9.0441        0.4403       11.4279       11.8682       2.824107       0.66279
  26     33.73        9.0960        0.5159       11.0695       11.5854       2.489376       0.50328
  25     40.54        9.1452        0.6063       10.7209       11.3272       2.181999       0.38134
  24     48.69        9.1915        0.7135       10.3742       11.0877       1.896252       0.29570
  23     57.69        9.2292        0.8296       10.0549       10.8845       1.655237       0.22592
  22     68.43        9.2595        0.9657        9.7327       10.6984       1.438924       0.17005
  21     81.20        9.2733        1.1264        9.4134       10.5398       1.266479       0.11395
  20     96.49        9.2688        1.3153        9.0887       10.4040       1.135239       0.07243
  19     114.6        9.2538        1.5335        8.7388       10.2723       1.018447       0.05453
  18     136.5        9.2314        1.7829        8.3549       10.1378       0.906411       0.04308
  17     162.9        9.2015        2.0671        7.9311        9.9983       0.796749       0.03505
  16     196.4        9.1522        2.4191        7.4333        9.8524       0.700259       0.02429
  15     218.7        9.1168        2.6405        7.1295        9.7700       0.653214       0.01786
  14     243.0        9.0781        2.8718        6.8161        9.6878       0.609783       0.01506
  13     269.0        9.0358        3.1122        6.4943        9.6066       0.570795       0.01265
  12     297.5        8.9900        3.3607        6.1657        9.5264       0.536437       0.01019
  11     328.5        8.9421        3.6162        5.8295        9.4457       0.503551       0.00894
  10     361.9        8.8927        3.8763        5.4886        9.3650       0.472285       0.00791
   9     398.1        8.8417        4.1404        5.1440        9.2844       0.442666       0.00690
   8     437.6        8.7897        4.4069        4.7969        9.2039       0.414124       0.00610
   7     480.5        8.7371        4.6738        4.4504        9.1241       0.387042       0.00532
   6     533.0        8.6765        4.9778        4.0563        9.0340       0.357533       0.00475
   5     589.8        8.6164        5.2772        3.6682        8.9454       0.328978       0.00424
   4     651.6        8.5579        5.5684        3.2905        8.8589       0.301057       0.00382
   3     718.7        8.5012        5.8497        2.9252        8.7749       0.273728       0.00343
   2     792.3        8.4472        6.1178        2.5764        8.6942       0.246995       0.00307
   1     891.5        8.3842        6.4323        2.1659        8.5982       0.214017       0.00281
   0    1013.0        8.3223        6.7473        1.7526        8.4999       0.177640       0.00253



 Wavenumbers: 38000. - 50000. cm-1, ATM      1
 LEVEL PRESSURE   UPWARD FLUX   DIFDOWN FLUX  DIRDOWN FLUX  DOWNWARD FLUX   NET FLUX    HEATING RATE
          mb          W/m2          W/m2          W/m2        W/m2          W/m2       degree/day
  51    .06700        0.0061        0.0000        1.2836        1.2836       1.277518       0.00000
  50    .07753        0.0061        0.0001        1.2812        1.2812       1.275183       1.87150
  49    .09103        0.0060        0.0002        1.2777        1.2778       1.271851       2.08247
  48    0.1069        0.0059        0.0002        1.2731        1.2734       1.267473       2.33059
  47    0.1255        0.0058        0.0004        1.2672        1.2675       1.261717       2.60908
  46    0.1487        0.0057        0.0005        1.2586        1.2591       1.253391       3.03499
  45    0.1794        0.0055        0.0007        1.2455        1.2462       1.240623       3.50520
  44    0.2165        0.0054        0.0009        1.2282        1.2291       1.223697       3.85037
  43    0.2613        0.0052        0.0011        1.2054        1.2065       1.201348       4.21261
  42    0.3336        0.0049        0.0015        1.1639        1.1654       1.160524       4.75970
  41    0.4307        0.0045        0.0020        1.1051        1.1070       1.102565       5.03943
  40    0.5894        0.0039        0.0026        1.0039        1.0064       1.002524       5.32007
  39     1.339        0.0022        0.0035        0.5438        0.5473       0.545104       5.14971
  38     1.782        0.0016        0.0032        0.3635        0.3666       0.365006       3.42879
  37     2.292        0.0012        0.0027        0.2356        0.2383       0.237058       2.11916
  36     2.964        0.0009        0.0022        0.1455        0.1477       0.146786       1.13318
  35     3.853        0.0006        0.0017        0.0858        0.0875       0.086906       0.56828
  34     5.035        0.0004        0.0013        0.0488        0.0501       0.049701       0.26578
  33     6.613        0.0003        0.0010        0.0273        0.0282       0.027974       0.11615
  32     8.786        0.0002        0.0007        0.0144        0.0151       0.014928       0.05067
  31     11.80        0.0001        0.0004        0.0065        0.0070       0.006903       0.02247
  30     15.07        0.0000        0.0003        0.0031        0.0034       0.003329       0.00923
  29     18.79        0.0000        0.0002        0.0014        0.0016       0.001583       0.00396
  28     23.16        0.0000        0.0001        0.0006        0.0007       0.000720       0.00167
  27     28.12        0.0000        0.0001        0.0003        0.0003       0.000317       0.00069
  26     33.73        0.0000        0.0000        0.0001        0.0001       0.000140       0.00027
  25     40.54        0.0000        0.0000        0.0000        0.0001       0.000057       0.00010
  24     48.69        0.0000        0.0000        0.0000        0.0000       0.000021       0.00004
  23     57.69        0.0000        0.0000        0.0000        0.0000       0.000008       0.00001
  22     68.43        0.0000        0.0000        0.0000        0.0000       0.000003       0.00000
  21     81.20        0.0000        0.0000        0.0000        0.0000       0.000001       0.00000
  20     96.49        0.0000        0.0000        0.0000        0.0000       0.000000       0.00000
  19     114.6        0.0000        0.0000        0.0000        0.0000       0.000000       0.00000
  18     136.5        0.0000        0.0000        0.0000        0.0000       0.000000       0.00000
  17     162.9        0.0000        0.0000        0.0000        0.0000       0.000000       0.00000
  16     196.4        0.0000        0.0000        0.0000        0.0000       0.000000       0.00000
  15     218.7        0.0000        0.0000        0.0000        0.0000       0.000000       0.00000
  14     243.0        0.0000        0.0000        0.0000        0.0000       0.000000       0.00000
  13     269.0        0.0000        0.0000        0.0000        0.0000       0.000000       0.00000
  12     297.5        0.0000        0.0000        0.0000        0.0000       0.000000       0.00000
  11     328.5        0.0000        0.0000        0.0000        0.0000       0.000000       0.00000
  10     361.9        0.0000        0.0000        0.0000        0.0000       0.000000       0.00000
   9     398.1        0.0000        0.0000        0.0000        0.0000       0.000000       0.00000
   8     437.6        0.0000        0.0000        0.0000        0.0000       0.000000       0.00000
   7     480.5        0.0000        0.0000        0.0000        0.0000       0.000000       0.00000
   6     533.0        0.0000        0.0000        0.0000        0.0000       0.000000       0.00000
   5     589.8        0.0000        0.0000        0.0000        0.0000       0.000000       0.00000
   4     651.6        0.0000        0.0000        0.0000        0.0000       0.000000       0.00000
   3     718.7        0.0000        0.0000        0.0000        0.0000       0.000000       0.00000
   2     792.3        0.0000        0.0000        0.0000        0.0000       0.000000       0.00000
   1     891.5        0.0000        0.0000        0.0000        0.0000       0.000000       0.00000
   0    1013.0        0.0000        0.0000        0.0000        0.0000       0.000000       0.00000



 Wavenumbers:   820. -  2600. cm-1, ATM      1
 LEVEL PRESSURE   UPWARD FLUX   DIFDOWN FLUX  DIRDOWN FLUX  DOWNWARD FLUX   NET FLUX    HEATING RATE
          mb          W/m2          W/m2          W/m2        W/m2          W/m2       degree/day
  51    .06700        0.0120        0.0000        6.0047        6.0047       5.992611       0.00000
  50    .07753        0.0120        0.0000        6.0008        6.0008       5.988758       3.08819
  49    .09103        0.0120        0.0000        5.9999        5.9999       5.987873       0.55356
  48    0.1069        0.0120        0.0000        5.9989        5.9989       5.986884       0.52650
  47    0.1255        0.0120        0.0000        5.9978        5.9978       5.985766       0.50647
  46    0.1487        0.0120        0.0000        5.9964        5.9964       5.984410       0.49454
  45    0.1794        0.0120        0.0000        5.9947        5.9947       5.982690       0.47197
  44    0.2165        0.0120        0.0000        5.9929        5.9929       5.980848       0.41908
  43    0.2613        0.0120        0.0000        5.9909        5.9909       5.978889       0.36930
  42    0.3336        0.0120        0.0000        5.9880        5.9880       5.976011       0.33553
  41    0.4307        0.0120        0.0000        5.9846        5.9846       5.972542       0.30162
  40    0.5894        0.0120        0.0000        5.9791        5.9791       5.967037       0.29273
  39     1.339        0.0120        0.0000        5.9536        5.9536       5.941553       0.28691
  38     1.782        0.0120        0.0000        5.9395        5.9395       5.927416       0.26914
  37     2.292        0.0120        0.0000        5.9237        5.9237       5.911667       0.26085
  36     2.964        0.0120        0.0000        5.9039        5.9039       5.891895       0.24820
  35     3.853        0.0120        0.0000        5.8793        5.8793       5.867241       0.23396
  34     5.035        0.0120        0.0000        5.8487        5.8487       5.836682       0.21830
  33     6.613        0.0120        0.0000        5.8108        5.8108       5.798722       0.20293
  32     8.786        0.0120        0.0000        5.7631        5.7631       5.751105       0.18493
  31     11.80        0.0120        0.0000        5.7039        5.7039       5.691856       0.16588
  30     15.07        0.0120        0.0000        5.6539        5.6539       5.641826       0.12917
  29     18.79        0.0120        0.0000        5.6127        5.6127       5.600699       0.09325
  28     23.16        0.0120        0.0000        5.5794        5.5794       5.567332       0.06452
  27     28.12        0.0120        0.0000        5.5518        5.5518       5.539775       0.04685
  26     33.73        0.0120        0.0000        5.5268        5.5268       5.514731       0.03765
  25     40.54        0.0120        0.0000        5.4993        5.4993       5.487297       0.03404
  24     48.69        0.0120        0.0000        5.4678        5.4678       5.455764       0.03263
  23     57.69        0.0120        0.0000        5.4340        5.4340       5.421984       0.03166
  22     68.43        0.0120        0.0000        5.3947        5.3948       5.382719       0.03087
  21     81.20        0.0120        0.0000        5.3497        5.3497       5.337694       0.02975
  20     96.49        0.0120        0.0000        5.2982        5.2982       5.286191       0.02843
  19     114.6        0.0120        0.0000        5.2389        5.2389       5.226880       0.02769
  18     136.5        0.0120        0.0000        5.1716        5.1717       5.159636       0.02586
  17     162.9        0.0120        0.0000        5.0890        5.0890       5.077020       0.02641
  16     196.4        0.0120        0.0000        4.9668        4.9668       4.954809       0.03076
  15     218.7        0.0120        0.0000        4.8585        4.8585       4.846448       0.04114
  14     243.0        0.0120        0.0000        4.7078        4.7079       4.695833       0.05224
  13     269.0        0.0120        0.0000        4.5343        4.5343       4.522250       0.05631
  12     297.5        0.0120        0.0000        4.3419        4.3420       4.329926       0.05704
  11     328.5        0.0120        0.0000        4.1281        4.1281       4.116093       0.05814
  10     361.9        0.0121        0.0000        3.8786        3.8787       3.866613       0.06312
   9     398.1        0.0121        0.0000        3.6159        3.6159       3.603867       0.06121
   8     437.6        0.0121        0.0000        3.3759        3.3759       3.363781       0.05133
   7     480.5        0.0121        0.0000        3.1957        3.1958       3.183645       0.03538
   6     533.0        0.0122        0.0000        3.0467        3.0467       3.034515       0.02399
   5     589.8        0.0123        0.0000        2.9023        2.9023       2.890050       0.02144
   4     651.6        0.0124        0.0000        2.7183        2.7184       2.705949       0.02518
   3     718.7        0.0127        0.0000        2.5058        2.5059       2.493196       0.02674
   2     792.3        0.0131        0.0000        2.2756        2.2757       2.262543       0.02645
   1     891.5        0.0143        0.0000        1.9621        1.9621       1.947831       0.02678
   0    1013.0        0.0173        0.0000        1.5468        1.5469       1.529547       0.02904

  Modules and versions used in this calculation:

       rrtmg_sw.1col.f90:  $Revision$                    rrtmg_sw_init.f90:  $Revision$        
     rrtmgsw_cldprop.f90:  $Revision$                  rrtmgsw_cldprmc.f90:  NOT USED          
     rrtmg_sw_reftra.f90:  $Revision$                  rrtmg_sw_spcvrt.f90:  NOT USED          
     rrtmg_sw_spcvmc.f90:  NOT USED                    rrtmgsw_setcoef.f90:  NOT USED          
     rrtmg_sw_taumol.f90:  $Revision$                  rrtmg_sw_vrtqdr.f90:  NOT USED          
                rrtatm.f:  NOT USED                             util_xxx.f:  NOT USED          
                 extra.f:  NOT USED                       rrtmg_sw_k_g.f90:  $Revision$        

