

 Wavenumbers:   820. - 50000. cm-1, ATM      1
 LEVEL PRESSURE   UPWARD FLUX   DIFDOWN FLUX  DIRDOWN FLUX  DOWNWARD FLUX   NET FLUX    HEATING RATE
          mb          W/m2          W/m2          W/m2        W/m2          W/m2       degree/day
  51    .06700      353.5822        0.0000      617.8126      617.8126     264.230365       0.00000
  50    .07753      353.5818        0.0013      617.7947      617.7961     264.214231      12.93124
  49    .09103      353.5813        0.0030      617.7778      617.7808     264.199431       9.25065
  48    0.1069      353.5808        0.0049      617.7581      617.7630     264.182182       9.18186
  47    0.1255      353.5803        0.0071      617.7340      617.7411     264.160853       9.66940
  46    0.1487      353.5796        0.0099      617.7009      617.7108     264.131191      10.81230
  45    0.1794      353.5788        0.0137      617.6521      617.6658     264.086995      12.13264
  44    0.2165      353.5780        0.0182      617.5895      617.6077     264.029722      13.02871
  43    0.2613      353.5771        0.0235      617.5089      617.5324     263.955273      14.03323
  42    0.3336      353.5760        0.0322      617.3641      617.3963     263.820309      15.73548
  41    0.4307      353.5750        0.0437      617.1591      617.2028     263.627867      16.73243
  40    0.5894      353.5742        0.0622      616.8005      616.8627     263.288518      18.04613
  39     1.339      353.5878        0.1459      614.9443      615.0902     261.502397      20.10848
  38     1.782      353.6078        0.1930      613.9670      614.1600     260.552239      18.08947
  37     2.292      353.6418        0.2465      613.0059      613.2524     259.610655      15.59510
  36     2.964      353.7027        0.3162      611.9577      612.2738     258.571064      13.05000
  35     3.853      353.8060        0.4074      610.8024      611.2098     257.403784      11.07770
  34     5.035      353.9656        0.5278      609.5327      610.0605     256.094930       9.34991
  33     6.613      354.1907        0.6876      608.1464      608.8340     254.643352       7.76014
  32     8.786      354.4837        0.9020      606.6250      607.5270     253.043274       6.21412
  31     11.80      354.8623        1.2071      604.8486      606.0558     251.193485       5.17883
  30     15.07      355.2214        1.5327      603.2440      604.7767     249.555252       4.22960
  29     18.79      355.5849        1.8991      601.6511      603.5502     247.965330       3.60484
  28     23.16      355.9607        2.3247      599.9927      602.3174     246.356708       3.11055
  27     28.12      356.3334        2.8091      598.2881      601.0971     244.763744       2.70793
  26     33.73      356.6670        3.3490      596.5951      599.9441     243.277138       2.23515
  25     40.54      356.9727        3.9990      594.7727      598.7717     241.799044       1.83374
  24     48.69      357.2470        4.7789      592.7865      597.5654     240.318431       1.53220
  23     57.69      357.4568        5.6313      590.7959      596.4272     238.970428       1.26355
  22     68.43      357.6074        6.6410      588.6191      595.2601     237.652733       1.03588
  21     81.20      357.6488        7.8380      586.2690      594.1069     236.458153       0.78936
  20     96.49      357.5701        9.2549      583.6961      592.9510     235.380902       0.59456
  19     114.6      357.4252       10.9214      580.7708      591.6923     234.267022       0.52010
  18     136.5      357.2114       12.8724      577.4359      590.3083     233.096844       0.44996
  17     162.9      356.9208       15.1611      573.5624      588.7236     231.802820       0.41362
  16     196.4      356.4608       18.0789      568.5907      586.6696     230.208768       0.40124
  15     218.7      356.1310       19.9646      565.0572      585.0219     228.890837       0.50037
  14     243.0      355.7632       21.9867      560.7495      582.7362     226.973021       0.66516
  13     269.0      355.3562       24.1462      555.3947      579.5409     224.184684       0.90452
  12     297.5      354.9115       26.4437      548.9964      575.4401     220.528631       1.08435
  11     328.5      354.4358       28.8854      542.0895      570.9750     216.539179       1.08472
  10     361.9      353.9319       31.4673      534.6242      566.0915     212.159637       1.10807
   9     398.1      353.4025       34.1936      526.4204      560.6141     207.211595       1.15278
   8     437.6      352.8556       37.0629      517.3907      554.4536     201.597979       1.20023
   7     480.5      352.2981       40.0729      507.7216      547.7945     195.496359       1.19834
   6     533.0      351.6642       43.6894      495.9006      539.5900     187.925827       1.21786
   5     589.8      351.0723       47.4817      483.0788      530.5605     179.488132       1.25243
   4     651.6      350.6122       51.4368      468.6907      520.1275     169.515304       1.36381
   3     718.7      350.3810       55.5466      453.2257      508.7723     158.391270       1.39798
   2     792.3      350.6111       59.7893      436.4928      496.2821     145.671002       1.45887
   1     891.5      352.1367       65.2656      413.9344      479.2001     127.063361       1.58342
   0    1013.0      357.0054       71.4867      388.4125      459.8992     102.893819       1.67822



 Wavenumbers:  2600. -  3250. cm-1, ATM      1
 LEVEL PRESSURE   UPWARD FLUX   DIFDOWN FLUX  DIRDOWN FLUX  DOWNWARD FLUX   NET FLUX    HEATING RATE
          mb          W/m2          W/m2          W/m2        W/m2          W/m2       degree/day
  51    .06700        0.8385        0.0000        5.4450        5.4450       4.606526       0.00000
  50    .07753        0.8385        0.0000        5.4450        5.4450       4.606518       0.00640
  49    .09103        0.8385        0.0000        5.4450        5.4450       4.606508       0.00627
  48    0.1069        0.8385        0.0000        5.4450        5.4450       4.606496       0.00613
  47    0.1255        0.8385        0.0000        5.4450        5.4450       4.606483       0.00599
  46    0.1487        0.8385        0.0000        5.4450        5.4450       4.606467       0.00608
  45    0.1794        0.8385        0.0000        5.4450        5.4450       4.606444       0.00625
  44    0.2165        0.8385        0.0000        5.4449        5.4449       4.606417       0.00612
  43    0.2613        0.8385        0.0000        5.4449        5.4449       4.606385       0.00600
  42    0.3336        0.8385        0.0000        5.4448        5.4448       4.606332       0.00617
  41    0.4307        0.8385        0.0000        5.4448        5.4448       4.606261       0.00620
  40    0.5894        0.8385        0.0000        5.4446        5.4446       4.606141       0.00637
  39     1.339        0.8385        0.0000        5.4439        5.4439       4.605434       0.00797
  38     1.782        0.8385        0.0000        5.4434        5.4434       4.604891       0.01034
  37     2.292        0.8385        0.0000        5.4427        5.4427       4.604175       0.01186
  36     2.964        0.8385        0.0000        5.4416        5.4416       4.603136       0.01304
  35     3.853        0.8385        0.0000        5.4402        5.4402       4.601659       0.01402
  34     5.035        0.8385        0.0000        5.4381        5.4381       4.599603       0.01468
  33     6.613        0.8385        0.0000        5.4353        5.4353       4.596822       0.01487
  32     8.786        0.8385        0.0000        5.4317        5.4317       4.593190       0.01411
  31     11.80        0.8385        0.0000        5.4269        5.4269       4.588409       0.01338
  30     15.07        0.8385        0.0000        5.4224        5.4224       4.583883       0.01169
  29     18.79        0.8385        0.0000        5.4180        5.4180       4.579470       0.01000
  28     23.16        0.8385        0.0000        5.4135        5.4135       4.574984       0.00868
  27     28.12        0.8385        0.0000        5.4088        5.4088       4.570335       0.00790
  26     33.73        0.8385        0.0000        5.4036        5.4036       4.565093       0.00788
  25     40.54        0.8385        0.0000        5.3966        5.3967       4.558148       0.00862
  24     48.69        0.8385        0.0000        5.3872        5.3872       4.548668       0.00981
  23     57.69        0.8385        0.0000        5.3754        5.3754       4.536878       0.01105
  22     68.43        0.8385        0.0000        5.3599        5.3599       4.521381       0.01218
  21     81.20        0.8386        0.0000        5.3401        5.3401       4.501535       0.01311
  20     96.49        0.8386        0.0000        5.3155        5.3155       4.476951       0.01357
  19     114.6        0.8386        0.0000        5.2853        5.2854       4.446728       0.01411
  18     136.5        0.8387        0.0001        5.2504        5.2505       4.411785       0.01344
  17     162.9        0.8388        0.0001        5.2111        5.2112       4.372386       0.01259
  16     196.4        0.8389        0.0001        5.1640        5.1641       4.325197       0.01188
  15     218.7        0.8391        0.0001        5.1331        5.1332       4.294118       0.01180
  14     243.0        0.8394        0.0001        5.0962        5.0963       4.256955       0.01289
  13     269.0        0.8398        0.0001        5.0511        5.0512       4.211408       0.01478
  12     297.5        0.8404        0.0001        4.9956        4.9957       4.155279       0.01665
  11     328.5        0.8413        0.0001        4.9304        4.9305       4.089153       0.01798
  10     361.9        0.8426        0.0001        4.8511        4.8512       4.008664       0.02036
   9     398.1        0.8442        0.0001        4.7507        4.7508       3.906593       0.02378
   8     437.6        0.8465        0.0002        4.6220        4.6222       3.775696       0.02799
   7     480.5        0.8495        0.0002        4.4625        4.4626       3.613095       0.03193
   6     533.0        0.8544        0.0002        4.2460        4.2462       3.391819       0.03560
   5     589.8        0.8616        0.0002        3.9954        3.9956       3.134014       0.03827
   4     651.6        0.8729        0.0002        3.7089        3.7090       2.836133       0.04074
   3     718.7        0.8905        0.0002        3.4018        3.4020       2.511539       0.04079
   2     792.3        0.9192        0.0002        3.0564        3.0566       2.137420       0.04291
   1     891.5        0.9842        0.0002        2.5828        2.5830       1.598783       0.04584
   0    1013.0        1.1370        0.0002        2.0845        2.0847       0.947689       0.04521



 Wavenumbers:  3250. -  4000. cm-1, ATM      1
 LEVEL PRESSURE   UPWARD FLUX   DIFDOWN FLUX  DIRDOWN FLUX  DOWNWARD FLUX   NET FLUX    HEATING RATE
          mb          W/m2          W/m2          W/m2        W/m2          W/m2       degree/day
  51    .06700        0.0005        0.0000        9.1795        9.1795       9.179010       0.00000
  50    .07753        0.0005        0.0000        9.1747        9.1747       9.174168       3.88148
  49    .09103        0.0005        0.0000        9.1713        9.1713       9.170780       2.11747
  48    0.1069        0.0005        0.0000        9.1688        9.1688       9.168255       1.34402
  47    0.1255        0.0005        0.0000        9.1665        9.1665       9.165996       1.02422
  46    0.1487        0.0005        0.0000        9.1641        9.1641       9.163554       0.88991
  45    0.1794        0.0005        0.0000        9.1612        9.1612       9.160676       0.79008
  44    0.2165        0.0005        0.0000        9.1583        9.1583       9.157756       0.66430
  43    0.2613        0.0005        0.0000        9.1553        9.1553       9.154783       0.56041
  42    0.3336        0.0005        0.0000        9.1511        9.1511       9.150604       0.48723
  41    0.4307        0.0005        0.0000        9.1464        9.1464       9.145836       0.41459
  40    0.5894        0.0005        0.0000        9.1393        9.1394       9.138830       0.37255
  39     1.339        0.0005        0.0000        9.1127        9.1127       9.112217       0.29962
  38     1.782        0.0005        0.0000        9.1011        9.1011       9.100628       0.22062
  37     2.292        0.0005        0.0000        9.0901        9.0901       9.089562       0.18329
  36     2.964        0.0005        0.0000        9.0776        9.0776       9.077132       0.15603
  35     3.853        0.0005        0.0000        9.0629        9.0629       9.062342       0.14036
  34     5.035        0.0005        0.0000        9.0441        9.0441       9.043603       0.13386
  33     6.613        0.0005        0.0000        9.0191        9.0191       9.018601       0.13366
  32     8.786        0.0005        0.0000        8.9843        8.9843       8.983818       0.13509
  31     11.80        0.0005        0.0000        8.9327        8.9327       8.932201       0.14451
  30     15.07        0.0005        0.0000        8.8758        8.8759       8.875356       0.14676
  29     18.79        0.0005        0.0000        8.8110        8.8110       8.810529       0.14698
  28     23.16        0.0005        0.0000        8.7365        8.7366       8.736084       0.14395
  27     28.12        0.0005        0.0000        8.6554        8.6555       8.654971       0.13789
  26     33.73        0.0005        0.0000        8.5719        8.5719       8.571472       0.12554
  25     40.54        0.0005        0.0001        8.4812        8.4812       8.480748       0.11255
  24     48.69        0.0005        0.0001        8.3838        8.3839       8.383447       0.10069
  23     57.69        0.0004        0.0001        8.2861        8.2862       8.285711       0.09161
  22     68.43        0.0004        0.0001        8.1751        8.1751       8.174715       0.08726
  21     81.20        0.0004        0.0001        8.0457        8.0458       8.045357       0.08548
  20     96.49        0.0004        0.0001        7.8949        7.8950       7.894653       0.08318
  19     114.6        0.0004        0.0001        7.7162        7.7163       7.715944       0.08344
  18     136.5        0.0003        0.0002        7.5193        7.5194       7.519100       0.07569
  17     162.9        0.0003        0.0002        7.2913        7.2915       7.291209       0.07284
  16     196.4        0.0003        0.0002        6.9660        6.9662       6.965937       0.08187
  15     218.7        0.0003        0.0002        6.6648        6.6650       6.664748       0.11435
  14     243.0        0.0002        0.0002        6.2619        6.2622       6.261954       0.13970
  13     269.0        0.0002        0.0003        5.7576        5.7579       5.757654       0.16359
  12     297.5        0.0002        0.0003        5.1719        5.1722       5.171964       0.17371
  11     328.5        0.0002        0.0002        4.5757        4.5760       4.575804       0.16209
  10     361.9        0.0002        0.0002        3.9995        3.9998       3.999629       0.14578
   9     398.1        0.0001        0.0002        3.4655        3.4657       3.465573       0.12442
   8     437.6        0.0001        0.0002        2.9740        2.9742       2.974126       0.10507
   7     480.5        0.0001        0.0002        2.5307        2.5309       2.530753       0.08708
   6     533.0        0.0001        0.0002        2.0614        2.0616       2.061458       0.07549
   5     589.8        0.0001        0.0002        1.6150        1.6151       1.615030       0.06626
   4     651.6        0.0001        0.0001        1.1565        1.1566       1.156486       0.06271
   3     718.7        0.0001        0.0001        0.7390        0.7391       0.738988       0.05247
   2     792.3        0.0002        0.0001        0.3985        0.3985       0.398343       0.03907
   1     891.5        0.0005        0.0000        0.1139        0.1139       0.113418       0.02425
   0    1013.0        0.0051        0.0000        0.0094        0.0094       0.004265       0.00758



 Wavenumbers:  4000. -  4650. cm-1, ATM      1
 LEVEL PRESSURE   UPWARD FLUX   DIFDOWN FLUX  DIRDOWN FLUX  DOWNWARD FLUX   NET FLUX    HEATING RATE
          mb          W/m2          W/m2          W/m2        W/m2          W/m2       degree/day
  51    .06700        3.3869        0.0000       10.7795       10.7795       7.392686       0.00000
  50    .07753        3.3869        0.0000       10.7795       10.7795       7.392685       0.00080
  49    .09103        3.3869        0.0000       10.7795       10.7795       7.392683       0.00078
  48    0.1069        3.3869        0.0000       10.7795       10.7795       7.392682       0.00076
  47    0.1255        3.3869        0.0000       10.7795       10.7795       7.392680       0.00075
  46    0.1487        3.3869        0.0000       10.7795       10.7795       7.392678       0.00076
  45    0.1794        3.3869        0.0000       10.7795       10.7795       7.392675       0.00078
  44    0.2165        3.3869        0.0000       10.7795       10.7795       7.392672       0.00076
  43    0.2613        3.3869        0.0000       10.7795       10.7795       7.392668       0.00075
  42    0.3336        3.3869        0.0000       10.7795       10.7795       7.392661       0.00077
  41    0.4307        3.3869        0.0000       10.7795       10.7795       7.392652       0.00077
  40    0.5894        3.3869        0.0000       10.7795       10.7795       7.392638       0.00080
  39     1.339        3.3869        0.0000       10.7794       10.7794       7.392548       0.00101
  38     1.782        3.3869        0.0000       10.7793       10.7793       7.392478       0.00133
  37     2.292        3.3869        0.0000       10.7792       10.7792       7.392384       0.00156
  36     2.964        3.3868        0.0000       10.7791       10.7791       7.392244       0.00176
  35     3.853        3.3868        0.0000       10.7789       10.7789       7.392036       0.00197
  34     5.035        3.3868        0.0000       10.7786       10.7786       7.391729       0.00219
  33     6.613        3.3868        0.0000       10.7781       10.7781       7.391278       0.00241
  32     8.786        3.3868        0.0000       10.7774       10.7774       7.390611       0.00259
  31     11.80        3.3868        0.0001       10.7763       10.7764       7.389565       0.00293
  30     15.07        3.3868        0.0001       10.7751       10.7752       7.388337       0.00317
  29     18.79        3.3868        0.0001       10.7736       10.7737       7.386852       0.00337
  28     23.16        3.3868        0.0001       10.7717       10.7718       7.385009       0.00356
  27     28.12        3.3868        0.0001       10.7695       10.7696       7.382779       0.00379
  26     33.73        3.3868        0.0001       10.7667       10.7668       7.380030       0.00413
  25     40.54        3.3868        0.0002       10.7629       10.7631       7.376302       0.00462
  24     48.69        3.3868        0.0002       10.7579       10.7581       7.371337       0.00514
  23     57.69        3.3868        0.0002       10.7520       10.7522       7.365453       0.00551
  22     68.43        3.3868        0.0003       10.7446       10.7449       7.358084       0.00579
  21     81.20        3.3868        0.0003       10.7355       10.7359       7.349016       0.00599
  20     96.49        3.3869        0.0004       10.7245       10.7249       7.337990       0.00609
  19     114.6        3.3870        0.0005       10.7107       10.7112       7.324215       0.00643
  18     136.5        3.3871        0.0006       10.6942       10.6948       7.307635       0.00638
  17     162.9        3.3874        0.0007       10.6740       10.6747       7.287333       0.00649
  16     196.4        3.3878        0.0008       10.6464       10.6472       7.259371       0.00704
  15     218.7        3.3882        0.0009       10.6255       10.6264       7.238125       0.00807
  14     243.0        3.3889        0.0010       10.5980       10.5991       7.210144       0.00970
  13     269.0        3.3900        0.0011       10.5611       10.5622       7.172242       0.01230
  12     297.5        3.3916        0.0012       10.5119       10.5132       7.121630       0.01501
  11     328.5        3.3938        0.0014       10.4499       10.4512       7.057486       0.01744
  10     361.9        3.3967        0.0015       10.3702       10.3717       6.975024       0.02086
   9     398.1        3.4003        0.0016       10.2678       10.2694       6.869159       0.02466
   8     437.6        3.4048        0.0018       10.1390       10.1408       6.736006       0.02847
   7     480.5        3.4104        0.0019        9.9877        9.9896       6.579263       0.03078
   6     533.0        3.4187        0.0021        9.7937        9.7958       6.377087       0.03252
   5     589.8        3.4303        0.0023        9.5752        9.5774       6.147181       0.03413
   4     651.6        3.4478        0.0025        9.2958        9.2983       5.850444       0.04058
   3     718.7        3.4750        0.0026        8.9267        8.9294       5.454327       0.04978
   2     792.3        3.5199        0.0028        8.4542        8.4570       4.937151       0.05931
   1     891.5        3.6227        0.0029        7.7948        7.7978       4.175068       0.06485
   0    1013.0        3.8615        0.0031        7.0767        7.0798       3.218239       0.06644



 Wavenumbers:  4650. -  5150. cm-1, ATM      1
 LEVEL PRESSURE   UPWARD FLUX   DIFDOWN FLUX  DIRDOWN FLUX  DOWNWARD FLUX   NET FLUX    HEATING RATE
          mb          W/m2          W/m2          W/m2        W/m2          W/m2       degree/day
  51    .06700        2.3854        0.0000       10.2033       10.2033       7.817979       0.00000
  50    .07753        2.3854        0.0000       10.2031       10.2031       7.817743       0.18901
  49    .09103        2.3854        0.0000       10.2028       10.2028       7.817448       0.18428
  48    0.1069        2.3854        0.0000       10.2025       10.2025       7.817111       0.17931
  47    0.1255        2.3854        0.0000       10.2021       10.2021       7.816727       0.17426
  46    0.1487        2.3854        0.0000       10.2016       10.2016       7.816246       0.17536
  45    0.1794        2.3854        0.0000       10.2010       10.2010       7.815596       0.17850
  44    0.2165        2.3854        0.0000       10.2002       10.2002       7.814836       0.17277
  43    0.2613        2.3854        0.0000       10.1993       10.1993       7.813951       0.16690
  42    0.3336        2.3854        0.0000       10.1979       10.1979       7.812518       0.16702
  41    0.4307        2.3854        0.0000       10.1960       10.1960       7.810678       0.16002
  40    0.5894        2.3854        0.0000       10.1932       10.1932       7.807804       0.15283
  39     1.339        2.3854        0.0000       10.1816       10.1816       7.796212       0.13050
  38     1.782        2.3854        0.0000       10.1760       10.1760       7.790684       0.10526
  37     2.292        2.3854        0.0000       10.1706       10.1706       7.785228       0.09037
  36     2.964        2.3854        0.0000       10.1646       10.1647       7.779305       0.07435
  35     3.853        2.3853        0.0000       10.1584       10.1584       7.773091       0.05897
  34     5.035        2.3853        0.0000       10.1521       10.1521       7.766756       0.04525
  33     6.613        2.3853        0.0000       10.1456       10.1456       7.760300       0.03451
  32     8.786        2.3853        0.0001       10.1386       10.1386       7.753290       0.02722
  31     11.80        2.3853        0.0001       10.1295       10.1296       7.744253       0.02530
  30     15.07        2.3853        0.0001       10.1196       10.1197       7.734377       0.02550
  29     18.79        2.3853        0.0001       10.1076       10.1077       7.722373       0.02722
  28     23.16        2.3853        0.0001       10.0923       10.0924       7.707073       0.02958
  27     28.12        2.3853        0.0002       10.0731       10.0733       7.687985       0.03245
  26     33.73        2.3854        0.0002       10.0500       10.0502       7.664898       0.03471
  25     40.54        2.3854        0.0003       10.0201       10.0204       7.635003       0.03709
  24     48.69        2.3854        0.0003        9.9820        9.9823       7.596842       0.03949
  23     57.69        2.3855        0.0004        9.9384        9.9388       7.553315       0.04080
  22     68.43        2.3856        0.0004        9.8858        9.8862       7.500596       0.04144
  21     81.20        2.3857        0.0005        9.8234        9.8239       7.438220       0.04122
  20     96.49        2.3859        0.0006        9.7518        9.7524       7.366420       0.03963
  19     114.6        2.3862        0.0007        9.6719        9.6726       7.286388       0.03737
  18     136.5        2.3867        0.0008        9.5858        9.5866       7.199968       0.03323
  17     162.9        2.3873        0.0010        9.4940        9.4950       7.107755       0.02948
  16     196.4        2.3882        0.0012        9.3883        9.3894       7.001222       0.02682
  15     218.7        2.3890        0.0013        9.3229        9.3242       6.935209       0.02506
  14     243.0        2.3900        0.0014        9.2520        9.2534       6.863360       0.02492
  13     269.0        2.3915        0.0016        9.1717        9.1732       6.781742       0.02648
  12     297.5        2.3936        0.0017        9.0763        9.0780       6.684427       0.02886
  11     328.5        2.3963        0.0019        8.9650        8.9668       6.570524       0.03097
  10     361.9        2.3999        0.0020        8.8349        8.8370       6.437066       0.03377
   9     398.1        2.4045        0.0022        8.6820        8.6842       6.279684       0.03667
   8     437.6        2.4106        0.0024        8.5028        8.5052       6.094596       0.03957
   7     480.5        2.4184        0.0026        8.2948        8.2974       5.878950       0.04235
   6     533.0        2.4303        0.0028        8.0209        8.0237       5.593344       0.04594
   5     589.8        2.4467        0.0030        7.7063        7.7093       5.262608       0.04909
   4     651.6        2.4706        0.0032        7.3412        7.3444       4.873816       0.05317
   3     718.7        2.5057        0.0033        6.9387        6.9420       4.436292       0.05498
   2     792.3        2.5590        0.0035        6.5066        6.5101       3.951109       0.05565
   1     891.5        2.6699        0.0036        5.9361        5.9397       3.269813       0.05798
   0    1013.0        2.8943        0.0038        5.3025        5.3063       2.411960       0.05957



 Wavenumbers:  5150. -  6150. cm-1, ATM      1
 LEVEL PRESSURE   UPWARD FLUX   DIFDOWN FLUX  DIRDOWN FLUX  DOWNWARD FLUX   NET FLUX    HEATING RATE
          mb          W/m2          W/m2          W/m2        W/m2          W/m2       degree/day
  51    .06700        6.0946        0.0000       25.5798       25.5798      19.485187       0.00000
  50    .07753        6.0946        0.0000       25.5798       25.5798      19.485148       0.03158
  49    .09103        6.0946        0.0000       25.5797       25.5797      19.485097       0.03207
  48    0.1069        6.0946        0.0000       25.5797       25.5797      19.485035       0.03257
  47    0.1255        6.0946        0.0000       25.5796       25.5796      19.484962       0.03308
  46    0.1487        6.0946        0.0000       25.5795       25.5795      19.484867       0.03485
  45    0.1794        6.0946        0.0000       25.5794       25.5794      19.484732       0.03709
  44    0.2165        6.0946        0.0000       25.5792       25.5792      19.484566       0.03765
  43    0.2613        6.0946        0.0000       25.5790       25.5790      19.484363       0.03823
  42    0.3336        6.0946        0.0000       25.5786       25.5786      19.484017       0.04039
  41    0.4307        6.0946        0.0000       25.5782       25.5782      19.483546       0.04094
  40    0.5894        6.0946        0.0000       25.5774       25.5774      19.482757       0.04195
  39     1.339        6.0946        0.0000       25.5735       25.5736      19.478958       0.04278
  38     1.782        6.0946        0.0000       25.5713       25.5714      19.476746       0.04211
  37     2.292        6.0946        0.0001       25.5688       25.5688      19.474243       0.04146
  36     2.964        6.0946        0.0001       25.5656       25.5657      19.471063       0.03991
  35     3.853        6.0946        0.0001       25.5615       25.5616      19.467023       0.03835
  34     5.035        6.0946        0.0001       25.5562       25.5564      19.461819       0.03717
  33     6.613        6.0945        0.0002       25.5494       25.5496      19.455070       0.03608
  32     8.786        6.0945        0.0003       25.5406       25.5409      19.446326       0.03396
  31     11.80        6.0945        0.0003       25.5287       25.5290      19.434501       0.03310
  30     15.07        6.0945        0.0004       25.5167       25.5171      19.422646       0.03061
  29     18.79        6.0945        0.0005       25.5042       25.5047      19.410254       0.02810
  28     23.16        6.0944        0.0007       25.4907       25.4913      19.396910       0.02580
  27     28.12        6.0944        0.0008       25.4764       25.4773      19.382842       0.02391
  26     33.73        6.0944        0.0010       25.4620       25.4630      19.368592       0.02143
  25     40.54        6.0944        0.0012       25.4463       25.4474      19.353018       0.01932
  24     48.69        6.0944        0.0014       25.4294       25.4308      19.336351       0.01725
  23     57.69        6.0945        0.0017       25.4126       25.4143      19.319816       0.01550
  22     68.43        6.0945        0.0020       25.3944       25.3964      19.301873       0.01411
  21     81.20        6.0946        0.0023       25.3744       25.3767      19.282141       0.01304
  20     96.49        6.0947        0.0028       25.3519       25.3547      19.259976       0.01223
  19     114.6        6.0949        0.0033       25.3262       25.3295      19.234566       0.01186
  18     136.5        6.0951        0.0039       25.2962       25.3001      19.204996       0.01137
  17     162.9        6.0954        0.0046       25.2521       25.2567      19.161359       0.01395
  16     196.4        6.0958        0.0056       25.1593       25.1649      19.069098       0.02322
  15     218.7        6.0961        0.0062       25.0159       25.0221      18.926029       0.05432
  14     243.0        6.0965        0.0068       24.7089       24.7157      18.619234       0.10641
  13     269.0        6.0970        0.0074       24.1619       24.1692      18.072233       0.17744
  12     297.5        6.0978        0.0080       23.4544       23.4624      17.364588       0.20988
  11     328.5        6.0988        0.0086       22.7355       22.7440      16.645262       0.19558
  10     361.9        6.1001        0.0092       21.9224       21.9316      15.831497       0.20589
   9     398.1        6.1018        0.0097       20.9939       21.0037      14.901817       0.21659
   8     437.6        6.1042        0.0103       19.9833       19.9936      13.889437       0.21645
   7     480.5        6.1073        0.0108       18.9483       18.9591      12.851823       0.20378
   6     533.0        6.1123        0.0114       17.7796       17.7910      11.678709       0.18872
   5     589.8        6.1199        0.0120       16.6726       16.6845      10.564648       0.16536
   4     651.6        6.1329        0.0125       15.6343       15.6468       9.513938       0.14369
   3     718.7        6.1551        0.0132       14.7738       14.7870       8.631908       0.11085
   2     792.3        6.1950        0.0140       14.0291       14.0431       7.848079       0.08990
   1     891.5        6.2956        0.0149       13.0822       13.0971       6.801461       0.08906
   0    1013.0        6.5755        0.0158       12.0384       12.0542       5.478734       0.09184



 Wavenumbers:  6150. -  7700. cm-1, ATM      1
 LEVEL PRESSURE   UPWARD FLUX   DIFDOWN FLUX  DIRDOWN FLUX  DOWNWARD FLUX   NET FLUX    HEATING RATE
          mb          W/m2          W/m2          W/m2        W/m2          W/m2       degree/day
  51    .06700        8.9882        0.0000       47.3109       47.3109      38.322645       0.00000
  50    .07753        8.9882        0.0000       47.3108       47.3108      38.322588       0.04553
  49    .09103        8.9882        0.0000       47.3107       47.3107      38.322515       0.04583
  48    0.1069        8.9882        0.0000       47.3106       47.3106      38.322428       0.04614
  47    0.1255        8.9882        0.0000       47.3105       47.3105      38.322326       0.04645
  46    0.1487        8.9882        0.0000       47.3104       47.3104      38.322192       0.04852
  45    0.1794        8.9882        0.0000       47.3102       47.3102      38.322006       0.05127
  44    0.2165        8.9882        0.0000       47.3100       47.3100      38.321779       0.05167
  43    0.2613        8.9882        0.0000       47.3097       47.3097      38.321502       0.05210
  42    0.3336        8.9882        0.0000       47.3092       47.3092      38.321033       0.05471
  41    0.4307        8.9882        0.0000       47.3085       47.3086      38.320398       0.05521
  40    0.5894        8.9882        0.0001       47.3074       47.3075      38.319339       0.05633
  39     1.339        8.9881        0.0002       47.3022       47.3023      38.314246       0.05733
  38     1.782        8.9881        0.0002       47.2991       47.2993      38.311276       0.05655
  37     2.292        8.9880        0.0003       47.2956       47.2959      38.307901       0.05591
  36     2.964        8.9880        0.0003       47.2912       47.2915      38.303582       0.05421
  35     3.853        8.9879        0.0005       47.2855       47.2859      38.298048       0.05252
  34     5.035        8.9878        0.0006       47.2780       47.2786      38.290867       0.05129
  33     6.613        8.9876        0.0008       47.2683       47.2691      38.281480       0.05019
  32     8.786        8.9874        0.0010       47.2556       47.2566      38.269181       0.04777
  31     11.80        8.9872        0.0014       47.2380       47.2394      38.252278       0.04732
  30     15.07        8.9869        0.0018       47.2201       47.2218      38.234991       0.04463
  29     18.79        8.9865        0.0022       47.2008       47.2030      38.216512       0.04190
  28     23.16        8.9861        0.0027       47.1795       47.1822      38.196123       0.03943
  27     28.12        8.9857        0.0033       47.1565       47.1598      38.174130       0.03739
  26     33.73        8.9852        0.0040       47.1324       47.1364      38.151211       0.03446
  25     40.54        8.9846        0.0048       47.1054       47.1101      38.125577       0.03180
  24     48.69        8.9838        0.0057       47.0754       47.0812      38.097327       0.02923
  23     57.69        8.9830        0.0068       47.0449       47.0517      38.068709       0.02682
  22     68.43        8.9821        0.0080       47.0110       47.0190      38.036978       0.02494
  21     81.20        8.9809        0.0095       46.9729       46.9824      38.001492       0.02345
  20     96.49        8.9796        0.0113       46.9294       46.9407      37.961163       0.02226
  19     114.6        8.9779        0.0135       46.8790       46.8925      37.914547       0.02177
  18     136.5        8.9760        0.0160       46.8200       46.8360      37.859949       0.02099
  17     162.9        8.9737        0.0190       46.7361       46.7551      37.781375       0.02512
  16     196.4        8.9708        0.0229       46.5703       46.5931      37.622296       0.04004
  15     218.7        8.9690        0.0253       46.3473       46.3726      37.403688       0.08300
  14     243.0        8.9670        0.0279       45.9299       45.9578      36.990766       0.14321
  13     269.0        8.9652        0.0305       45.1708       45.2013      36.236127       0.24480
  12     297.5        8.9636        0.0331       44.0115       44.0445      35.080941       0.34262
  11     328.5        8.9623        0.0356       42.7242       42.7598      33.797518       0.34896
  10     361.9        8.9616        0.0382       41.3539       41.3921      32.430546       0.34586
   9     398.1        8.9617        0.0406       39.7953       39.8359      30.874252       0.36258
   8     437.6        8.9632        0.0429       37.9948       38.0377      29.074541       0.38479
   7     480.5        8.9667        0.0451       36.0647       36.1098      27.143110       0.37933
   6     533.0        8.9747        0.0473       33.7773       33.8246      24.849935       0.36890
   5     589.8        8.9901        0.0493       31.4082       31.4575      22.467362       0.35365
   4     651.6        9.0211        0.0508       28.8834       28.9342      19.913102       0.34930
   3     718.7        9.0784        0.0521       26.4104       26.4624      17.384023       0.31784
   2     792.3        9.1860        0.0530       24.0056       24.0586      14.872663       0.28802
   1     891.5        9.4595        0.0541       21.2348       21.2889      11.829371       0.25897
   0    1013.0       10.1867        0.0553       18.6150       18.6703       8.483630       0.23231



 Wavenumbers:  7700. -  8050. cm-1, ATM      1
 LEVEL PRESSURE   UPWARD FLUX   DIFDOWN FLUX  DIRDOWN FLUX  DOWNWARD FLUX   NET FLUX    HEATING RATE
          mb          W/m2          W/m2          W/m2        W/m2          W/m2       degree/day
  51    .06700        4.8062        0.0000       11.1810       11.1810       6.374793       0.00000
  50    .07753        4.8062        0.0000       11.1809       11.1809       6.374772       0.01675
  49    .09103        4.8062        0.0000       11.1809       11.1809       6.374746       0.01641
  48    0.1069        4.8062        0.0000       11.1809       11.1809       6.374715       0.01607
  47    0.1255        4.8062        0.0000       11.1809       11.1809       6.374681       0.01573
  46    0.1487        4.8062        0.0000       11.1808       11.1808       6.374637       0.01596
  45    0.1794        4.8062        0.0000       11.1808       11.1808       6.374577       0.01642
  44    0.2165        4.8062        0.0000       11.1807       11.1807       6.374506       0.01611
  43    0.2613        4.8062        0.0000       11.1806       11.1806       6.374422       0.01580
  42    0.3336        4.8062        0.0000       11.1805       11.1805       6.374284       0.01617
  41    0.4307        4.8063        0.0000       11.1803       11.1804       6.374100       0.01599
  40    0.5894        4.8063        0.0000       11.1801       11.1801       6.373799       0.01598
  39     1.339        4.8065        0.0001       11.1788       11.1789       6.372378       0.01600
  38     1.782        4.8066        0.0001       11.1781       11.1782       6.371543       0.01590
  37     2.292        4.8067        0.0001       11.1772       11.1773       6.370577       0.01601
  36     2.964        4.8069        0.0002       11.1761       11.1762       6.369308       0.01593
  35     3.853        4.8072        0.0002       11.1746       11.1748       6.367632       0.01591
  34     5.035        4.8075        0.0003       11.1726       11.1729       6.365406       0.01590
  33     6.613        4.8079        0.0003       11.1700       11.1703       6.362432       0.01589
  32     8.786        4.8084        0.0005       11.1664       11.1668       6.358427       0.01555
  31     11.80        4.8092        0.0006       11.1613       11.1619       6.352702       0.01603
  30     15.07        4.8101        0.0008       11.1558       11.1566       6.346562       0.01585
  29     18.79        4.8110        0.0010       11.1497       11.1507       6.339633       0.01571
  28     23.16        4.8122        0.0012       11.1425       11.1437       6.331553       0.01563
  27     28.12        4.8135        0.0015       11.1343       11.1358       6.322329       0.01568
  26     33.73        4.8149        0.0018       11.1252       11.1270       6.312029       0.01549
  25     40.54        4.8167        0.0021       11.1142       11.1163       6.299618       0.01540
  24     48.69        4.8188        0.0025       11.1010       11.1035       6.284704       0.01543
  23     57.69        4.8212        0.0030       11.0866       11.0896       6.268385       0.01530
  22     68.43        4.8241        0.0036       11.0695       11.0731       6.249036       0.01521
  21     81.20        4.8275        0.0042       11.0494       11.0536       6.226109       0.01515
  20     96.49        4.8316        0.0050       11.0255       11.0305       6.198965       0.01498
  19     114.6        4.8365        0.0059       10.9975       11.0035       6.166981       0.01493
  18     136.5        4.8424        0.0070       10.9648       10.9718       6.129408       0.01445
  17     162.9        4.8495        0.0084       10.9263       10.9346       6.085118       0.01416
  16     196.4        4.8589        0.0100       10.8773       10.8873       6.028373       0.01428
  15     218.7        4.8652        0.0112       10.8455       10.8567       5.991479       0.01401
  14     243.0        4.8722        0.0124       10.8114       10.8238       5.951652       0.01381
  13     269.0        4.8798        0.0137       10.7749       10.7886       5.908733       0.01392
  12     297.5        4.8883        0.0151       10.7357       10.7508       5.862509       0.01371
  11     328.5        4.8977        0.0166       10.6937       10.7104       5.812685       0.01355
  10     361.9        4.9081        0.0183       10.6489       10.6671       5.759044       0.01357
   9     398.1        4.9197        0.0200       10.6008       10.6208       5.701115       0.01350
   8     437.6        4.9327        0.0219       10.5491       10.5710       5.638310       0.01343
   7     480.5        4.9473        0.0239       10.4934       10.5174       5.570082       0.01340
   6     533.0        4.9663        0.0264       10.4243       10.4507       5.484343       0.01379
   5     589.8        4.9886        0.0291       10.3479       10.3770       5.388355       0.01425
   4     651.6        5.0154        0.0319       10.2613       10.2933       5.277909       0.01510
   3     718.7        5.0482        0.0350       10.1618       10.1967       5.148553       0.01626
   2     792.3        5.0898        0.0382       10.0439       10.0820       4.992278       0.01792
   1     891.5        5.1598        0.0424        9.8626        9.9050       4.745178       0.02103
   0    1013.0        5.2705        0.0472        9.6103        9.6575       4.386979       0.02487



 Wavenumbers:  8050. - 12850. cm-1, ATM      1
 LEVEL PRESSURE   UPWARD FLUX   DIFDOWN FLUX  DIRDOWN FLUX  DOWNWARD FLUX   NET FLUX    HEATING RATE
          mb          W/m2          W/m2          W/m2        W/m2          W/m2       degree/day
  51    .06700       58.8598        0.0000      156.5418      156.5418      97.681941       0.00000
  50    .07753       58.8598        0.0000      156.5417      156.5417      97.681941      -0.00000
  49    .09103       58.8598        0.0001      156.5417      156.5417      97.681941       0.00000
  48    0.1069       58.8598        0.0001      156.5416      156.5417      97.681941       0.00000
  47    0.1255       58.8597        0.0001      156.5415      156.5417      97.681941      -0.00000
  46    0.1487       58.8597        0.0002      156.5414      156.5416      97.681941       0.00000
  45    0.1794       58.8596        0.0003      156.5413      156.5416      97.681941       0.00000
  44    0.2165       58.8596        0.0004      156.5412      156.5415      97.681941      -0.00000
  43    0.2613       58.8595        0.0005      156.5410      156.5415      97.681941       0.00000
  42    0.3336       58.8594        0.0007      156.5407      156.5414      97.681941       0.00000
  41    0.4307       58.8593        0.0009      156.5403      156.5412      97.681941       0.00000
  40    0.5894       58.8591        0.0013      156.5397      156.5410      97.681941       0.00000
  39     1.339       58.8580        0.0032      156.5367      156.5399      97.681941      -0.00000
  38     1.782       58.8574        0.0043      156.5350      156.5393      97.681941      -0.00000
  37     2.292       58.8566        0.0056      156.5330      156.5386      97.681941       0.00000
  36     2.964       58.8557        0.0073      156.5303      156.5376      97.681941       0.00000
  35     3.853       58.8544        0.0095      156.5268      156.5364      97.681941      -0.00000
  34     5.035       58.8527        0.0125      156.5222      156.5347      97.681941       0.00000
  33     6.613       58.8505        0.0164      156.5160      156.5324      97.681941       0.00000
  32     8.786       58.8475        0.0218      156.5076      156.5294      97.681941      -0.00000
  31     11.80       58.8431        0.0294      156.4957      156.5251      97.681941       0.00000
  30     15.07       58.8385        0.0376      156.4828      156.5204      97.681941       0.00000
  29     18.79       58.8332        0.0469      156.4682      156.5151      97.681941      -0.00000
  28     23.16       58.8270        0.0578      156.4512      156.5090      97.681941      -0.00000
  27     28.12       58.8200        0.0702      156.4317      156.5019      97.681941       0.00000
  26     33.73       58.8121        0.0841      156.4099      156.4940      97.681941       0.00000
  25     40.54       58.8025        0.1010      156.3834      156.4844      97.681941       0.00000
  24     48.69       58.7909        0.1213      156.3515      156.4729      97.681941       0.00000
  23     57.69       58.7782        0.1437      156.3164      156.4602      97.681941       0.00000
  22     68.43       58.7630        0.1704      156.2746      156.4450      97.681941      -0.00000
  21     81.20       58.7449        0.2023      156.2246      156.4269      97.681941       0.00000
  20     96.49       58.7233        0.2403      156.1649      156.4053      97.681941      -0.00000
  19     114.6       58.6977        0.2856      156.0879      156.3735      97.675796       0.00287
  18     136.5       58.6673        0.3393      155.9962      156.3354      97.668168       0.00293
  17     162.9       58.6310        0.4034      155.8831      156.2864      97.655485       0.00405
  16     196.4       58.5838        0.4867      155.7199      156.2067      97.622883       0.00821
  15     218.7       58.5529        0.5415      155.5733      156.1148      97.561977       0.02312
  14     243.0       58.5195        0.6011      155.3367      155.9378      97.418253       0.04985
  13     269.0       58.4840        0.6654      154.9514      155.6168      97.132801       0.09260
  12     297.5       58.4471        0.7346      154.3896      155.1243      96.677118       0.13515
  11     328.5       58.4091        0.8092      153.7151      154.5243      96.115240       0.15277
  10     361.9       58.3707        0.8892      152.9087      153.7979      95.427177       0.17409
   9     398.1       58.3336        0.9746      151.8986      152.8732      94.539616       0.20678
   8     437.6       58.3002        1.0652      150.6031      151.6684      93.368208       0.25045
   7     480.5       58.2737        1.1609      149.0014      150.1623      91.888561       0.29060
   6     533.0       58.2586        1.2762      146.7375      148.0138      89.755135       0.34320
   5     589.8       58.2743        1.3965      143.8730      145.2695      86.995190       0.40967
   4     651.6       58.3578        1.5192      140.0955      141.6147      83.256895       0.51122
   3     718.7       58.5567        1.6429      135.5278      137.1707      78.613951       0.58349
   2     792.3       58.9758        1.7644      130.0690      131.8334      72.857605       0.66019
   1     891.5       60.0889        1.9097      122.1273      124.0370      63.948060       0.75816
   0    1013.0       62.8747        2.0638      112.9512      115.0150      52.140333       0.81987



 Wavenumbers: 12850. - 16000. cm-1, ATM      1
 LEVEL PRESSURE   UPWARD FLUX   DIFDOWN FLUX  DIRDOWN FLUX  DOWNWARD FLUX   NET FLUX    HEATING RATE
          mb          W/m2          W/m2          W/m2        W/m2          W/m2       degree/day
  51    .06700       64.6520        0.0000       98.0872       98.0872      33.435248       0.00000
  50    .07753       64.6520        0.0001       98.0864       98.0864      33.434460       0.63184
  49    .09103       64.6520        0.0001       98.0853       98.0854      33.433470       0.61841
  48    0.1069       64.6520        0.0002       98.0841       98.0843      33.432334       0.60466
  47    0.1255       64.6520        0.0004       98.0826       98.0830      33.431030       0.59115
  46    0.1487       64.6520        0.0005       98.0809       98.0813      33.429387       0.59922
  45    0.1794       64.6520        0.0007       98.0784       98.0791      33.427153       0.61324
  44    0.2165       64.6520        0.0009       98.0756       98.0765      33.424528       0.59697
  43    0.2613       64.6521        0.0012       98.0723       98.0735      33.421447       0.58083
  42    0.3336       64.6522        0.0016       98.0670       98.0686      33.416427       0.58526
  41    0.4307       64.6524        0.0022       98.0602       98.0624      33.409950       0.56316
  40    0.5894       64.6529        0.0031       98.0496       98.0527      33.399778       0.54095
  39     1.339       64.6577        0.0076       98.0043       98.0120      33.354245       0.51262
  38     1.782       64.6623        0.0103       97.9793       97.9896      33.327274       0.51349
  37     2.292       64.6692        0.0133       97.9498       97.9631      33.293931       0.55224
  36     2.964       64.6807        0.0173       97.9088       97.9262      33.245445       0.60864
  35     3.853       64.6995        0.0226       97.8503       97.8730      33.173527       0.68252
  34     5.035       64.7278        0.0297       97.7680       97.7977      33.069876       0.74044
  33     6.613       64.7674        0.0391       97.6562       97.6952      32.927856       0.75924
  32     8.786       64.8189        0.0517       97.5107       97.5624      32.743463       0.71612
  31     11.80       64.8858        0.0697       97.3179       97.3876      32.501831       0.67649
  30     15.07       64.9496        0.0891       97.1283       97.2174      32.267816       0.60418
  29     18.79       65.0146        0.1110       96.9300       97.0410      32.026388       0.54739
  28     23.16       65.0822        0.1365       96.7166       96.8530      31.770792       0.49424
  27     28.12       65.1499        0.1656       96.4935       96.6591      31.509130       0.44481
  26     33.73       65.2119        0.1982       96.2731       96.4713      31.259331       0.37558
  25     40.54       65.2709        0.2376       96.0408       96.2783      31.007444       0.31249
  24     48.69       65.3265        0.2850       95.7946       96.0796      30.753147       0.26316
  23     57.69       65.3724        0.3372       95.5573       95.8944      30.521998       0.21667
  22     68.43       65.4109        0.3993       95.3106       95.7099      30.298972       0.17533
  21     81.20       65.4344        0.4734       95.0643       95.5377      30.103278       0.12931
  20     96.49       65.4418        0.5617       94.8153       95.3770      29.935218       0.09276
  19     114.6       65.4516        0.6677       94.5411       95.2087      29.757099       0.08317
  18     136.5       65.4538        0.7932       94.2320       95.0253      29.571441       0.07139
  17     162.9       65.4477        0.9427       93.8753       94.8180      29.370314       0.06429
  16     196.4       65.4213        1.1365       93.4347       94.5711      29.149856       0.05549
  15     218.7       65.3972        1.2637       93.1513       94.4150      29.017719       0.05017
  14     243.0       65.3682        1.4019       92.8439       94.2458      28.877655       0.04858
  13     269.0       65.3340        1.5517       92.5111       94.0628      28.728815       0.04828
  12     297.5       65.2949        1.7135       92.1495       93.8629      28.568081       0.04767
  11     328.5       65.2523        1.8882       91.7554       93.6436      28.391336       0.04806
  10     361.9       65.2068        2.0763       91.3262       93.4025      28.195733       0.04949
   9     398.1       65.1592        2.2786       90.8575       93.1361      27.976932       0.05098
   8     437.6       65.1116        2.4957       90.3418       92.8375      27.725897       0.05367
   7     480.5       65.0658        2.7281       89.7728       92.5009      27.435137       0.05710
   6     533.0       65.0199        3.0137       89.0428       92.0565      27.036667       0.06410
   5     589.8       64.9905        3.3205       88.2038       91.5243      26.533763       0.07465
   4     651.6       65.0008        3.6480       87.1979       90.8460      25.845131       0.09417
   3     718.7       65.0658        3.9947       86.0161       90.0109      24.945066       0.11311
   2     792.3       65.2346        4.3569       84.5970       88.9540      23.719413       0.14057
   1     891.5       65.6974        4.8274       82.4374       87.2648      21.567430       0.18312
   0    1013.0       66.7237        5.3662       79.6182       84.9844      18.260678       0.22960



 Wavenumbers: 16000. - 22650. cm-1, ATM      1
 LEVEL PRESSURE   UPWARD FLUX   DIFDOWN FLUX  DIRDOWN FLUX  DOWNWARD FLUX   NET FLUX    HEATING RATE
          mb          W/m2          W/m2          W/m2        W/m2          W/m2       degree/day
  51    .06700      137.2446        0.0000      156.3892      156.3892      19.144623       0.00000
  50    .07753      137.2446        0.0004      156.3887      156.3891      19.144477       0.11681
  49    .09103      137.2446        0.0009      156.3879      156.3888      19.144265       0.13248
  48    0.1069      137.2446        0.0015      156.3871      156.3885      19.143981       0.15107
  47    0.1255      137.2446        0.0021      156.3861      156.3882      19.143601       0.17220
  46    0.1487      137.2446        0.0029      156.3847      156.3876      19.143041       0.20406
  45    0.1794      137.2447        0.0040      156.3828      156.3869      19.142166       0.24026
  44    0.2165      137.2449        0.0054      156.3805      156.3859      19.140979       0.27003
  43    0.2613      137.2452        0.0070      156.3776      156.3846      19.139369       0.30358
  42    0.3336      137.2459        0.0096      156.3726      156.3822      19.136307       0.35700
  41    0.4307      137.2470        0.0130      156.3657      156.3787      19.131691       0.40131
  40    0.5894      137.2495        0.0187      156.3537      156.3723      19.122889       0.46811
  39     1.339      137.2710        0.0454      156.2834      156.3288      19.057855       0.73216
  38     1.782      137.2910        0.0611      156.2324      156.2934      19.002454       1.05474
  37     2.292      137.3211        0.0792      156.1641      156.2433      18.922261       1.32820
  36     2.964      137.3712        0.1031      156.0605      156.1636      18.792349       1.63078
  35     3.853      137.4524        0.1345      155.9041      156.0386      18.586214       1.95626
  34     5.035      137.5750        0.1763      155.6774      155.8536      18.278685       2.19687
  33     6.613      137.7463        0.2320      155.3656      155.5976      17.851322       2.28468
  32     8.786      137.9694        0.3070      154.9577      155.2646      17.295251       2.15958
  31     11.80      138.2596        0.4141      154.4153      154.8293      16.569766       2.03113
  30     15.07      138.5373        0.5289      153.8804      154.4093      15.871920       1.80170
  29     18.79      138.8207        0.6584      153.3191      153.9775      15.156741       1.62153
  28     23.16      139.1166        0.8094      152.7126      153.5220      14.405326       1.45299
  27     28.12      139.4140        0.9818      152.0755      153.0573      13.643323       1.29535
  26     33.73      139.6879        1.1746      151.4409      152.6155      12.927629       1.07607
  25     40.54      139.9507        1.4073      150.7637      152.1710      12.220319       0.87750
  24     48.69      140.2013        1.6875      150.0338      151.7214      11.520127       0.72459
  23     57.69      140.4125        1.9950      149.3151      151.3101      10.897636       0.58349
  22     68.43      140.5950        2.3607      148.5476      150.9083      10.313326       0.45935
  21     81.20      140.7178        2.7961      147.7517      150.5478       9.830003       0.31937
  20     96.49      140.7763        3.3144      146.9127      150.2271       9.450745       0.20932
  19     114.6      140.8008        3.9280      145.9763      149.9043       9.103455       0.16216
  18     136.5      140.7994        4.6524      144.9088      149.5612       8.761838       0.13136
  17     162.9      140.7699        5.5110      143.6785      149.1896       8.419668       0.10937
  16     196.4      140.6718        6.6187      142.1651      148.7837       8.111953       0.07746
  15     218.7      140.5854        7.3424      141.2033      148.5458       7.960374       0.05755
  14     243.0      140.4814        8.1257      140.1753      148.3011       7.819604       0.04882
  13     269.0      140.3583        8.9707      139.0797      148.0504       7.692037       0.04138
  12     297.5      140.2153        9.8793      137.9141      147.7934       7.578051       0.03381
  11     328.5      140.0562       10.8558      136.6676      147.5234       7.467160       0.03015
  10     361.9      139.8808       11.9011      135.3392      147.2403       7.359506       0.02724
   9     398.1      139.6884       13.0191      133.9235      146.9426       7.254226       0.02453
   8     437.6      139.4799       14.2119      132.4163      146.6281       7.148239       0.02266
   7     480.5      139.2548       15.4814      130.8147      146.2961       7.041278       0.02101
   6     533.0      138.9777       17.0317      128.8599      145.8916       6.913941       0.02048
   5     589.8      138.6826       18.6878      126.7679      145.4558       6.773183       0.02089
   4     651.6      138.3753       20.4512      124.5274      144.9787       6.603364       0.02322
   3     718.7      138.0616       22.3236      122.1285      144.4521       6.390468       0.02676
   2     792.3      137.7573       24.3027      119.5548      143.8575       6.100225       0.03329
   1     891.5      137.4231       26.9288      116.0566      142.9854       5.562333       0.04577
   0    1013.0      137.1471       30.0133      111.8404      141.8537       4.706571       0.05942



 Wavenumbers: 22650. - 29000. cm-1, ATM      1
 LEVEL PRESSURE   UPWARD FLUX   DIFDOWN FLUX  DIRDOWN FLUX  DOWNWARD FLUX   NET FLUX    HEATING RATE
          mb          W/m2          W/m2          W/m2        W/m2          W/m2       degree/day
  51    .06700       57.1686        0.0000       59.0156       59.0156       1.846978       0.00000
  50    .07753       57.1685        0.0005       59.0151       59.0155       1.846978       0.00000
  49    .09103       57.1684        0.0010       59.0144       59.0154       1.846978      -0.00000
  48    0.1069       57.1683        0.0017       59.0136       59.0153       1.846978      -0.00000
  47    0.1255       57.1681        0.0025       59.0127       59.0151       1.846978       0.00000
  46    0.1487       57.1679        0.0034       59.0115       59.0149       1.846978       0.00000
  45    0.1794       57.1677        0.0047       59.0099       59.0146       1.846978       0.00000
  44    0.2165       57.1673        0.0063       59.0080       59.0143       1.846978       0.00000
  43    0.2613       57.1670        0.0081       59.0058       59.0139       1.846978      -0.00000
  42    0.3336       57.1663        0.0112       59.0022       59.0133       1.846978       0.00000
  41    0.4307       57.1655        0.0152       58.9973       59.0125       1.846978       0.00000
  40    0.5894       57.1642        0.0218       58.9894       59.0111       1.846978      -0.00000
  39     1.339       57.1578        0.0530       58.9518       59.0047       1.846978       0.00000
  38     1.782       57.1540        0.0713       58.9297       59.0010       1.846978       0.00000
  37     2.292       57.1497        0.0925       58.9042       58.9966       1.846978      -0.00000
  36     2.964       57.1440        0.1203       58.8706       58.9909       1.846978       0.00000
  35     3.853       57.1364        0.1570       58.8264       58.9834       1.846978      -0.00000
  34     5.035       57.1264        0.2058       58.7676       58.9734       1.846978       0.00000
  33     6.613       57.1131        0.2710       58.6891       58.9600       1.846978       0.00000
  32     8.786       57.0951        0.3586       58.5834       58.9421       1.846978      -0.00000
  31     11.80       57.0694        0.4839       58.4324       58.9164       1.846978       0.00000
  30     15.07       57.0418        0.6182       58.2706       58.8888       1.846978       0.00000
  29     18.79       57.0108        0.7695       58.0882       58.8577       1.846978      -0.00000
  28     23.16       56.9746        0.9458       57.8757       58.8215       1.846978       0.00000
  27     28.12       56.9333        1.1469       57.6333       58.7802       1.846978       0.00000
  26     33.73       56.8872        1.3711       57.3631       58.7342       1.846978       0.00000
  25     40.54       56.8317        1.6408       57.0379       58.6787       1.846978      -0.00000
  24     48.69       56.7652        1.9643       56.6479       58.6122       1.846978      -0.00000
  23     57.69       56.6925        2.3174       56.2221       58.5395       1.846978       0.00000
  22     68.43       56.6065        2.7350       55.7186       58.4535       1.846978       0.00000
  21     81.20       56.5049        3.2280       55.1239       58.3519       1.846978       0.00000
  20     96.49       56.3850        3.8092       54.4228       58.2320       1.846978       0.00000
  19     114.6       56.2443        4.4903       53.6010       58.0913       1.846978       0.00000
  18     136.5       56.0798        5.2851       52.6418       57.9268       1.846978      -0.00000
  17     162.9       55.8873        6.2139       51.5203       57.7343       1.846978       0.00000
  16     196.4       55.6429        7.3904       50.0994       57.4898       1.846978       0.00000
  15     218.7       55.4855        8.1462       49.1863       57.3325       1.846978      -0.00000
  14     243.0       55.3172        8.9529       48.2113       57.1642       1.846978       0.00000
  13     269.0       55.1380        9.8100       47.1749       56.9850       1.846978       0.00000
  12     297.5       54.9480       10.7167       46.0783       56.7949       1.846978      -0.00000
  11     328.5       54.7468       11.6742       44.9195       56.5938       1.846978       0.00000
  10     361.9       54.5349       12.6800       43.7018       56.3818       1.846978      -0.00000
   9     398.1       54.3121       13.7340       42.4250       56.1590       1.846978       0.00000
   8     437.6       54.0787       14.8341       41.0916       55.9257       1.846978       0.00000
   7     480.5       53.8352       15.9777       39.7045       55.6821       1.846978       0.00000
   6     533.0       53.5443       17.3370       38.0543       55.3913       1.846978      -0.00000
   5     589.8       53.2413       18.7452       36.3431       55.0883       1.846978       0.00000
   4     651.6       52.9274       20.1948       34.5795       54.7744       1.846978      -0.00000
   3     718.7       52.6034       21.6801       32.7702       54.4503       1.846978       0.00000
   2     792.3       52.2708       23.1922       30.9256       54.1177       1.846978      -0.00000
   1     891.5       51.8437       25.1129       28.5778       53.6907       1.846978       0.00000
   0    1013.0       51.3629       27.2434       25.9665       53.2099       1.846978       0.00000



 Wavenumbers: 29000. - 38000. cm-1, ATM      1
 LEVEL PRESSURE   UPWARD FLUX   DIFDOWN FLUX  DIRDOWN FLUX  DOWNWARD FLUX   NET FLUX    HEATING RATE
          mb          W/m2          W/m2          W/m2        W/m2          W/m2       degree/day
  51    .06700        8.5678        0.0000       20.8114       20.8114      12.243565       0.00000
  50    .07753        8.5676        0.0003       20.8070       20.8074      12.239758       3.05134
  49    .09103        8.5674        0.0007       20.8009       20.8016      12.234222       3.46061
  48    0.1069        8.5671        0.0012       20.7928       20.7939      12.226812       3.94401
  47    0.1255        8.5668        0.0017       20.7820       20.7837      12.216908       4.49001
  46    0.1487        8.5665        0.0024       20.7665       20.7688      12.202346       5.30805
  45    0.1794        8.5660        0.0033       20.7424       20.7457      12.179683       6.22157
  44    0.2165        8.5655        0.0043       20.7103       20.7147      12.149163       6.94287
  43    0.2613        8.5649        0.0056       20.6675       20.6731      12.108171       7.72671
  42    0.3336        8.5640        0.0077       20.5880       20.5956      12.031616       8.92552
  41    0.4307        8.5629        0.0103       20.4722       20.4826      11.919674       9.73318
  40    0.5894        8.5613        0.0146       20.2637       20.2783      11.717009      10.77746
  39     1.339        8.5577        0.0330       19.0984       19.1314      10.573675      12.87186
  38     1.782        8.5580        0.0425       18.4394       18.4819       9.923872      12.37120
  37     2.292        8.5604        0.0527       17.7714       17.8241       9.263699      10.93418
  36     2.964        8.5666        0.0654       17.0421       17.1075       8.540849       9.07395
  35     3.853        8.5789        0.0812       16.2678       16.3490       7.770099       7.31456
  34     5.035        8.5993        0.1012       15.4803       15.5815       6.982238       5.62815
  33     6.613        8.6290        0.1268       14.7157       14.8425       6.213531       4.10951
  32     8.786        8.6682        0.1604       13.9936       14.1539       5.485725       2.82654
  31     11.80        8.7193        0.2071       13.2835       13.4906       4.771267       2.00026
  30     15.07        8.7686        0.2555       12.7394       12.9949       4.226264       1.40709
  29     18.79        8.8194        0.3092       12.2666       12.5758       3.756354       1.06543
  28     23.16        8.8733        0.3702       11.8300       12.2002       3.326869       0.83048
  27     28.12        8.9285        0.4385       11.4279       11.8664       2.937903       0.66122
  26     33.73        8.9792        0.5138       11.0695       11.5833       2.604071       0.50193
  25     40.54        9.0270        0.6038       10.7209       11.3246       2.297612       0.38020
  24     48.69        9.0718        0.7104       10.3742       11.0846       2.012808       0.29473
  23     57.69        9.1081        0.8259       10.0549       10.8808       1.772663       0.22510
  22     68.43        9.1368        0.9613        9.7327       10.6940       1.557196       0.16939
  21     81.20        9.1490        1.1211        9.4134       10.5345       1.385477       0.11347
  20     96.49        9.1428        1.3089        9.0887       10.3977       1.254828       0.07211
  19     114.6        9.1261        1.5259        8.7388       10.2647       1.138596       0.05427
  18     136.5        9.1015        1.7738        8.3549       10.1287       1.027135       0.04286
  17     162.9        9.0693        2.0562        7.9311        9.9874       0.918074       0.03486
  16     196.4        9.0170        2.4058        7.4333        9.8391       0.822155       0.02414
  15     218.7        8.9797        2.6256        7.1295        9.7551       0.775406       0.01775
  14     243.0        8.9390        2.8552        6.8161        9.6713       0.732262       0.01496
  13     269.0        8.8946        3.0938        6.4943        9.5881       0.693545       0.01256
  12     297.5        8.8465        3.3402        6.1657        9.5059       0.659437       0.01012
  11     328.5        8.7962        3.5935        5.8295        9.4230       0.626803       0.00887
  10     361.9        8.7440        3.8512        5.4886        9.3398       0.595790       0.00785
   9     398.1        8.6902        4.1126        5.1440        9.2566       0.566422       0.00684
   8     437.6        8.6351        4.3763        4.7969        9.1733       0.538136       0.00605
   7     480.5        8.5792        4.6401        4.4504        9.0905       0.511311       0.00527
   6     533.0        8.5145        4.9403        4.0563        8.9966       0.482099       0.00470
   5     589.8        8.4500        5.2356        3.6682        8.9038       0.453851       0.00419
   4     651.6        8.3866        5.5223        3.2905        8.8128       0.426250       0.00377
   3     718.7        8.3247        5.7987        2.9252        8.7239       0.399257       0.00339
   2     792.3        8.2650        6.0614        2.5764        8.6379       0.372875       0.00303
   1     891.5        8.1942        6.3686        2.1659        8.5346       0.340366       0.00277
   0    1013.0        8.1227        6.6747        1.7526        8.4272       0.304555       0.00249



 Wavenumbers: 38000. - 50000. cm-1, ATM      1
 LEVEL PRESSURE   UPWARD FLUX   DIFDOWN FLUX  DIRDOWN FLUX  DOWNWARD FLUX   NET FLUX    HEATING RATE
          mb          W/m2          W/m2          W/m2        W/m2          W/m2       degree/day
  51    .06700        0.0061        0.0000        1.2836        1.2836       1.277518       0.00000
  50    .07753        0.0061        0.0001        1.2812        1.2812       1.275183       1.87150
  49    .09103        0.0060        0.0002        1.2777        1.2778       1.271851       2.08247
  48    0.1069        0.0059        0.0002        1.2731        1.2734       1.267473       2.33059
  47    0.1255        0.0058        0.0004        1.2672        1.2675       1.261717       2.60908
  46    0.1487        0.0057        0.0005        1.2586        1.2591       1.253391       3.03499
  45    0.1794        0.0055        0.0007        1.2455        1.2462       1.240623       3.50520
  44    0.2165        0.0054        0.0009        1.2282        1.2291       1.223697       3.85037
  43    0.2613        0.0052        0.0011        1.2054        1.2065       1.201348       4.21261
  42    0.3336        0.0049        0.0015        1.1639        1.1654       1.160524       4.75970
  41    0.4307        0.0045        0.0020        1.1051        1.1070       1.102565       5.03943
  40    0.5894        0.0039        0.0026        1.0039        1.0064       1.002524       5.32007
  39     1.339        0.0022        0.0035        0.5438        0.5473       0.545104       5.14971
  38     1.782        0.0016        0.0032        0.3635        0.3666       0.365006       3.42879
  37     2.292        0.0012        0.0027        0.2356        0.2383       0.237058       2.11916
  36     2.964        0.0009        0.0022        0.1455        0.1477       0.146786       1.13318
  35     3.853        0.0006        0.0017        0.0858        0.0875       0.086906       0.56828
  34     5.035        0.0004        0.0013        0.0488        0.0501       0.049701       0.26578
  33     6.613        0.0003        0.0010        0.0273        0.0282       0.027974       0.11615
  32     8.786        0.0002        0.0007        0.0144        0.0151       0.014928       0.05067
  31     11.80        0.0001        0.0004        0.0065        0.0070       0.006903       0.02247
  30     15.07        0.0000        0.0003        0.0031        0.0034       0.003329       0.00923
  29     18.79        0.0000        0.0002        0.0014        0.0016       0.001583       0.00396
  28     23.16        0.0000        0.0001        0.0006        0.0007       0.000720       0.00167
  27     28.12        0.0000        0.0001        0.0003        0.0003       0.000317       0.00069
  26     33.73        0.0000        0.0000        0.0001        0.0001       0.000140       0.00027
  25     40.54        0.0000        0.0000        0.0000        0.0001       0.000057       0.00010
  24     48.69        0.0000        0.0000        0.0000        0.0000       0.000021       0.00004
  23     57.69        0.0000        0.0000        0.0000        0.0000       0.000008       0.00001
  22     68.43        0.0000        0.0000        0.0000        0.0000       0.000003       0.00000
  21     81.20        0.0000        0.0000        0.0000        0.0000       0.000001       0.00000
  20     96.49        0.0000        0.0000        0.0000        0.0000       0.000000       0.00000
  19     114.6        0.0000        0.0000        0.0000        0.0000       0.000000       0.00000
  18     136.5        0.0000        0.0000        0.0000        0.0000       0.000000       0.00000
  17     162.9        0.0000        0.0000        0.0000        0.0000       0.000000       0.00000
  16     196.4        0.0000        0.0000        0.0000        0.0000       0.000000       0.00000
  15     218.7        0.0000        0.0000        0.0000        0.0000       0.000000       0.00000
  14     243.0        0.0000        0.0000        0.0000        0.0000       0.000000       0.00000
  13     269.0        0.0000        0.0000        0.0000        0.0000       0.000000       0.00000
  12     297.5        0.0000        0.0000        0.0000        0.0000       0.000000       0.00000
  11     328.5        0.0000        0.0000        0.0000        0.0000       0.000000       0.00000
  10     361.9        0.0000        0.0000        0.0000        0.0000       0.000000       0.00000
   9     398.1        0.0000        0.0000        0.0000        0.0000       0.000000       0.00000
   8     437.6        0.0000        0.0000        0.0000        0.0000       0.000000       0.00000
   7     480.5        0.0000        0.0000        0.0000        0.0000       0.000000       0.00000
   6     533.0        0.0000        0.0000        0.0000        0.0000       0.000000       0.00000
   5     589.8        0.0000        0.0000        0.0000        0.0000       0.000000       0.00000
   4     651.6        0.0000        0.0000        0.0000        0.0000       0.000000       0.00000
   3     718.7        0.0000        0.0000        0.0000        0.0000       0.000000       0.00000
   2     792.3        0.0000        0.0000        0.0000        0.0000       0.000000       0.00000
   1     891.5        0.0000        0.0000        0.0000        0.0000       0.000000       0.00000
   0    1013.0        0.0000        0.0000        0.0000        0.0000       0.000000       0.00000



 Wavenumbers:   820. -  2600. cm-1, ATM      1
 LEVEL PRESSURE   UPWARD FLUX   DIFDOWN FLUX  DIRDOWN FLUX  DOWNWARD FLUX   NET FLUX    HEATING RATE
          mb          W/m2          W/m2          W/m2        W/m2          W/m2       degree/day
  51    .06700        0.5830        0.0000        6.0047        6.0047       5.421667       0.00000
  50    .07753        0.5830        0.0000        6.0008        6.0008       5.417814       3.08820
  49    .09103        0.5830        0.0000        5.9999        5.9999       5.416929       0.55357
  48    0.1069        0.5830        0.0000        5.9989        5.9989       5.415940       0.52651
  47    0.1255        0.5830        0.0000        5.9978        5.9978       5.414822       0.50649
  46    0.1487        0.5830        0.0000        5.9964        5.9964       5.413466       0.49456
  45    0.1794        0.5830        0.0000        5.9947        5.9947       5.411746       0.47199
  44    0.2165        0.5830        0.0000        5.9929        5.9929       5.409904       0.41909
  43    0.2613        0.5830        0.0000        5.9909        5.9909       5.407945       0.36932
  42    0.3336        0.5830        0.0000        5.9880        5.9880       5.405067       0.33555
  41    0.4307        0.5830        0.0000        5.9846        5.9846       5.401598       0.30163
  40    0.5894        0.5830        0.0000        5.9791        5.9791       5.396093       0.29275
  39     1.339        0.5830        0.0000        5.9536        5.9536       5.370607       0.28693
  38     1.782        0.5830        0.0000        5.9395        5.9395       5.356469       0.26916
  37     2.292        0.5830        0.0000        5.9237        5.9237       5.340719       0.26087
  36     2.964        0.5830        0.0000        5.9039        5.9039       5.320945       0.24821
  35     3.853        0.5830        0.0000        5.8793        5.8793       5.296290       0.23398
  34     5.035        0.5830        0.0000        5.8487        5.8487       5.265729       0.21832
  33     6.613        0.5830        0.0000        5.8108        5.8108       5.227766       0.20295
  32     8.786        0.5830        0.0000        5.7631        5.7631       5.180145       0.18494
  31     11.80        0.5830        0.0000        5.7039        5.7039       5.120891       0.16589
  30     15.07        0.5830        0.0000        5.6539        5.6539       5.070855       0.12918
  29     18.79        0.5830        0.0000        5.6127        5.6127       5.029721       0.09326
  28     23.16        0.5830        0.0000        5.5794        5.5794       4.996346       0.06454
  27     28.12        0.5830        0.0000        5.5518        5.5518       4.968780       0.04686
  26     33.73        0.5830        0.0000        5.5268        5.5268       4.943726       0.03767
  25     40.54        0.5831        0.0000        5.4993        5.4993       4.916280       0.03405
  24     48.69        0.5831        0.0000        5.4678        5.4678       4.884733       0.03265
  23     57.69        0.5831        0.0000        5.4340        5.4340       4.850938       0.03168
  22     68.43        0.5831        0.0000        5.3947        5.3948       4.811653       0.03088
  21     81.20        0.5831        0.0000        5.3497        5.3497       4.766606       0.02977
  20     96.49        0.5831        0.0000        5.2982        5.2982       4.715074       0.02844
  19     114.6        0.5832        0.0000        5.2389        5.2389       4.655729       0.02771
  18     136.5        0.5832        0.0000        5.1716        5.1717       4.588442       0.02587
  17     162.9        0.5833        0.0000        5.0890        5.0890       4.505766       0.02643
  16     196.4        0.5834        0.0000        4.9668        4.9668       4.383450       0.03079
  15     218.7        0.5835        0.0000        4.8585        4.8585       4.274987       0.04118
  14     243.0        0.5837        0.0000        4.7078        4.7079       4.124205       0.05230
  13     269.0        0.5839        0.0000        4.5343        4.5343       3.950369       0.05639
  12     297.5        0.5843        0.0000        4.3419        4.3420       3.757631       0.05716
  11     328.5        0.5849        0.0000        4.1281        4.1281       3.543232       0.05829
  10     361.9        0.5857        0.0000        3.8786        3.8787       3.292985       0.06331
   9     398.1        0.5867        0.0000        3.6159        3.6159       3.029227       0.06145
   8     437.6        0.5881        0.0000        3.3759        3.3759       2.787810       0.05162
   7     480.5        0.5898        0.0000        3.1957        3.1958       2.606018       0.03570
   6     533.0        0.5924        0.0000        3.0467        3.0467       2.454313       0.02440
   5     589.8        0.5963        0.0000        2.9023        2.9023       2.305971       0.02202
   4     651.6        0.6035        0.0000        2.7183        2.7184       2.114857       0.02614
   3     718.7        0.6159        0.0000        2.5058        2.5059       1.889921       0.02827
   2     792.3        0.6388        0.0000        2.2756        2.2757       1.636860       0.02902
   1     891.5        0.6971        0.0000        1.9621        1.9622       1.265103       0.03163
   0    1013.0        0.8437        0.0000        1.5468        1.5469       0.703208       0.03902

  Modules and versions used in this calculation:

       rrtmg_sw.1col.f90:  $Revision$                    rrtmg_sw_init.f90:  $Revision$        
     rrtmgsw_cldprop.f90:  $Revision$                  rrtmgsw_cldprmc.f90:  NOT USED          
     rrtmg_sw_reftra.f90:  $Revision$                  rrtmg_sw_spcvrt.f90:  NOT USED          
     rrtmg_sw_spcvmc.f90:  NOT USED                    rrtmgsw_setcoef.f90:  NOT USED          
     rrtmg_sw_taumol.f90:  $Revision$                  rrtmg_sw_vrtqdr.f90:  NOT USED          
                rrtatm.f:  NOT USED                             util_xxx.f:  NOT USED          
                 extra.f:  NOT USED                       rrtmg_sw_k_g.f90:  $Revision$        

