

 Wavenumbers:   820. - 50000. cm-1, ATM      1
 LEVEL PRESSURE   UPWARD FLUX   DIFDOWN FLUX  DIRDOWN FLUX  DOWNWARD FLUX   NET FLUX    HEATING RATE
          mb          W/m2          W/m2          W/m2        W/m2          W/m2       degree/day
  51    .06700      371.0703        0.0000      617.8126      617.8126     246.742292       0.00000
  50    .07753      371.0699        0.0013      617.7947      617.7961     246.726155      12.93366
  49    .09103      371.0695        0.0030      617.7778      617.7808     246.711350       9.25351
  48    0.1069      371.0690        0.0050      617.7581      617.7631     246.694095       9.18523
  47    0.1255      371.0684        0.0072      617.7340      617.7412     246.672757       9.67335
  46    0.1487      371.0678        0.0100      617.7009      617.7109     246.643082      10.81709
  45    0.1794      371.0671        0.0138      617.6521      617.6659     246.598866      12.13838
  44    0.2165      371.0663        0.0184      617.5895      617.6079     246.541563      13.03527
  43    0.2613      371.0655        0.0237      617.5089      617.5326     246.467075      14.04071
  42    0.3336      371.0646        0.0325      617.3641      617.3966     246.332035      15.74439
  41    0.4307      371.0638        0.0441      617.1591      617.2033     246.139476      16.74254
  40    0.5894      371.0634        0.0628      616.8005      616.8633     245.799903      18.05805
  39     1.339      371.0796        0.1474      614.9443      615.0917     244.012090      20.12753
  38     1.782      371.1015        0.1950      613.9670      614.1620     243.060476      18.11719
  37     2.292      371.1382        0.2491      613.0059      613.2550     242.116776      15.63014
  36     2.964      371.2034        0.3195      611.9577      612.2771     241.073748      13.09315
  35     3.853      371.3131        0.4118      610.8024      611.2142     239.901001      11.12959
  34     5.035      371.4822        0.5335      609.5327      610.0662     238.583973       9.40830
  33     6.613      371.7205        0.6951      608.1464      608.8416     237.121013       7.82099
  32     8.786      372.0309        0.9119      606.6250      607.5370     235.506092       6.27177
  31     11.80      372.4323        1.2206      604.8486      606.0692     233.636885       5.23319
  30     15.07      372.8140        1.5500      603.2440      604.7939     231.979912       4.27798
  29     18.79      373.2010        1.9205      601.6511      603.5717     230.370717       3.64854
  28     23.16      373.6021        2.3511      599.9927      602.3438     228.741770       3.14986
  27     28.12      374.0012        2.8412      598.2881      601.1293     227.128121       2.74310
  26     33.73      374.3606        3.3876      596.5951      599.9827     225.622047       2.26442
  25     40.54      374.6934        4.0454      594.7727      598.8181     224.124715       1.85761
  24     48.69      374.9961        4.8347      592.7865      597.6212     222.625090       1.55188
  23     57.69      375.2331        5.6974      590.7959      596.4933     221.260273       1.27931
  22     68.43      375.4116        6.7195      588.6191      595.3386     219.926979       1.04815
  21     81.20      375.4803        7.9312      586.2690      594.2002     218.719916       0.79761
  20     96.49      375.4285        9.3659      583.6961      593.0620     217.633488       0.59963
  19     114.6      375.3151       11.0537      580.7708      591.8245     216.509456       0.52484
  18     136.5      375.1360       13.0299      577.4359      590.4658     215.329818       0.45360
  17     162.9      374.8844       15.3490      573.5624      588.9114     214.026997       0.41643
  16     196.4      374.4700       18.3061      568.5907      586.8968     212.426774       0.40280
  15     218.7      374.1681       20.2179      565.0572      585.2751     211.106968       0.50108
  14     243.0      373.8294       22.2683      560.7495      583.0179     209.188460       0.66540
  13     269.0      373.4525       24.4588      555.3947      579.8534     206.400934       0.90426
  12     297.5      373.0386       26.7898      548.9964      575.7862     202.747561       1.08355
  11     328.5      372.5951       29.2678      542.0895      571.3574     198.762264       1.08359
  10     361.9      372.1249       31.8891      534.6242      566.5133     194.388428       1.10662
   9     398.1      371.6309       34.6581      526.4204      561.0785     189.447593       1.15110
   8     437.6      371.1215       37.5734      517.3907      554.9640     183.842534       1.19840
   7     480.5      370.6040       40.6331      507.7216      548.3546     177.750587       1.19644
   6     533.0      370.0193       44.3112      495.9006      540.2118     170.192509       1.21585
   5     589.8      369.4807       48.1706      483.0788      531.2494     161.768625       1.25038
   4     651.6      369.0791       52.1985      468.6907      520.8892     151.810147       1.36185
   3     718.7      368.9102       56.3870      453.2257      509.6128     140.702610       1.39591
   2     792.3      369.2062       60.7144      436.4928      497.2073     128.001133       1.45672
   1     891.5      370.8058       66.3054      413.9344      480.2398     109.434016       1.57997
   0    1013.0      375.6138       72.6645      388.4125      461.0770      85.463224       1.66442



 Wavenumbers:  2600. -  3250. cm-1, ATM      1
 LEVEL PRESSURE   UPWARD FLUX   DIFDOWN FLUX  DIRDOWN FLUX  DOWNWARD FLUX   NET FLUX    HEATING RATE
          mb          W/m2          W/m2          W/m2        W/m2          W/m2       degree/day
  51    .06700        0.0225        0.0000        5.4450        5.4450       5.422489       0.00000
  50    .07753        0.0225        0.0000        5.4450        5.4450       5.422481       0.00640
  49    .09103        0.0225        0.0000        5.4450        5.4450       5.422471       0.00627
  48    0.1069        0.0225        0.0000        5.4450        5.4450       5.422460       0.00613
  47    0.1255        0.0225        0.0000        5.4450        5.4450       5.422446       0.00599
  46    0.1487        0.0225        0.0000        5.4450        5.4450       5.422430       0.00608
  45    0.1794        0.0225        0.0000        5.4450        5.4450       5.422407       0.00625
  44    0.2165        0.0225        0.0000        5.4449        5.4449       5.422380       0.00612
  43    0.2613        0.0225        0.0000        5.4449        5.4449       5.422348       0.00600
  42    0.3336        0.0225        0.0000        5.4448        5.4448       5.422295       0.00617
  41    0.4307        0.0225        0.0000        5.4448        5.4448       5.422224       0.00620
  40    0.5894        0.0225        0.0000        5.4446        5.4446       5.422104       0.00637
  39     1.339        0.0225        0.0000        5.4439        5.4439       5.421397       0.00797
  38     1.782        0.0225        0.0000        5.4434        5.4434       5.420854       0.01034
  37     2.292        0.0225        0.0000        5.4427        5.4427       5.420138       0.01186
  36     2.964        0.0225        0.0000        5.4416        5.4416       5.419099       0.01304
  35     3.853        0.0225        0.0000        5.4402        5.4402       5.417622       0.01402
  34     5.035        0.0225        0.0000        5.4381        5.4381       5.415567       0.01468
  33     6.613        0.0225        0.0000        5.4353        5.4353       5.412786       0.01487
  32     8.786        0.0225        0.0000        5.4317        5.4317       5.409154       0.01411
  31     11.80        0.0225        0.0000        5.4269        5.4269       5.404374       0.01338
  30     15.07        0.0225        0.0000        5.4224        5.4224       5.399848       0.01169
  29     18.79        0.0225        0.0000        5.4180        5.4180       5.395436       0.01000
  28     23.16        0.0225        0.0000        5.4135        5.4135       5.390951       0.00867
  27     28.12        0.0225        0.0000        5.4088        5.4088       5.386304       0.00790
  26     33.73        0.0225        0.0000        5.4036        5.4036       5.381066       0.00788
  25     40.54        0.0225        0.0000        5.3966        5.3967       5.374126       0.00861
  24     48.69        0.0225        0.0000        5.3872        5.3872       5.364653       0.00980
  23     57.69        0.0225        0.0000        5.3754        5.3754       5.352874       0.01104
  22     68.43        0.0225        0.0000        5.3599        5.3599       5.337393       0.01217
  21     81.20        0.0225        0.0000        5.3401        5.3401       5.317570       0.01310
  20     96.49        0.0225        0.0000        5.3155        5.3155       5.293017       0.01355
  19     114.6        0.0225        0.0000        5.2853        5.2853       5.262838       0.01409
  18     136.5        0.0225        0.0000        5.2504        5.2505       5.227956       0.01341
  17     162.9        0.0225        0.0001        5.2111        5.2111       5.188649       0.01256
  16     196.4        0.0225        0.0001        5.1640        5.1641       5.141616       0.01184
  15     218.7        0.0225        0.0001        5.1331        5.1332       5.110698       0.01174
  14     243.0        0.0225        0.0001        5.0962        5.0963       5.073815       0.01279
  13     269.0        0.0225        0.0001        5.0511        5.0512       5.028697       0.01464
  12     297.5        0.0225        0.0001        4.9956        4.9957       4.973210       0.01646
  11     328.5        0.0225        0.0001        4.9304        4.9305       4.907973       0.01774
  10     361.9        0.0225        0.0001        4.8511        4.8512       4.828687       0.02006
   9     398.1        0.0226        0.0001        4.7507        4.7508       4.728248       0.02340
   8     437.6        0.0226        0.0001        4.6220        4.6222       4.599561       0.02751
   7     480.5        0.0227        0.0001        4.4625        4.4626       4.439941       0.03135
   6     533.0        0.0228        0.0002        4.2460        4.2462       4.223395       0.03484
   5     589.8        0.0230        0.0002        3.9954        3.9956       3.972588       0.03723
   4     651.6        0.0233        0.0002        3.7089        3.7090       3.685755       0.03923
   3     718.7        0.0237        0.0002        3.4018        3.4020       3.378264       0.03864
   2     792.3        0.0245        0.0002        3.0564        3.0566       3.032124       0.03970
   1     891.5        0.0262        0.0002        2.5828        2.5830       2.556791       0.04045
   0    1013.0        0.0302        0.0001        2.0845        2.0847       2.054434       0.03488



 Wavenumbers:  3250. -  4000. cm-1, ATM      1
 LEVEL PRESSURE   UPWARD FLUX   DIFDOWN FLUX  DIRDOWN FLUX  DOWNWARD FLUX   NET FLUX    HEATING RATE
          mb          W/m2          W/m2          W/m2        W/m2          W/m2       degree/day
  51    .06700        0.0005        0.0000        9.1795        9.1795       9.179065       0.00000
  50    .07753        0.0005        0.0000        9.1747        9.1747       9.174222       3.88148
  49    .09103        0.0005        0.0000        9.1713        9.1713       9.170834       2.11747
  48    0.1069        0.0005        0.0000        9.1688        9.1688       9.168309       1.34402
  47    0.1255        0.0005        0.0000        9.1665        9.1665       9.166050       1.02422
  46    0.1487        0.0005        0.0000        9.1641        9.1641       9.163609       0.88991
  45    0.1794        0.0005        0.0000        9.1612        9.1612       9.160731       0.79008
  44    0.2165        0.0005        0.0000        9.1583        9.1583       9.157810       0.66430
  43    0.2613        0.0005        0.0000        9.1553        9.1553       9.154837       0.56041
  42    0.3336        0.0005        0.0000        9.1511        9.1511       9.150658       0.48723
  41    0.4307        0.0005        0.0000        9.1464        9.1464       9.145890       0.41459
  40    0.5894        0.0005        0.0000        9.1393        9.1394       9.138884       0.37255
  39     1.339        0.0005        0.0000        9.1127        9.1127       9.112271       0.29962
  38     1.782        0.0005        0.0000        9.1011        9.1011       9.100683       0.22062
  37     2.292        0.0005        0.0000        9.0901        9.0901       9.089616       0.18329
  36     2.964        0.0005        0.0000        9.0776        9.0776       9.077186       0.15603
  35     3.853        0.0005        0.0000        9.0629        9.0629       9.062396       0.14036
  34     5.035        0.0005        0.0000        9.0441        9.0441       9.043657       0.13386
  33     6.613        0.0005        0.0000        9.0191        9.0191       9.018655       0.13366
  32     8.786        0.0005        0.0000        8.9843        8.9843       8.983872       0.13509
  31     11.80        0.0004        0.0000        8.9327        8.9327       8.932255       0.14451
  30     15.07        0.0004        0.0000        8.8758        8.8759       8.875411       0.14676
  29     18.79        0.0004        0.0000        8.8110        8.8110       8.810583       0.14698
  28     23.16        0.0004        0.0000        8.7365        8.7366       8.736139       0.14395
  27     28.12        0.0004        0.0000        8.6554        8.6555       8.655026       0.13789
  26     33.73        0.0004        0.0000        8.5719        8.5719       8.571526       0.12554
  25     40.54        0.0004        0.0001        8.4812        8.4812       8.480802       0.11255
  24     48.69        0.0004        0.0001        8.3838        8.3839       8.383501       0.10069
  23     57.69        0.0004        0.0001        8.2861        8.2862       8.285766       0.09161
  22     68.43        0.0004        0.0001        8.1751        8.1751       8.174769       0.08726
  21     81.20        0.0004        0.0001        8.0457        8.0458       8.045411       0.08548
  20     96.49        0.0003        0.0001        7.8949        7.8950       7.894708       0.08318
  19     114.6        0.0003        0.0001        7.7162        7.7163       7.715998       0.08344
  18     136.5        0.0003        0.0002        7.5193        7.5194       7.519154       0.07569
  17     162.9        0.0003        0.0002        7.2913        7.2915       7.291263       0.07284
  16     196.4        0.0002        0.0002        6.9660        6.9662       6.965991       0.08187
  15     218.7        0.0002        0.0002        6.6648        6.6650       6.664802       0.11435
  14     243.0        0.0002        0.0002        6.2619        6.2622       6.262008       0.13970
  13     269.0        0.0002        0.0003        5.7576        5.7579       5.757708       0.16359
  12     297.5        0.0001        0.0003        5.1719        5.1722       5.172018       0.17371
  11     328.5        0.0001        0.0002        4.5757        4.5760       4.575859       0.16209
  10     361.9        0.0001        0.0002        3.9995        3.9998       3.999684       0.14578
   9     398.1        0.0001        0.0002        3.4655        3.4657       3.465628       0.12442
   8     437.6        0.0001        0.0002        2.9740        2.9742       2.974182       0.10507
   7     480.5        0.0001        0.0002        2.5307        2.5309       2.530811       0.08708
   6     533.0        0.0000        0.0002        2.0614        2.0616       2.061519       0.07549
   5     589.8        0.0000        0.0002        1.6150        1.6151       1.615096       0.06626
   4     651.6        0.0000        0.0001        1.1565        1.1566       1.156564       0.06271
   3     718.7        0.0000        0.0001        0.7390        0.7391       0.739090       0.05246
   2     792.3        0.0000        0.0001        0.3985        0.3985       0.398509       0.03906
   1     891.5        0.0000        0.0000        0.1139        0.1139       0.113928       0.02422
   0    1013.0        0.0002        0.0000        0.0094        0.0094       0.009187       0.00727



 Wavenumbers:  4000. -  4650. cm-1, ATM      1
 LEVEL PRESSURE   UPWARD FLUX   DIFDOWN FLUX  DIRDOWN FLUX  DOWNWARD FLUX   NET FLUX    HEATING RATE
          mb          W/m2          W/m2          W/m2        W/m2          W/m2       degree/day
  51    .06700        0.3287        0.0000       10.7795       10.7795      10.450885       0.00000
  50    .07753        0.3287        0.0000       10.7795       10.7795      10.450884       0.00080
  49    .09103        0.3287        0.0000       10.7795       10.7795      10.450882       0.00078
  48    0.1069        0.3287        0.0000       10.7795       10.7795      10.450881       0.00076
  47    0.1255        0.3287        0.0000       10.7795       10.7795      10.450879       0.00075
  46    0.1487        0.3287        0.0000       10.7795       10.7795      10.450877       0.00076
  45    0.1794        0.3287        0.0000       10.7795       10.7795      10.450874       0.00078
  44    0.2165        0.3287        0.0000       10.7795       10.7795      10.450871       0.00076
  43    0.2613        0.3287        0.0000       10.7795       10.7795      10.450867       0.00075
  42    0.3336        0.3287        0.0000       10.7795       10.7795      10.450861       0.00077
  41    0.4307        0.3287        0.0000       10.7795       10.7795      10.450852       0.00077
  40    0.5894        0.3287        0.0000       10.7795       10.7795      10.450837       0.00080
  39     1.339        0.3287        0.0000       10.7794       10.7794      10.450747       0.00101
  38     1.782        0.3287        0.0000       10.7793       10.7793      10.450678       0.00133
  37     2.292        0.3287        0.0000       10.7792       10.7792      10.450584       0.00156
  36     2.964        0.3286        0.0000       10.7791       10.7791      10.450443       0.00176
  35     3.853        0.3286        0.0000       10.7789       10.7789      10.450235       0.00197
  34     5.035        0.3286        0.0000       10.7786       10.7786      10.449929       0.00219
  33     6.613        0.3286        0.0000       10.7781       10.7781      10.449478       0.00241
  32     8.786        0.3286        0.0000       10.7774       10.7774      10.448812       0.00259
  31     11.80        0.3286        0.0000       10.7763       10.7764      10.447766       0.00293
  30     15.07        0.3286        0.0001       10.7751       10.7751      10.446540       0.00317
  29     18.79        0.3286        0.0001       10.7736       10.7737      10.445057       0.00336
  28     23.16        0.3286        0.0001       10.7717       10.7718      10.443218       0.00356
  27     28.12        0.3286        0.0001       10.7695       10.7696      10.440993       0.00378
  26     33.73        0.3285        0.0001       10.7667       10.7668      10.438252       0.00412
  25     40.54        0.3285        0.0001       10.7629       10.7631      10.434536       0.00461
  24     48.69        0.3285        0.0002       10.7579       10.7581      10.429591       0.00512
  23     57.69        0.3285        0.0002       10.7520       10.7522      10.423736       0.00549
  22     68.43        0.3284        0.0002       10.7446       10.7448      10.416407       0.00576
  21     81.20        0.3284        0.0003       10.7355       10.7358      10.407399       0.00595
  20     96.49        0.3284        0.0003       10.7245       10.7248      10.396459       0.00604
  19     114.6        0.3283        0.0004       10.7107       10.7111      10.382814       0.00637
  18     136.5        0.3283        0.0005       10.6942       10.6947      10.366420       0.00630
  17     162.9        0.3282        0.0006       10.6740       10.6746      10.346393       0.00640
  16     196.4        0.3281        0.0007       10.6464       10.6471      10.318913       0.00692
  15     218.7        0.3281        0.0008       10.6255       10.6262      10.298112       0.00790
  14     243.0        0.3281        0.0009       10.5980       10.5989      10.270799       0.00947
  13     269.0        0.3281        0.0009       10.5611       10.5620      10.233907       0.01197
  12     297.5        0.3282        0.0010       10.5119       10.5130      10.184790       0.01457
  11     328.5        0.3283        0.0011       10.4499       10.4510      10.122705       0.01688
  10     361.9        0.3285        0.0013       10.3702       10.3714      10.042938       0.02018
   9     398.1        0.3287        0.0014       10.2678       10.2691       9.940410       0.02389
   8     437.6        0.3291        0.0015       10.1390       10.1405       9.811419       0.02758
   7     480.5        0.3295        0.0016        9.9877        9.9893       9.659827       0.02977
   6     533.0        0.3301        0.0017        9.7937        9.7954       9.465291       0.03129
   5     589.8        0.3311        0.0019        9.5752        9.5771       9.245957       0.03256
   4     651.6        0.3326        0.0020        9.2958        9.2978       8.965204       0.03839
   3     718.7        0.3351        0.0022        8.9267        8.9289       8.593808       0.04667
   2     792.3        0.3392        0.0023        8.4542        8.4565       8.117268       0.05465
   1     891.5        0.3489        0.0024        7.7948        7.7972       7.448288       0.05693
   0    1013.0        0.3716        0.0024        7.0767        7.0791       6.707483       0.05144



 Wavenumbers:  4650. -  5150. cm-1, ATM      1
 LEVEL PRESSURE   UPWARD FLUX   DIFDOWN FLUX  DIRDOWN FLUX  DOWNWARD FLUX   NET FLUX    HEATING RATE
          mb          W/m2          W/m2          W/m2        W/m2          W/m2       degree/day
  51    .06700        0.0598        0.0000       10.2033       10.2033      10.143493       0.00000
  50    .07753        0.0598        0.0000       10.2031       10.2031      10.143257       0.18901
  49    .09103        0.0598        0.0000       10.2028       10.2028      10.142963       0.18428
  48    0.1069        0.0598        0.0000       10.2025       10.2025      10.142626       0.17931
  47    0.1255        0.0598        0.0000       10.2021       10.2021      10.142241       0.17426
  46    0.1487        0.0598        0.0000       10.2016       10.2016      10.141760       0.17536
  45    0.1794        0.0598        0.0000       10.2010       10.2010      10.141110       0.17850
  44    0.2165        0.0598        0.0000       10.2002       10.2002      10.140351       0.17277
  43    0.2613        0.0598        0.0000       10.1993       10.1993      10.139465       0.16690
  42    0.3336        0.0598        0.0000       10.1979       10.1979      10.138033       0.16702
  41    0.4307        0.0598        0.0000       10.1960       10.1960      10.136192       0.16002
  40    0.5894        0.0598        0.0000       10.1932       10.1932      10.133318       0.15283
  39     1.339        0.0598        0.0000       10.1816       10.1816      10.121727       0.13050
  38     1.782        0.0598        0.0000       10.1760       10.1760      10.116199       0.10525
  37     2.292        0.0598        0.0000       10.1706       10.1706      10.110743       0.09036
  36     2.964        0.0598        0.0000       10.1646       10.1647      10.104821       0.07434
  35     3.853        0.0598        0.0000       10.1584       10.1584      10.098607       0.05896
  34     5.035        0.0598        0.0000       10.1521       10.1521      10.092274       0.04524
  33     6.613        0.0598        0.0000       10.1456       10.1456      10.085820       0.03450
  32     8.786        0.0598        0.0000       10.1386       10.1386      10.078815       0.02720
  31     11.80        0.0598        0.0001       10.1295       10.1296      10.069786       0.02528
  30     15.07        0.0598        0.0001       10.1196       10.1197      10.059921       0.02547
  29     18.79        0.0598        0.0001       10.1076       10.1077      10.047932       0.02718
  28     23.16        0.0597        0.0001       10.0923       10.0924      10.032654       0.02954
  27     28.12        0.0597        0.0002       10.0731       10.0733      10.013594       0.03240
  26     33.73        0.0597        0.0002       10.0500       10.0502       9.990546       0.03465
  25     40.54        0.0596        0.0002       10.0201       10.0203       9.960706       0.03702
  24     48.69        0.0596        0.0003        9.9820        9.9822       9.922623       0.03941
  23     57.69        0.0596        0.0003        9.9384        9.9388       9.879196       0.04071
  22     68.43        0.0595        0.0004        9.8858        9.8861       9.826616       0.04134
  21     81.20        0.0594        0.0004        9.8234        9.8239       9.764432       0.04109
  20     96.49        0.0594        0.0005        9.7518        9.7523       9.692897       0.03948
  19     114.6        0.0593        0.0006        9.6719        9.6725       9.613228       0.03720
  18     136.5        0.0592        0.0007        9.5858        9.5865       9.527308       0.03304
  17     162.9        0.0591        0.0008        9.4940        9.4949       9.435788       0.02925
  16     196.4        0.0590        0.0010        9.3883        9.3893       9.330317       0.02655
  15     218.7        0.0589        0.0011        9.3229        9.3240       9.265147       0.02474
  14     243.0        0.0588        0.0012        9.2520        9.2532       9.194403       0.02454
  13     269.0        0.0587        0.0013        9.1717        9.1730       9.114292       0.02599
  12     297.5        0.0586        0.0015        9.0763        9.0777       9.019115       0.02823
  11     328.5        0.0586        0.0016        8.9650        8.9666       8.908008       0.03021
  10     361.9        0.0585        0.0017        8.8349        8.8367       8.778153       0.03285
   9     398.1        0.0585        0.0019        8.6820        8.6839       8.625438       0.03558
   8     437.6        0.0584        0.0020        8.5028        8.5048       8.446386       0.03828
   7     480.5        0.0585        0.0022        8.2948        8.2970       8.238526       0.04082
   6     533.0        0.0585        0.0023        8.0209        8.0232       7.964686       0.04405
   5     589.8        0.0587        0.0025        7.7063        7.7088       7.650106       0.04669
   4     651.6        0.0591        0.0026        7.3412        7.3438       7.284799       0.04996
   3     718.7        0.0597        0.0027        6.9387        6.9414       6.881746       0.05065
   2     792.3        0.0607        0.0028        6.5066        6.5094       6.448749       0.04966
   1     891.5        0.0630        0.0029        5.9361        5.9390       5.876009       0.04874
   0    1013.0        0.0679        0.0030        5.3025        5.3055       5.237550       0.04433



 Wavenumbers:  5150. -  6150. cm-1, ATM      1
 LEVEL PRESSURE   UPWARD FLUX   DIFDOWN FLUX  DIRDOWN FLUX  DOWNWARD FLUX   NET FLUX    HEATING RATE
          mb          W/m2          W/m2          W/m2        W/m2          W/m2       degree/day
  51    .06700        0.7670        0.0000       25.5798       25.5798      24.812802       0.00000
  50    .07753        0.7670        0.0000       25.5798       25.5798      24.812763       0.03156
  49    .09103        0.7670        0.0000       25.5797       25.5797      24.812712       0.03204
  48    0.1069        0.7670        0.0000       25.5797       25.5797      24.812651       0.03255
  47    0.1255        0.7670        0.0000       25.5796       25.5796      24.812578       0.03305
  46    0.1487        0.7670        0.0000       25.5795       25.5795      24.812482       0.03482
  45    0.1794        0.7670        0.0000       25.5794       25.5794      24.812347       0.03707
  44    0.2165        0.7670        0.0000       25.5792       25.5792      24.812182       0.03763
  43    0.2613        0.7670        0.0000       25.5790       25.5790      24.811979       0.03821
  42    0.3336        0.7670        0.0000       25.5786       25.5786      24.811633       0.04037
  41    0.4307        0.7670        0.0000       25.5782       25.5782      24.811162       0.04091
  40    0.5894        0.7670        0.0000       25.5774       25.5774      24.810374       0.04192
  39     1.339        0.7670        0.0000       25.5735       25.5736      24.806577       0.04275
  38     1.782        0.7670        0.0000       25.5713       25.5713      24.804367       0.04207
  37     2.292        0.7670        0.0001       25.5688       25.5688      24.801867       0.04141
  36     2.964        0.7670        0.0001       25.5656       25.5656      24.798692       0.03986
  35     3.853        0.7669        0.0001       25.5615       25.5616      24.794658       0.03829
  34     5.035        0.7669        0.0001       25.5562       25.5564      24.789464       0.03710
  33     6.613        0.7669        0.0002       25.5494       25.5496      24.782729       0.03600
  32     8.786        0.7668        0.0002       25.5406       25.5408      24.774005       0.03388
  31     11.80        0.7667        0.0003       25.5287       25.5290      24.762213       0.03301
  30     15.07        0.7667        0.0004       25.5167       25.5171      24.750396       0.03051
  29     18.79        0.7666        0.0005       25.5042       25.5046      24.738051       0.02799
  28     23.16        0.7665        0.0006       25.4907       25.4913      24.724765       0.02569
  27     28.12        0.7664        0.0007       25.4764       25.4772      24.710768       0.02379
  26     33.73        0.7663        0.0009       25.4620       25.4629      24.696605       0.02129
  25     40.54        0.7661        0.0010       25.4463       25.4473      24.681151       0.01917
  24     48.69        0.7659        0.0012       25.4294       25.4306      24.664647       0.01708
  23     57.69        0.7658        0.0015       25.4126       25.4141      24.648305       0.01532
  22     68.43        0.7655        0.0017       25.3944       25.3961      24.630609       0.01391
  21     81.20        0.7653        0.0020       25.3744       25.3765      24.611184       0.01284
  20     96.49        0.7650        0.0024       25.3519       25.3544      24.589399       0.01202
  19     114.6        0.7646        0.0029       25.3262       25.3290      24.564454       0.01165
  18     136.5        0.7642        0.0034       25.2962       25.2996      24.535453       0.01115
  17     162.9        0.7636        0.0041       25.2521       25.2562      24.492514       0.01372
  16     196.4        0.7630        0.0049       25.1593       25.1642      24.401194       0.02299
  15     218.7        0.7626        0.0054       25.0159       25.0213      24.258776       0.05407
  14     243.0        0.7621        0.0059       24.7089       24.7148      23.952740       0.10614
  13     269.0        0.7616        0.0064       24.1619       24.1683      23.406642       0.17715
  12     297.5        0.7612        0.0069       23.4544       23.4613      22.700110       0.20955
  11     328.5        0.7608        0.0074       22.7355       22.7429      21.982131       0.19522
  10     361.9        0.7603        0.0079       21.9224       21.9303      21.170000       0.20548
   9     398.1        0.7599        0.0083       20.9939       21.0023      20.242328       0.21613
   8     437.6        0.7596        0.0087       19.9833       19.9921      19.232482       0.21591
   7     480.5        0.7593        0.0091       18.9483       18.9574      18.198075       0.20315
   6     533.0        0.7592        0.0095       17.7796       17.7891      17.029905       0.18792
   5     589.8        0.7594        0.0099       16.6726       16.6825      15.923097       0.16429
   4     651.6        0.7602        0.0103       15.6343       15.6446      14.884375       0.14205
   3     718.7        0.7621        0.0107       14.7738       14.7845      14.022371       0.10833
   2     792.3        0.7662        0.0112       14.0291       14.0403      13.274112       0.08582
   1     891.5        0.7775        0.0118       13.0822       13.0940      12.316477       0.08149
   0    1013.0        0.8108        0.0124       12.0384       12.0508      11.239983       0.07475



 Wavenumbers:  6150. -  7700. cm-1, ATM      1
 LEVEL PRESSURE   UPWARD FLUX   DIFDOWN FLUX  DIRDOWN FLUX  DOWNWARD FLUX   NET FLUX    HEATING RATE
          mb          W/m2          W/m2          W/m2        W/m2          W/m2       degree/day
  51    .06700        1.8418        0.0000       47.3109       47.3109      45.469103       0.00000
  50    .07753        1.8418        0.0000       47.3108       47.3108      45.469047       0.04553
  49    .09103        1.8418        0.0000       47.3107       47.3107      45.468973       0.04583
  48    0.1069        1.8418        0.0000       47.3106       47.3106      45.468887       0.04614
  47    0.1255        1.8418        0.0000       47.3105       47.3105      45.468784       0.04645
  46    0.1487        1.8417        0.0000       47.3104       47.3104      45.468651       0.04852
  45    0.1794        1.8417        0.0000       47.3102       47.3102      45.468464       0.05127
  44    0.2165        1.8417        0.0000       47.3100       47.3100      45.468237       0.05167
  43    0.2613        1.8417        0.0000       47.3097       47.3097      45.467961       0.05210
  42    0.3336        1.8417        0.0000       47.3092       47.3092      45.467492       0.05471
  41    0.4307        1.8417        0.0000       47.3085       47.3086      45.466857       0.05521
  40    0.5894        1.8417        0.0001       47.3074       47.3075      45.465797       0.05633
  39     1.339        1.8416        0.0001       47.3022       47.3023      45.460705       0.05733
  38     1.782        1.8416        0.0002       47.2991       47.2993      45.457735       0.05655
  37     2.292        1.8415        0.0002       47.2956       47.2959      45.454359       0.05591
  36     2.964        1.8415        0.0003       47.2912       47.2915      45.450041       0.05421
  35     3.853        1.8414        0.0004       47.2855       47.2859      45.444506       0.05252
  34     5.035        1.8413        0.0005       47.2780       47.2786      45.437326       0.05129
  33     6.613        1.8411        0.0007       47.2683       47.2690      45.427939       0.05019
  32     8.786        1.8409        0.0009       47.2556       47.2565      45.415640       0.04776
  31     11.80        1.8406        0.0013       47.2380       47.2393      45.398737       0.04732
  30     15.07        1.8402        0.0016       47.2201       47.2217      45.381450       0.04463
  29     18.79        1.8399        0.0020       47.2008       47.2028      45.362972       0.04190
  28     23.16        1.8394        0.0025       47.1795       47.1820      45.342583       0.03942
  27     28.12        1.8389        0.0030       47.1565       47.1595      45.320592       0.03738
  26     33.73        1.8383        0.0036       47.1324       47.1360      45.297673       0.03446
  25     40.54        1.8377        0.0043       47.1054       47.1097      45.272040       0.03180
  24     48.69        1.8368        0.0052       47.0754       47.0806      45.243793       0.02923
  23     57.69        1.8359        0.0062       47.0449       47.0511      45.215177       0.02682
  22     68.43        1.8349        0.0073       47.0110       47.0183      45.183449       0.02494
  21     81.20        1.8336        0.0087       46.9729       46.9815      45.147968       0.02345
  20     96.49        1.8320        0.0103       46.9294       46.9397      45.107645       0.02226
  19     114.6        1.8302        0.0122       46.8790       46.8912      45.061038       0.02176
  18     136.5        1.8280        0.0145       46.8200       46.8345      45.006453       0.02099
  17     162.9        1.8254        0.0172       46.7361       46.7534      44.927903       0.02511
  16     196.4        1.8221        0.0207       46.5703       46.5910      44.768886       0.04003
  15     218.7        1.8199        0.0230       46.3473       46.3703      44.550352       0.08297
  14     243.0        1.8176        0.0253       45.9299       45.9552      44.137570       0.14317
  13     269.0        1.8152        0.0277       45.1708       45.1984      43.383210       0.24471
  12     297.5        1.8128        0.0299       44.0115       44.0413      42.228562       0.34246
  11     328.5        1.8103        0.0321       42.7242       42.7563      40.946012       0.34872
  10     361.9        1.8078        0.0343       41.3539       41.3882      39.580401       0.34551
   9     398.1        1.8054        0.0364       39.7953       39.8316      38.026204       0.36209
   8     437.6        1.8033        0.0382       37.9948       38.0330      36.229744       0.38409
   7     480.5        1.8014        0.0399       36.0647       36.1046      34.303198       0.37837
   6     533.0        1.8001        0.0416       33.7773       33.8189      32.018810       0.36749
   5     589.8        1.8002        0.0430       31.4082       31.4512      29.650988       0.35146
   4     651.6        1.8034        0.0438       28.8834       28.9272      27.123858       0.34559
   3     718.7        1.8118        0.0444       26.4104       26.4548      24.642987       0.31178
   2     792.3        1.8302        0.0447       24.0056       24.0503      22.220054       0.27788
   1     891.5        1.8809        0.0448       21.2348       21.2796      19.398698       0.24008
   0    1013.0        2.0211        0.0450       18.6150       18.6600      16.638858       0.19163



 Wavenumbers:  7700. -  8050. cm-1, ATM      1
 LEVEL PRESSURE   UPWARD FLUX   DIFDOWN FLUX  DIRDOWN FLUX  DOWNWARD FLUX   NET FLUX    HEATING RATE
          mb          W/m2          W/m2          W/m2        W/m2          W/m2       degree/day
  51    .06700        3.5928        0.0000       11.1810       11.1810       7.588143       0.00000
  50    .07753        3.5928        0.0000       11.1809       11.1809       7.588123       0.01611
  49    .09103        3.5928        0.0000       11.1809       11.1809       7.588098       0.01579
  48    0.1069        3.5928        0.0000       11.1809       11.1809       7.588069       0.01545
  47    0.1255        3.5928        0.0000       11.1809       11.1809       7.588036       0.01512
  46    0.1487        3.5928        0.0000       11.1808       11.1808       7.587994       0.01535
  45    0.1794        3.5928        0.0000       11.1808       11.1808       7.587936       0.01579
  44    0.2165        3.5928        0.0000       11.1807       11.1807       7.587868       0.01549
  43    0.2613        3.5929        0.0000       11.1806       11.1806       7.587787       0.01520
  42    0.3336        3.5929        0.0000       11.1805       11.1805       7.587654       0.01555
  41    0.4307        3.5929        0.0000       11.1803       11.1804       7.587477       0.01538
  40    0.5894        3.5929        0.0000       11.1801       11.1801       7.587188       0.01537
  39     1.339        3.5931        0.0001       11.1788       11.1789       7.585821       0.01539
  38     1.782        3.5931        0.0001       11.1781       11.1782       7.585018       0.01529
  37     2.292        3.5932        0.0001       11.1772       11.1773       7.584089       0.01539
  36     2.964        3.5934        0.0001       11.1761       11.1762       7.582869       0.01532
  35     3.853        3.5935        0.0002       11.1746       11.1748       7.581257       0.01529
  34     5.035        3.5937        0.0002       11.1726       11.1728       7.579116       0.01529
  33     6.613        3.5940        0.0003       11.1700       11.1703       7.576258       0.01528
  32     8.786        3.5944        0.0004       11.1664       11.1668       7.572407       0.01495
  31     11.80        3.5950        0.0006       11.1613       11.1619       7.566904       0.01541
  30     15.07        3.5956        0.0007       11.1558       11.1566       7.561001       0.01524
  29     18.79        3.5963        0.0009       11.1497       11.1506       7.554343       0.01510
  28     23.16        3.5971        0.0011       11.1425       11.1436       7.546579       0.01501
  27     28.12        3.5980        0.0014       11.1343       11.1357       7.537718       0.01506
  26     33.73        3.5990        0.0017       11.1252       11.1269       7.527826       0.01487
  25     40.54        3.6003        0.0020       11.1142       11.1162       7.515909       0.01478
  24     48.69        3.6018        0.0024       11.1010       11.1034       7.501594       0.01481
  23     57.69        3.6035        0.0028       11.0866       11.0894       7.485937       0.01468
  22     68.43        3.6055        0.0034       11.0695       11.0729       7.467380       0.01459
  21     81.20        3.6079        0.0040       11.0494       11.0533       7.445404       0.01452
  20     96.49        3.6108        0.0047       11.0255       11.0302       7.419403       0.01435
  19     114.6        3.6143        0.0056       10.9975       11.0031       7.388789       0.01429
  18     136.5        3.6185        0.0066       10.9648       10.9714       7.352856       0.01382
  17     162.9        3.6236        0.0079       10.9263       10.9342       7.310546       0.01352
  16     196.4        3.6303        0.0095       10.8773       10.8867       7.256411       0.01363
  15     218.7        3.6348        0.0105       10.8455       10.8561       7.221258       0.01335
  14     243.0        3.6397        0.0116       10.8114       10.8231       7.183349       0.01315
  13     269.0        3.6452        0.0129       10.7749       10.7878       7.142546       0.01324
  12     297.5        3.6513        0.0142       10.7357       10.7499       7.098656       0.01302
  11     328.5        3.6580        0.0156       10.6937       10.7094       7.051414       0.01285
  10     361.9        3.6654        0.0172       10.6489       10.6660       7.000630       0.01285
   9     398.1        3.6737        0.0188       10.6008       10.6196       6.945878       0.01276
   8     437.6        3.6830        0.0206       10.5491       10.5697       6.886626       0.01267
   7     480.5        3.6935        0.0225       10.4934       10.5159       6.822379       0.01262
   6     533.0        3.7073        0.0248       10.4243       10.4491       6.741817       0.01296
   5     589.8        3.7234        0.0273       10.3479       10.3752       6.651845       0.01335
   4     651.6        3.7427        0.0300       10.2613       10.2913       6.548585       0.01412
   3     718.7        3.7666        0.0328       10.1618       10.1946       6.427983       0.01516
   2     792.3        3.7970        0.0358       10.0439       10.0797       6.282735       0.01666
   1     891.5        3.8483        0.0397        9.8626        9.9023       6.054051       0.01946
   0    1013.0        3.9298        0.0442        9.6103        9.6545       5.724759       0.02286



 Wavenumbers:  8050. - 12850. cm-1, ATM      1
 LEVEL PRESSURE   UPWARD FLUX   DIFDOWN FLUX  DIRDOWN FLUX  DOWNWARD FLUX   NET FLUX    HEATING RATE
          mb          W/m2          W/m2          W/m2        W/m2          W/m2       degree/day
  51    .06700       81.0218        0.0000      156.5418      156.5418      75.519903       0.00000
  50    .07753       81.0218        0.0000      156.5417      156.5417      75.519903      -0.00000
  49    .09103       81.0218        0.0001      156.5417      156.5417      75.519903       0.00000
  48    0.1069       81.0218        0.0001      156.5416      156.5417      75.519903       0.00000
  47    0.1255       81.0218        0.0002      156.5415      156.5417      75.519903      -0.00000
  46    0.1487       81.0217        0.0002      156.5414      156.5417      75.519903       0.00000
  45    0.1794       81.0217        0.0003      156.5413      156.5416      75.519903       0.00000
  44    0.2165       81.0217        0.0004      156.5412      156.5416      75.519903      -0.00000
  43    0.2613       81.0216        0.0005      156.5410      156.5415      75.519903      -0.00000
  42    0.3336       81.0215        0.0007      156.5407      156.5414      75.519903       0.00000
  41    0.4307       81.0214        0.0010      156.5403      156.5413      75.519903      -0.00000
  40    0.5894       81.0212        0.0014      156.5397      156.5411      75.519903       0.00000
  39     1.339       81.0203        0.0035      156.5367      156.5402      75.519903      -0.00000
  38     1.782       81.0198        0.0047      156.5350      156.5397      75.519903      -0.00000
  37     2.292       81.0191        0.0061      156.5330      156.5390      75.519903       0.00000
  36     2.964       81.0183        0.0079      156.5303      156.5382      75.519903       0.00000
  35     3.853       81.0172        0.0103      156.5268      156.5371      75.519903      -0.00000
  34     5.035       81.0158        0.0135      156.5222      156.5357      75.519903       0.00000
  33     6.613       81.0139        0.0178      156.5160      156.5338      75.519903      -0.00000
  32     8.786       81.0113        0.0235      156.5076      156.5312      75.519903      -0.00000
  31     11.80       81.0076        0.0318      156.4957      156.5275      75.519903       0.00000
  30     15.07       81.0036        0.0407      156.4828      156.5235      75.519903       0.00000
  29     18.79       80.9991        0.0507      156.4682      156.5190      75.519903      -0.00000
  28     23.16       80.9938        0.0625      156.4512      156.5137      75.519903      -0.00000
  27     28.12       80.9877        0.0759      156.4317      156.5076      75.519903       0.00000
  26     33.73       80.9810        0.0910      156.4099      156.5009      75.519903       0.00000
  25     40.54       80.9728        0.1092      156.3834      156.4927      75.519903       0.00000
  24     48.69       80.9629        0.1312      156.3515      156.4828      75.519903       0.00000
  23     57.69       80.9520        0.1555      156.3164      156.4719      75.519903       0.00000
  22     68.43       80.9390        0.1843      156.2746      156.4589      75.519903       0.00000
  21     81.20       80.9235        0.2188      156.2246      156.4434      75.519903      -0.00000
  20     96.49       80.9050        0.2600      156.1649      156.4249      75.519903       0.00000
  19     114.6       80.8831        0.3089      156.0879      156.3968      75.513717       0.00289
  18     136.5       80.8571        0.3670      155.9962      156.3632      75.506040       0.00295
  17     162.9       80.8261        0.4364      155.8831      156.3194      75.493291       0.00408
  16     196.4       80.7859        0.5266      155.7199      156.2465      75.460577       0.00823
  15     218.7       80.7596        0.5859      155.5733      156.1592      75.399561       0.02317
  14     243.0       80.7314        0.6503      155.3367      155.9870      75.255609       0.04993
  13     269.0       80.7018        0.7200      154.9514      155.6714      74.969668       0.09276
  12     297.5       80.6717        0.7950      154.3896      155.1847      74.512953       0.13546
  11     328.5       80.6417        0.8759      153.7151      154.5910      73.949312       0.15325
  10     361.9       80.6130        0.9626      152.9087      153.8714      73.258388       0.17481
   9     398.1       80.5878        1.0554      151.8986      152.9540      72.366258       0.20785
   8     437.6       80.5696        1.1540      150.6031      151.7571      71.187542       0.25202
   7     480.5       80.5629        1.2582      149.0014      150.2596      69.696621       0.29281
   6     533.0       80.5788        1.3841      146.7375      148.1216      67.542790       0.34648
   5     589.8       80.6400        1.5158      143.8730      145.3888      64.748832       0.41471
   4     651.6       80.7976        1.6508      140.0955      141.7463      60.948739       0.51967
   3     718.7       81.1177        1.7877      135.5278      137.3155      56.197758       0.59707
   2     792.3       81.7456        1.9231      130.0690      131.9922      50.246550       0.68254
   1     891.5       83.3515        2.0868      122.1273      124.2141      40.862604       0.79853
   0    1013.0       87.2900        2.2623      112.9512      115.2135      27.923524       0.89843



 Wavenumbers: 12850. - 16000. cm-1, ATM      1
 LEVEL PRESSURE   UPWARD FLUX   DIFDOWN FLUX  DIRDOWN FLUX  DOWNWARD FLUX   NET FLUX    HEATING RATE
          mb          W/m2          W/m2          W/m2        W/m2          W/m2       degree/day
  51    .06700       77.1918        0.0000       98.0872       98.0872      20.895393       0.00000
  50    .07753       77.1918        0.0001       98.0864       98.0864      20.894602       0.63409
  49    .09103       77.1918        0.0002       98.0853       98.0854      20.893608       0.62097
  48    0.1069       77.1918        0.0003       98.0841       98.0843      20.892467       0.60758
  47    0.1255       77.1919        0.0004       98.0826       98.0830      20.891156       0.59447
  46    0.1487       77.1919        0.0005       98.0809       98.0814      20.889501       0.60316
  45    0.1794       77.1919        0.0007       98.0784       98.0792      20.887250       0.61787
  44    0.2165       77.1920        0.0010       98.0756       98.0766      20.884603       0.60218
  43    0.2613       77.1921        0.0012       98.0723       98.0736      20.881491       0.58669
  42    0.3336       77.1923        0.0017       98.0670       98.0687      20.876412       0.59215
  41    0.4307       77.1927        0.0023       98.0602       98.0625      20.869846       0.57091
  40    0.5894       77.1934        0.0033       98.0496       98.0529      20.859503       0.55000
  39     1.339       77.1997        0.0081       98.0043       98.0124      20.812712       0.52678
  38     1.782       77.2055        0.0109       97.9793       97.9902      20.784669       0.53389
  37     2.292       77.2141        0.0141       97.9498       97.9639      20.749776       0.57794
  36     2.964       77.2284        0.0184       97.9088       97.9272      20.698775       0.64021
  35     3.853       77.2514        0.0240       97.8503       97.8743      20.622864       0.72041
  34     5.035       77.2862        0.0314       97.7680       97.7994      20.513249       0.78305
  33     6.613       77.3346        0.0413       97.6562       97.6975      20.362925       0.80363
  32     8.786       77.3977        0.0547       97.5107       97.5654      20.167695       0.75820
  31     11.80       77.4798        0.0738       97.3179       97.3917      19.911871       0.71623
  30     15.07       77.5585        0.0944       97.1283       97.2227      19.664145       0.63958
  29     18.79       77.6389        0.1175       96.9300       97.0475      19.408601       0.57940
  28     23.16       77.7230        0.1445       96.7166       96.8611      19.138102       0.52306
  27     28.12       77.8076        0.1754       96.4935       96.6689      18.861249       0.47063
  26     33.73       77.8859        0.2100       96.2731       96.4830      18.597098       0.39716
  25     40.54       77.9615        0.2517       96.0408       96.2925      18.330942       0.33020
  24     48.69       78.0342        0.3020       95.7946       96.0966      18.062432       0.27787
  23     57.69       78.0960        0.3573       95.5573       95.9146      17.818571       0.22858
  22     68.43       78.1503        0.4232       95.3106       95.7338      17.583552       0.18476
  21     81.20       78.1883        0.5018       95.0643       95.5661      17.377887       0.13590
  20     96.49       78.2089        0.5956       94.8153       95.4108      17.201947       0.09711
  19     114.6       78.2349        0.7081       94.5411       95.2492      17.014312       0.08761
  18     136.5       78.2543        0.8415       94.2320       95.0736      16.819236       0.07501
  17     162.9       78.2671        1.0004       93.8753       94.8757      16.608615       0.06732
  16     196.4       78.2615        1.2064       93.4347       94.6410      16.379486       0.05767
  15     218.7       78.2500        1.3417       93.1513       94.4929      16.242977       0.05183
  14     243.0       78.2339        1.4887       92.8439       94.3326      16.098737       0.05003
  13     269.0       78.2132        1.6480       92.5111       94.1592      15.945923       0.04957
  12     297.5       78.1884        1.8202       92.1495       93.9697      15.781329       0.04882
  11     328.5       78.1612        2.0063       91.7554       93.7617      15.600477       0.04917
  10     361.9       78.1325        2.2066       91.3262       93.5329      15.400389       0.05062
   9     398.1       78.1033        2.4222       90.8575       93.2798      15.176486       0.05216
   8     437.6       78.0762        2.6536       90.3418       92.9954      14.919293       0.05499
   7     480.5       78.0535        2.9016       89.7728       92.6744      14.620894       0.05860
   6     533.0       78.0384        3.2064       89.0428       92.2493      14.210909       0.06595
   5     589.8       78.0465        3.5342       88.2038       91.7380      13.691542       0.07709
   4     651.6       78.1058        3.8846       87.1979       91.0826      12.976755       0.09775
   3     718.7       78.2346        4.2560       86.0161       90.2722      12.037569       0.11803
   2     792.3       78.4920        4.6446       84.5970       89.2417      10.749657       0.14771
   1     891.5       79.1227        5.1505       82.4374       87.5879       8.465211       0.19440
   0    1013.0       80.4473        5.7315       79.6182       85.3496       4.902309       0.24739



 Wavenumbers: 16000. - 22650. cm-1, ATM      1
 LEVEL PRESSURE   UPWARD FLUX   DIFDOWN FLUX  DIRDOWN FLUX  DOWNWARD FLUX   NET FLUX    HEATING RATE
          mb          W/m2          W/m2          W/m2        W/m2          W/m2       degree/day
  51    .06700      139.1625        0.0000      156.3892      156.3892      17.226727       0.00000
  50    .07753      139.1625        0.0004      156.3887      156.3891      17.226580       0.11751
  49    .09103      139.1625        0.0009      156.3879      156.3888      17.226367       0.13328
  48    0.1069      139.1625        0.0015      156.3871      156.3885      17.226082       0.15198
  47    0.1255      139.1625        0.0021      156.3861      156.3882      17.225700       0.17324
  46    0.1487      139.1625        0.0029      156.3847      156.3877      17.225136       0.20528
  45    0.1794      139.1626        0.0041      156.3828      156.3869      17.224256       0.24171
  44    0.2165      139.1628        0.0054      156.3805      156.3859      17.223062       0.27165
  43    0.2613      139.1632        0.0070      156.3776      156.3846      17.221442       0.30540
  42    0.3336      139.1639        0.0096      156.3726      156.3822      17.218361       0.35915
  41    0.4307      139.1651        0.0131      156.3657      156.3788      17.213718       0.40372
  40    0.5894      139.1676        0.0188      156.3537      156.3724      17.204862       0.47092
  39     1.339      139.1896        0.0456      156.2834      156.3290      17.139438       0.73657
  38     1.782      139.2100        0.0614      156.2324      156.2938      17.083704       1.06108
  37     2.292      139.2407        0.0797      156.1641      156.2437      17.003028       1.33619
  36     2.964      139.2918        0.1036      156.0605      156.1641      16.872335       1.64060
  35     3.853      139.3744        0.1352      155.9041      156.0393      16.664957       1.96805
  34     5.035      139.4990        0.1772      155.6774      155.8546      16.355570       2.21013
  33     6.613      139.6732        0.2332      155.3656      155.5988      15.925621       2.29851
  32     8.786      139.9001        0.3086      154.9577      155.2663      15.366173       2.17269
  31     11.80      140.1953        0.4163      154.4153      154.8315      14.636263       2.04352
  30     15.07      140.4779        0.5317      153.8804      154.4121      13.934139       1.81275
  29     18.79      140.7664        0.6619      153.3191      153.9810      13.214555       1.63152
  28     23.16      141.0678        0.8137      152.7126      153.5263      12.458489       1.46199
  27     28.12      141.3709        0.9871      152.0755      153.0626      11.691743       1.30342
  26     33.73      141.6503        1.1809      151.4409      152.6219      10.971570       1.08280
  25     40.54      141.9188        1.4149      150.7637      152.1786      10.259811       0.88302
  24     48.69      142.1753        1.6967      150.0338      151.7305       9.555190       0.72917
  23     57.69      142.3922        2.0058      149.3151      151.3210       8.928738       0.58720
  22     68.43      142.5805        2.3736      148.5476      150.9212       8.340691       0.46228
  21     81.20      142.7089        2.8114      147.7517      150.5631       7.854260       0.32143
  20     96.49      142.7728        3.3327      146.9127      150.2453       7.472550       0.21068
  19     114.6      142.8030        3.9497      145.9763      149.9260       7.122994       0.16322
  18     136.5      142.8079        4.6783      144.9088      149.5870       6.779136       0.13222
  17     162.9      142.7856        5.5418      143.6785      149.2203       6.434705       0.11009
  16     196.4      142.6960        6.6559      142.1651      148.8209       6.124943       0.07797
  15     218.7      142.6149        7.3839      141.2033      148.5872       5.972348       0.05793
  14     243.0      142.5165        8.1718      140.1753      148.3472       5.830631       0.04915
  13     269.0      142.3993        9.0218      139.0797      148.1015       5.702202       0.04166
  12     297.5      142.2625        9.9359      137.9141      147.8500       5.587444       0.03404
  11     328.5      142.1102       10.9184      136.6676      147.5860       5.475800       0.03036
  10     361.9      141.9419       11.9701      135.3392      147.3093       5.367414       0.02742
   9     398.1      141.7572       13.0951      133.9235      147.0186       5.261418       0.02469
   8     437.6      141.5569       14.2954      132.4163      146.7116       5.154712       0.02281
   7     480.5      141.3407       15.5730      130.8147      146.3877       5.047029       0.02115
   6     533.0      141.0745       17.1334      128.8599      145.9933       4.918838       0.02062
   5     589.8      140.7912       18.8004      126.7679      145.5684       4.777144       0.02103
   4     651.6      140.4969       20.5757      124.5274      145.1031       4.606209       0.02338
   3     718.7      140.1975       22.4609      122.1285      144.5894       4.391917       0.02693
   2     792.3      139.9091       24.4540      119.5548      144.0088       4.099750       0.03351
   1     891.5      139.5976       27.0992      116.0566      143.1558       3.558157       0.04609
   0    1013.0      139.3512       30.2069      111.8404      142.0473       2.696127       0.05986



 Wavenumbers: 22650. - 29000. cm-1, ATM      1
 LEVEL PRESSURE   UPWARD FLUX   DIFDOWN FLUX  DIRDOWN FLUX  DOWNWARD FLUX   NET FLUX    HEATING RATE
          mb          W/m2          W/m2          W/m2        W/m2          W/m2       degree/day
  51    .06700       58.3525        0.0000       59.0156       59.0156       0.663067       0.00000
  50    .07753       58.3525        0.0005       59.0151       59.0155       0.663067       0.00000
  49    .09103       58.3523        0.0010       59.0144       59.0154       0.663067      -0.00000
  48    0.1069       58.3522        0.0017       59.0136       59.0153       0.663067      -0.00000
  47    0.1255       58.3521        0.0025       59.0127       59.0151       0.663067       0.00000
  46    0.1487       58.3519        0.0034       59.0115       59.0149       0.663067       0.00000
  45    0.1794       58.3516        0.0048       59.0099       59.0147       0.663067      -0.00000
  44    0.2165       58.3513        0.0063       59.0080       59.0144       0.663067      -0.00000
  43    0.2613       58.3509        0.0082       59.0058       59.0140       0.663067       0.00000
  42    0.3336       58.3503        0.0113       59.0022       59.0134       0.663067       0.00000
  41    0.4307       58.3496        0.0153       58.9973       59.0126       0.663067       0.00000
  40    0.5894       58.3483        0.0220       58.9894       59.0113       0.663067      -0.00000
  39     1.339       58.3421        0.0534       58.9518       59.0052       0.663067       0.00000
  38     1.782       58.3385        0.0719       58.9297       59.0016       0.663067       0.00000
  37     2.292       58.3343        0.0932       58.9042       58.9974       0.663067      -0.00000
  36     2.964       58.3289        0.1213       58.8706       58.9919       0.663067       0.00000
  35     3.853       58.3216        0.1583       58.8264       58.9847       0.663067       0.00000
  34     5.035       58.3120        0.2075       58.7676       58.9751       0.663067       0.00000
  33     6.613       58.2992        0.2732       58.6891       58.9623       0.663067       0.00000
  32     8.786       58.2819        0.3616       58.5834       58.9450       0.663067      -0.00000
  31     11.80       58.2573        0.4879       58.4324       58.9203       0.663067       0.00000
  30     15.07       58.2308        0.6233       58.2706       58.8939       0.663067      -0.00000
  29     18.79       58.2010        0.7759       58.0882       58.8641       0.663067       0.00000
  28     23.16       58.1663        0.9537       57.8757       58.8294       0.663067      -0.00000
  27     28.12       58.1267        1.1564       57.6333       58.7898       0.663067       0.00000
  26     33.73       58.0825        1.3825       57.3631       58.7456       0.663067      -0.00000
  25     40.54       58.0294        1.6546       57.0379       58.6924       0.663067      -0.00000
  24     48.69       57.9656        1.9808       56.6479       58.6287       0.663067      -0.00000
  23     57.69       57.8960        2.3370       56.2221       58.5591       0.663067       0.00000
  22     68.43       57.8136        2.7581       55.7186       58.4767       0.663067      -0.00000
  21     81.20       57.7163        3.2555       55.1239       58.3794       0.663067       0.00000
  20     96.49       57.6016        3.8419       54.4228       58.2647       0.663067       0.00000
  19     114.6       57.4671        4.5291       53.6010       58.1301       0.663067      -0.00000
  18     136.5       57.3099        5.3312       52.6418       57.9730       0.663067       0.00000
  17     162.9       57.1262        6.2689       51.5203       57.7892       0.663067      -0.00000
  16     196.4       56.8931        7.4567       50.0994       57.5562       0.663067       0.00000
  15     218.7       56.7432        8.2200       49.1863       57.4063       0.663067       0.00000
  14     243.0       56.5831        9.0349       48.2113       57.2462       0.663067      -0.00000
  13     269.0       56.4128        9.9010       47.1749       57.0759       0.663067       0.00000
  12     297.5       56.2325       10.8173       46.0783       56.8956       0.663067      -0.00000
  11     328.5       56.0418       11.7853       44.9195       56.7048       0.663067       0.00000
  10     361.9       55.8412       12.8024       43.7018       56.5043       0.663067      -0.00000
   9     398.1       55.6306       13.8687       42.4250       56.2937       0.663067      -0.00000
   8     437.6       55.4105       14.9820       41.0916       56.0736       0.663067       0.00000
   7     480.5       55.1813       16.1399       39.7045       55.8443       0.663067       0.00000
   6     533.0       54.9081       17.5169       38.0543       55.5712       0.663067       0.00000
   5     589.8       54.6244       18.9444       36.3431       55.2874       0.663067      -0.00000
   4     651.6       54.3313       20.4149       34.5795       54.9944       0.663067       0.00000
   3     718.7       54.0300       21.9228       32.7702       54.6931       0.663067       0.00000
   2     792.3       53.7220       23.4595       30.9256       54.3850       0.663067      -0.00000
   1     891.5       53.3286       25.4139       28.5778       53.9917       0.663067      -0.00000
   0    1013.0       52.8890       27.5856       25.9665       53.5520       0.663067       0.00000



 Wavenumbers: 29000. - 38000. cm-1, ATM      1
 LEVEL PRESSURE   UPWARD FLUX   DIFDOWN FLUX  DIRDOWN FLUX  DOWNWARD FLUX   NET FLUX    HEATING RATE
          mb          W/m2          W/m2          W/m2        W/m2          W/m2       degree/day
  51    .06700        8.7105        0.0000       20.8114       20.8114      12.100878       0.00000
  50    .07753        8.7103        0.0003       20.8070       20.8074      12.097070       3.05149
  49    .09103        8.7101        0.0007       20.8009       20.8016      12.091533       3.46078
  48    0.1069        8.7098        0.0012       20.7928       20.7939      12.084124       3.94421
  47    0.1255        8.7095        0.0017       20.7820       20.7837      12.074219       4.49025
  46    0.1487        8.7092        0.0024       20.7665       20.7688      12.059656       5.30833
  45    0.1794        8.7087        0.0033       20.7424       20.7457      12.036992       6.22190
  44    0.2165        8.7082        0.0044       20.7103       20.7147      12.006470       6.94325
  43    0.2613        8.7076        0.0056       20.6675       20.6731      11.965476       7.72715
  42    0.3336        8.7067        0.0077       20.5880       20.5956      11.888917       8.92604
  41    0.4307        8.7056        0.0104       20.4722       20.4826      11.776967       9.73378
  40    0.5894        8.7041        0.0147       20.2637       20.2784      11.574289      10.77817
  39     1.339        8.7006        0.0331       19.0984       19.1315      10.430853      12.87301
  38     1.782        8.7011        0.0427       18.4394       18.4820       9.780963      12.37285
  37     2.292        8.7037        0.0529       17.7714       17.8243       9.120668      10.93622
  36     2.964        8.7101        0.0656       17.0421       17.1077       8.397622       9.07641
  35     3.853        8.7228        0.0815       16.2678       16.3493       7.626566       7.31747
  34     5.035        8.7437        0.1016       15.4803       15.5819       6.838253       5.63138
  33     6.613        8.7741        0.1274       14.7157       14.8431       6.068922       4.11285
  32     8.786        8.8143        0.1611       13.9936       14.1546       5.340302       2.82970
  31     11.80        8.8668        0.2080       13.2835       13.4916       4.624772       2.00326
  30     15.07        8.9174        0.2568       12.7394       12.9961       4.078722       1.40980
  29     18.79        8.9696        0.3107       12.2666       12.5773       3.607718       1.06791
  28     23.16        9.0251        0.3721       11.8300       12.2021       3.177055       0.83276
  27     28.12        9.0819        0.4409       11.4279       11.8688       2.786857       0.66331
  26     33.73        9.1343        0.5166       11.0695       11.5861       2.451831       0.50372
  25     40.54        9.1839        0.6072       10.7209       11.3281       2.144152       0.38171
  24     48.69        9.2306        0.7146       10.3742       11.0887       1.858096       0.29602
  23     57.69        9.2689        0.8308       10.0549       10.8857       1.616796       0.22618
  22     68.43        9.2997        0.9671        9.7327       10.6999       1.400205       0.17027
  21     81.20        9.3140        1.1281        9.4134       10.5415       1.227521       0.11411
  20     96.49        9.3100        1.3173        9.0887       10.4061       1.096088       0.07254
  19     114.6        9.2956        1.5360        8.7388       10.2747       0.979112       0.05462
  18     136.5        9.2739        1.7859        8.3549       10.1408       0.866889       0.04315
  17     162.9        9.2448        2.0707        7.9311       10.0018       0.757029       0.03512
  16     196.4        9.1964        2.4235        7.4333        9.8568       0.660352       0.02433
  15     218.7        9.1617        2.6453        7.1295        9.7749       0.613209       0.01790
  14     243.0        9.1236        2.8772        6.8161        9.6933       0.569683       0.01510
  13     269.0        9.0820        3.1183        6.4943        9.6126       0.530607       0.01268
  12     297.5        9.0370        3.3674        6.1657        9.5331       0.496167       0.01021
  11     328.5        8.9899        3.6237        5.8295        9.4531       0.463198       0.00896
  10     361.9        8.9413        3.8846        5.4886        9.3732       0.431850       0.00793
   9     398.1        8.8913        4.1495        5.1440        9.2934       0.402148       0.00692
   8     437.6        8.8403        4.4169        4.7969        9.2139       0.373522       0.00612
   7     480.5        8.7888        4.6848        4.4504        9.1351       0.346355       0.00534
   6     533.0        8.7295        4.9900        4.0563        9.0463       0.316749       0.00476
   5     589.8        8.6709        5.2908        3.6682        8.9590       0.288093       0.00425
   4     651.6        8.6139        5.5835        3.2905        8.8740       0.260067       0.00383
   3     718.7        8.5590        5.8664        2.9252        8.7916       0.232628       0.00345
   2     792.3        8.5069        6.1362        2.5764        8.7127       0.205780       0.00308
   1     891.5        8.4464        6.4532        2.1659        8.6191       0.172648       0.00282
   0    1013.0        8.3876        6.7711        1.7526        8.5237       0.136085       0.00254



 Wavenumbers: 38000. - 50000. cm-1, ATM      1
 LEVEL PRESSURE   UPWARD FLUX   DIFDOWN FLUX  DIRDOWN FLUX  DOWNWARD FLUX   NET FLUX    HEATING RATE
          mb          W/m2          W/m2          W/m2        W/m2          W/m2       degree/day
  51    .06700        0.0061        0.0000        1.2836        1.2836       1.277518       0.00000
  50    .07753        0.0061        0.0001        1.2812        1.2812       1.275183       1.87150
  49    .09103        0.0060        0.0002        1.2777        1.2778       1.271851       2.08247
  48    0.1069        0.0059        0.0002        1.2731        1.2734       1.267473       2.33059
  47    0.1255        0.0058        0.0004        1.2672        1.2675       1.261717       2.60908
  46    0.1487        0.0057        0.0005        1.2586        1.2591       1.253391       3.03499
  45    0.1794        0.0055        0.0007        1.2455        1.2462       1.240623       3.50520
  44    0.2165        0.0054        0.0009        1.2282        1.2291       1.223697       3.85037
  43    0.2613        0.0052        0.0011        1.2054        1.2065       1.201348       4.21261
  42    0.3336        0.0049        0.0015        1.1639        1.1654       1.160524       4.75970
  41    0.4307        0.0045        0.0020        1.1051        1.1070       1.102565       5.03943
  40    0.5894        0.0039        0.0026        1.0039        1.0064       1.002524       5.32007
  39     1.339        0.0022        0.0035        0.5438        0.5473       0.545104       5.14971
  38     1.782        0.0016        0.0032        0.3635        0.3666       0.365006       3.42879
  37     2.292        0.0012        0.0027        0.2356        0.2383       0.237058       2.11916
  36     2.964        0.0009        0.0022        0.1455        0.1477       0.146786       1.13318
  35     3.853        0.0006        0.0017        0.0858        0.0875       0.086906       0.56828
  34     5.035        0.0004        0.0013        0.0488        0.0501       0.049701       0.26578
  33     6.613        0.0003        0.0010        0.0273        0.0282       0.027974       0.11615
  32     8.786        0.0002        0.0007        0.0144        0.0151       0.014928       0.05067
  31     11.80        0.0001        0.0004        0.0065        0.0070       0.006903       0.02247
  30     15.07        0.0000        0.0003        0.0031        0.0034       0.003329       0.00923
  29     18.79        0.0000        0.0002        0.0014        0.0016       0.001583       0.00396
  28     23.16        0.0000        0.0001        0.0006        0.0007       0.000720       0.00167
  27     28.12        0.0000        0.0001        0.0003        0.0003       0.000317       0.00069
  26     33.73        0.0000        0.0000        0.0001        0.0001       0.000140       0.00027
  25     40.54        0.0000        0.0000        0.0000        0.0001       0.000057       0.00010
  24     48.69        0.0000        0.0000        0.0000        0.0000       0.000021       0.00004
  23     57.69        0.0000        0.0000        0.0000        0.0000       0.000008       0.00001
  22     68.43        0.0000        0.0000        0.0000        0.0000       0.000003       0.00000
  21     81.20        0.0000        0.0000        0.0000        0.0000       0.000001       0.00000
  20     96.49        0.0000        0.0000        0.0000        0.0000       0.000000       0.00000
  19     114.6        0.0000        0.0000        0.0000        0.0000       0.000000       0.00000
  18     136.5        0.0000        0.0000        0.0000        0.0000       0.000000       0.00000
  17     162.9        0.0000        0.0000        0.0000        0.0000       0.000000       0.00000
  16     196.4        0.0000        0.0000        0.0000        0.0000       0.000000       0.00000
  15     218.7        0.0000        0.0000        0.0000        0.0000       0.000000       0.00000
  14     243.0        0.0000        0.0000        0.0000        0.0000       0.000000       0.00000
  13     269.0        0.0000        0.0000        0.0000        0.0000       0.000000       0.00000
  12     297.5        0.0000        0.0000        0.0000        0.0000       0.000000       0.00000
  11     328.5        0.0000        0.0000        0.0000        0.0000       0.000000       0.00000
  10     361.9        0.0000        0.0000        0.0000        0.0000       0.000000       0.00000
   9     398.1        0.0000        0.0000        0.0000        0.0000       0.000000       0.00000
   8     437.6        0.0000        0.0000        0.0000        0.0000       0.000000       0.00000
   7     480.5        0.0000        0.0000        0.0000        0.0000       0.000000       0.00000
   6     533.0        0.0000        0.0000        0.0000        0.0000       0.000000       0.00000
   5     589.8        0.0000        0.0000        0.0000        0.0000       0.000000       0.00000
   4     651.6        0.0000        0.0000        0.0000        0.0000       0.000000       0.00000
   3     718.7        0.0000        0.0000        0.0000        0.0000       0.000000       0.00000
   2     792.3        0.0000        0.0000        0.0000        0.0000       0.000000       0.00000
   1     891.5        0.0000        0.0000        0.0000        0.0000       0.000000       0.00000
   0    1013.0        0.0000        0.0000        0.0000        0.0000       0.000000       0.00000



 Wavenumbers:   820. -  2600. cm-1, ATM      1
 LEVEL PRESSURE   UPWARD FLUX   DIFDOWN FLUX  DIRDOWN FLUX  DOWNWARD FLUX   NET FLUX    HEATING RATE
          mb          W/m2          W/m2          W/m2        W/m2          W/m2       degree/day
  51    .06700        0.0118        0.0000        6.0047        6.0047       5.992825       0.00000
  50    .07753        0.0118        0.0000        6.0008        6.0008       5.988972       3.08819
  49    .09103        0.0118        0.0000        5.9999        5.9999       5.988086       0.55356
  48    0.1069        0.0118        0.0000        5.9989        5.9989       5.987097       0.52650
  47    0.1255        0.0118        0.0000        5.9978        5.9978       5.985980       0.50647
  46    0.1487        0.0118        0.0000        5.9964        5.9964       5.984623       0.49454
  45    0.1794        0.0118        0.0000        5.9947        5.9947       5.982904       0.47197
  44    0.2165        0.0118        0.0000        5.9929        5.9929       5.981062       0.41908
  43    0.2613        0.0118        0.0000        5.9909        5.9909       5.979103       0.36930
  42    0.3336        0.0118        0.0000        5.9880        5.9880       5.976225       0.33553
  41    0.4307        0.0118        0.0000        5.9846        5.9846       5.972756       0.30162
  40    0.5894        0.0118        0.0000        5.9791        5.9791       5.967251       0.29273
  39     1.339        0.0118        0.0000        5.9536        5.9536       5.941767       0.28691
  38     1.782        0.0118        0.0000        5.9395        5.9395       5.927630       0.26914
  37     2.292        0.0118        0.0000        5.9237        5.9237       5.911880       0.26085
  36     2.964        0.0118        0.0000        5.9039        5.9039       5.892108       0.24820
  35     3.853        0.0118        0.0000        5.8793        5.8793       5.867455       0.23396
  34     5.035        0.0118        0.0000        5.8487        5.8487       5.836896       0.21830
  33     6.613        0.0118        0.0000        5.8108        5.8108       5.798936       0.20293
  32     8.786        0.0118        0.0000        5.7631        5.7631       5.751318       0.18493
  31     11.80        0.0118        0.0000        5.7039        5.7039       5.692070       0.16588
  30     15.07        0.0118        0.0000        5.6539        5.6539       5.642039       0.12917
  29     18.79        0.0118        0.0000        5.6127        5.6127       5.600913       0.09325
  28     23.16        0.0118        0.0000        5.5794        5.5794       5.567546       0.06452
  27     28.12        0.0118        0.0000        5.5518        5.5518       5.539989       0.04685
  26     33.73        0.0118        0.0000        5.5268        5.5268       5.514945       0.03765
  25     40.54        0.0118        0.0000        5.4993        5.4993       5.487510       0.03404
  24     48.69        0.0118        0.0000        5.4678        5.4678       5.455978       0.03263
  23     57.69        0.0118        0.0000        5.4340        5.4340       5.422198       0.03166
  22     68.43        0.0118        0.0000        5.3947        5.3948       5.382933       0.03087
  21     81.20        0.0118        0.0000        5.3497        5.3497       5.337908       0.02975
  20     96.49        0.0118        0.0000        5.2982        5.2982       5.286405       0.02843
  19     114.6        0.0118        0.0000        5.2389        5.2389       5.227094       0.02769
  18     136.5        0.0118        0.0000        5.1716        5.1717       5.159850       0.02586
  17     162.9        0.0118        0.0000        5.0890        5.0890       5.077234       0.02641
  16     196.4        0.0118        0.0000        4.9668        4.9668       4.955023       0.03076
  15     218.7        0.0118        0.0000        4.8585        4.8585       4.846662       0.04114
  14     243.0        0.0118        0.0000        4.7078        4.7079       4.696047       0.05224
  13     269.0        0.0118        0.0000        4.5343        4.5343       4.522464       0.05631
  12     297.5        0.0118        0.0000        4.3419        4.3420       4.330141       0.05704
  11     328.5        0.0118        0.0000        4.1281        4.1281       4.116308       0.05814
  10     361.9        0.0118        0.0000        3.8786        3.8787       3.866828       0.06312
   9     398.1        0.0119        0.0000        3.6159        3.6159       3.604082       0.06121
   8     437.6        0.0119        0.0000        3.3759        3.3759       3.363997       0.05133
   7     480.5        0.0119        0.0000        3.1957        3.1958       3.183861       0.03538
   6     533.0        0.0120        0.0000        3.0467        3.0467       3.034732       0.02399
   5     589.8        0.0120        0.0000        2.9023        2.9023       2.890269       0.02144
   4     651.6        0.0122        0.0000        2.7183        2.7184       2.706171       0.02518
   3     718.7        0.0124        0.0000        2.5058        2.5059       2.493422       0.02674
   2     792.3        0.0129        0.0000        2.2756        2.2757       2.262777       0.02645
   1     891.5        0.0141        0.0000        1.9621        1.9621       1.948087       0.02678
   0    1013.0        0.0170        0.0000        1.5468        1.5469       1.529856       0.02904

  Modules and versions used in this calculation:

       rrtmg_sw.1col.f90:  $Revision$                    rrtmg_sw_init.f90:  $Revision$        
     rrtmgsw_cldprop.f90:  $Revision$                  rrtmgsw_cldprmc.f90:  NOT USED          
     rrtmg_sw_reftra.f90:  $Revision$                  rrtmg_sw_spcvrt.f90:  NOT USED          
     rrtmg_sw_spcvmc.f90:  NOT USED                    rrtmgsw_setcoef.f90:  NOT USED          
     rrtmg_sw_taumol.f90:  $Revision$                  rrtmg_sw_vrtqdr.f90:  NOT USED          
                rrtatm.f:  NOT USED                             util_xxx.f:  NOT USED          
                 extra.f:  NOT USED                       rrtmg_sw_k_g.f90:  $Revision$        

