

 Wavenumbers:   820. - 50000. cm-1, ATM      1
 LEVEL PRESSURE   UPWARD FLUX   DIFDOWN FLUX  DIRDOWN FLUX  DOWNWARD FLUX   NET FLUX    HEATING RATE
          mb          W/m2          W/m2          W/m2        W/m2          W/m2       degree/day
  51    .06700      365.1617        0.0000      617.8126      617.8126     252.650930       0.00000
  50    .07753      365.1613        0.0013      617.7947      617.7961     252.634795      12.93233
  49    .09103      365.1608        0.0030      617.7778      617.7808     252.619993       9.25185
  48    0.1069      365.1603        0.0049      617.7581      617.7630     252.602741       9.18319
  47    0.1255      365.1597        0.0072      617.7340      617.7411     252.581409       9.67089
  46    0.1487      365.1591        0.0100      617.7009      617.7108     252.551742      10.81402
  45    0.1794      365.1583        0.0138      617.6521      617.6659     252.507540      12.13464
  44    0.2165      365.1575        0.0183      617.5895      617.6078     252.450256      13.03093
  43    0.2613      365.1567        0.0236      617.5089      617.5325     252.375795      14.03570
  42    0.3336      365.1556        0.0323      617.3641      617.3964     252.240806      15.73836
  41    0.4307      365.1546        0.0438      617.1591      617.2030     252.048327      16.73564
  40    0.5894      365.1540        0.0624      616.8005      616.8629     251.708908      18.04984
  39     1.339      365.1684        0.1464      614.9443      615.0907     249.922281      20.11418
  38     1.782      365.1890        0.1937      613.9670      614.1607     248.971698      18.09756
  37     2.292      365.2238        0.2474      613.0059      613.2533     248.029503      15.60522
  36     2.964      365.2860        0.3173      611.9577      612.2749     246.988927      13.06237
  35     3.853      365.3912        0.4089      610.8024      611.2113     245.820090      11.09248
  34     5.035      365.5535        0.5297      609.5327      610.0624     244.508915       9.36649
  33     6.613      365.7825        0.6901      608.1464      608.8366     243.054108       7.77740
  32     8.786      366.0806        0.9053      606.6250      607.5304     241.449815       6.23050
  31     11.80      366.4658        1.2117      604.8486      606.0603     239.594493       5.19432
  30     15.07      366.8316        1.5386      603.2440      604.7825     237.950898       4.24344
  29     18.79      367.2020        1.9063      601.6511      603.5575     236.355437       3.61740
  28     23.16      367.5854        2.3336      599.9927      602.3263     234.740944       3.12191
  27     28.12      367.9660        2.8200      598.2881      601.1080     233.141964       2.71816
  26     33.73      368.3075        3.3621      596.5951      599.9572     231.649635       2.24376
  25     40.54      368.6216        4.0147      594.7727      598.7874     230.165800       1.84087
  24     48.69      368.9049        4.7978      592.7865      597.5843     228.679406       1.53818
  23     57.69      369.1234        5.6537      590.7959      596.4496     227.326163       1.26846
  22     68.43      369.2832        6.6676      588.6191      595.2867     226.003433       1.03984
  21     81.20      369.3340        7.8695      586.2690      594.1385     224.804525       0.79222
  20     96.49      369.2649        9.2925      583.6961      592.9886     223.723671       0.59655
  19     114.6      369.1311       10.9662      580.7708      591.7370     222.605919       0.52191
  18     136.5      368.9298       12.9257      577.4359      590.3616     221.431759       0.45149
  17     162.9      368.6536       15.2247      573.5624      588.7871     220.133538       0.41496
  16     196.4      368.2112       18.1557      568.5907      586.7464     218.535233       0.40231
  15     218.7      367.8926       20.0503      565.0572      585.1075     217.214907       0.50128
  14     243.0      367.5368       22.0819      560.7495      582.8314     215.294598       0.66603
  13     269.0      367.1430       24.2519      555.3947      579.6466     212.503600       0.90539
  12     297.5      366.7125       26.5607      548.9964      575.5571     208.844561       1.08523
  11     328.5      366.2526       29.0147      542.0895      571.1042     204.851604       1.08567
  10     361.9      365.7662       31.6098      534.6242      566.2341     200.467864       1.10913
   9     398.1      365.2564       34.3506      526.4204      560.7710     195.514646       1.15399
   8     437.6      364.7317       37.2354      517.3907      554.6261     189.894388       1.20165
   7     480.5      364.1996       40.2622      507.7216      547.9837     183.784132       1.20003
   6     533.0      363.6001       43.8995      495.9006      539.8001     176.200059       1.22004
   5     589.8      363.0508       47.7144      483.0788      530.7932     167.742368       1.25540
   4     651.6      362.6479       51.6941      468.6907      520.3848     157.736831       1.36828
   3     718.7      362.4964       55.8305      453.2257      509.0562     146.559759       1.40465
   2     792.3      362.8458       60.1019      436.4928      496.5947     133.748940       1.46926
   1     891.5      364.6221       65.6172      413.9344      479.5516     114.929511       1.60144
   0    1013.0      370.0322       71.8854      388.4125      460.2979      90.265718       1.71253



 Wavenumbers:  2600. -  3250. cm-1, ATM      1
 LEVEL PRESSURE   UPWARD FLUX   DIFDOWN FLUX  DIRDOWN FLUX  DOWNWARD FLUX   NET FLUX    HEATING RATE
          mb          W/m2          W/m2          W/m2        W/m2          W/m2       degree/day
  51    .06700        0.9163        0.0000        5.4450        5.4450       4.528755       0.00000
  50    .07753        0.9163        0.0000        5.4450        5.4450       4.528747       0.00640
  49    .09103        0.9163        0.0000        5.4450        5.4450       4.528737       0.00627
  48    0.1069        0.9163        0.0000        5.4450        5.4450       4.528726       0.00613
  47    0.1255        0.9163        0.0000        5.4450        5.4450       4.528712       0.00599
  46    0.1487        0.9163        0.0000        5.4450        5.4450       4.528696       0.00608
  45    0.1794        0.9163        0.0000        5.4450        5.4450       4.528673       0.00625
  44    0.2165        0.9163        0.0000        5.4449        5.4449       4.528646       0.00612
  43    0.2613        0.9163        0.0000        5.4449        5.4449       4.528614       0.00600
  42    0.3336        0.9163        0.0000        5.4448        5.4448       4.528561       0.00617
  41    0.4307        0.9163        0.0000        5.4448        5.4448       4.528490       0.00620
  40    0.5894        0.9163        0.0000        5.4446        5.4446       4.528370       0.00637
  39     1.339        0.9163        0.0000        5.4439        5.4439       4.527663       0.00797
  38     1.782        0.9163        0.0000        5.4434        5.4434       4.527120       0.01034
  37     2.292        0.9163        0.0000        5.4427        5.4427       4.526404       0.01186
  36     2.964        0.9163        0.0000        5.4416        5.4416       4.525365       0.01304
  35     3.853        0.9163        0.0000        5.4402        5.4402       4.523888       0.01402
  34     5.035        0.9163        0.0000        5.4381        5.4381       4.521832       0.01468
  33     6.613        0.9163        0.0000        5.4353        5.4353       4.519051       0.01487
  32     8.786        0.9163        0.0000        5.4317        5.4317       4.515419       0.01411
  31     11.80        0.9163        0.0000        5.4269        5.4269       4.510639       0.01338
  30     15.07        0.9163        0.0000        5.4224        5.4224       4.506112       0.01169
  29     18.79        0.9163        0.0000        5.4180        5.4180       4.501699       0.01000
  28     23.16        0.9163        0.0000        5.4135        5.4135       4.497212       0.00868
  27     28.12        0.9163        0.0000        5.4088        5.4088       4.492563       0.00790
  26     33.73        0.9163        0.0000        5.4036        5.4036       4.487321       0.00788
  25     40.54        0.9163        0.0000        5.3966        5.3967       4.480376       0.00862
  24     48.69        0.9163        0.0000        5.3872        5.3872       4.470895       0.00981
  23     57.69        0.9163        0.0000        5.3754        5.3754       4.459104       0.01105
  22     68.43        0.9163        0.0000        5.3599        5.3599       4.443606       0.01218
  21     81.20        0.9163        0.0000        5.3401        5.3401       4.423758       0.01312
  20     96.49        0.9164        0.0000        5.3155        5.3155       4.399170       0.01357
  19     114.6        0.9164        0.0000        5.2853        5.2854       4.368944       0.01411
  18     136.5        0.9165        0.0001        5.2504        5.2505       4.333994       0.01344
  17     162.9        0.9166        0.0001        5.2111        5.2112       4.294587       0.01260
  16     196.4        0.9167        0.0001        5.1640        5.1641       4.247383       0.01188
  15     218.7        0.9169        0.0001        5.1331        5.1332       4.216288       0.01181
  14     243.0        0.9172        0.0001        5.0962        5.0963       4.179099       0.01290
  13     269.0        0.9177        0.0001        5.0511        5.0512       4.133511       0.01479
  12     297.5        0.9184        0.0001        4.9956        4.9957       4.077320       0.01667
  11     328.5        0.9194        0.0001        4.9304        4.9305       4.011110       0.01800
  10     361.9        0.9207        0.0001        4.8511        4.8512       3.930506       0.02039
   9     398.1        0.9226        0.0001        4.7507        4.7508       3.828280       0.02382
   8     437.6        0.9250        0.0002        4.6220        4.6222       3.697172       0.02803
   7     480.5        0.9284        0.0002        4.4625        4.4626       3.534287       0.03199
   6     533.0        0.9337        0.0002        4.2460        4.2462       3.312560       0.03567
   5     589.8        0.9415        0.0002        3.9954        3.9956       3.054088       0.03837
   4     651.6        0.9539        0.0002        3.7089        3.7090       2.755155       0.04088
   3     718.7        0.9731        0.0002        3.4018        3.4020       2.428930       0.04100
   2     792.3        1.0045        0.0002        3.0564        3.0566       2.052145       0.04321
   1     891.5        1.0755        0.0002        2.5828        2.5830       1.507474       0.04635
   0    1013.0        1.2425        0.0002        2.0845        2.0847       0.842204       0.04619



 Wavenumbers:  3250. -  4000. cm-1, ATM      1
 LEVEL PRESSURE   UPWARD FLUX   DIFDOWN FLUX  DIRDOWN FLUX  DOWNWARD FLUX   NET FLUX    HEATING RATE
          mb          W/m2          W/m2          W/m2        W/m2          W/m2       degree/day
  51    .06700        0.0005        0.0000        9.1795        9.1795       9.179005       0.00000
  50    .07753        0.0005        0.0000        9.1747        9.1747       9.174162       3.88148
  49    .09103        0.0005        0.0000        9.1713        9.1713       9.170775       2.11747
  48    0.1069        0.0005        0.0000        9.1688        9.1688       9.168250       1.34402
  47    0.1255        0.0005        0.0000        9.1665        9.1665       9.165991       1.02422
  46    0.1487        0.0005        0.0000        9.1641        9.1641       9.163549       0.88991
  45    0.1794        0.0005        0.0000        9.1612        9.1612       9.160671       0.79008
  44    0.2165        0.0005        0.0000        9.1583        9.1583       9.157751       0.66430
  43    0.2613        0.0005        0.0000        9.1553        9.1553       9.154778       0.56041
  42    0.3336        0.0005        0.0000        9.1511        9.1511       9.150599       0.48723
  41    0.4307        0.0005        0.0000        9.1464        9.1464       9.145831       0.41459
  40    0.5894        0.0005        0.0000        9.1393        9.1394       9.138825       0.37255
  39     1.339        0.0005        0.0000        9.1127        9.1127       9.112211       0.29962
  38     1.782        0.0005        0.0000        9.1011        9.1011       9.100623       0.22062
  37     2.292        0.0005        0.0000        9.0901        9.0901       9.089556       0.18329
  36     2.964        0.0005        0.0000        9.0776        9.0776       9.077127       0.15603
  35     3.853        0.0005        0.0000        9.0629        9.0629       9.062336       0.14036
  34     5.035        0.0005        0.0000        9.0441        9.0441       9.043598       0.13386
  33     6.613        0.0005        0.0000        9.0191        9.0191       9.018596       0.13366
  32     8.786        0.0005        0.0000        8.9843        8.9843       8.983813       0.13509
  31     11.80        0.0005        0.0000        8.9327        8.9327       8.932196       0.14451
  30     15.07        0.0005        0.0000        8.8758        8.8759       8.875351       0.14676
  29     18.79        0.0005        0.0000        8.8110        8.8110       8.810524       0.14698
  28     23.16        0.0005        0.0000        8.7365        8.7366       8.736079       0.14395
  27     28.12        0.0005        0.0000        8.6554        8.6555       8.654966       0.13789
  26     33.73        0.0005        0.0000        8.5719        8.5719       8.571467       0.12554
  25     40.54        0.0005        0.0001        8.4812        8.4812       8.480743       0.11255
  24     48.69        0.0005        0.0001        8.3838        8.3839       8.383441       0.10069
  23     57.69        0.0004        0.0001        8.2861        8.2862       8.285706       0.09161
  22     68.43        0.0004        0.0001        8.1751        8.1751       8.174710       0.08726
  21     81.20        0.0004        0.0001        8.0457        8.0458       8.045352       0.08548
  20     96.49        0.0004        0.0001        7.8949        7.8950       7.894648       0.08318
  19     114.6        0.0004        0.0001        7.7162        7.7163       7.715939       0.08344
  18     136.5        0.0004        0.0002        7.5193        7.5194       7.519095       0.07569
  17     162.9        0.0003        0.0002        7.2913        7.2915       7.291204       0.07284
  16     196.4        0.0003        0.0002        6.9660        6.9662       6.965931       0.08187
  15     218.7        0.0003        0.0002        6.6648        6.6650       6.664743       0.11435
  14     243.0        0.0002        0.0002        6.2619        6.2622       6.261948       0.13970
  13     269.0        0.0002        0.0003        5.7576        5.7579       5.757649       0.16359
  12     297.5        0.0002        0.0003        5.1719        5.1722       5.171958       0.17371
  11     328.5        0.0002        0.0002        4.5757        4.5760       4.575799       0.16209
  10     361.9        0.0002        0.0002        3.9995        3.9998       3.999624       0.14578
   9     398.1        0.0001        0.0002        3.4655        3.4657       3.465568       0.12442
   8     437.6        0.0001        0.0002        2.9740        2.9742       2.974120       0.10507
   7     480.5        0.0001        0.0002        2.5307        2.5309       2.530748       0.08708
   6     533.0        0.0001        0.0002        2.0614        2.0616       2.061452       0.07549
   5     589.8        0.0001        0.0002        1.6150        1.6151       1.615023       0.06626
   4     651.6        0.0001        0.0001        1.1565        1.1566       1.156479       0.06271
   3     718.7        0.0001        0.0001        0.7390        0.7391       0.738979       0.05247
   2     792.3        0.0002        0.0001        0.3985        0.3985       0.398327       0.03907
   1     891.5        0.0006        0.0000        0.1139        0.1139       0.113369       0.02425
   0    1013.0        0.0056        0.0000        0.0094        0.0094       0.003791       0.00761



 Wavenumbers:  4000. -  4650. cm-1, ATM      1
 LEVEL PRESSURE   UPWARD FLUX   DIFDOWN FLUX  DIRDOWN FLUX  DOWNWARD FLUX   NET FLUX    HEATING RATE
          mb          W/m2          W/m2          W/m2        W/m2          W/m2       degree/day
  51    .06700        3.7008        0.0000       10.7795       10.7795       7.078708       0.00000
  50    .07753        3.7008        0.0000       10.7795       10.7795       7.078707       0.00080
  49    .09103        3.7008        0.0000       10.7795       10.7795       7.078705       0.00078
  48    0.1069        3.7008        0.0000       10.7795       10.7795       7.078704       0.00076
  47    0.1255        3.7008        0.0000       10.7795       10.7795       7.078702       0.00075
  46    0.1487        3.7008        0.0000       10.7795       10.7795       7.078700       0.00076
  45    0.1794        3.7008        0.0000       10.7795       10.7795       7.078697       0.00078
  44    0.2165        3.7008        0.0000       10.7795       10.7795       7.078694       0.00076
  43    0.2613        3.7008        0.0000       10.7795       10.7795       7.078690       0.00075
  42    0.3336        3.7008        0.0000       10.7795       10.7795       7.078684       0.00077
  41    0.4307        3.7008        0.0000       10.7795       10.7795       7.078675       0.00077
  40    0.5894        3.7008        0.0000       10.7795       10.7795       7.078660       0.00080
  39     1.339        3.7008        0.0000       10.7794       10.7794       7.078570       0.00101
  38     1.782        3.7008        0.0000       10.7793       10.7793       7.078501       0.00133
  37     2.292        3.7008        0.0000       10.7792       10.7792       7.078407       0.00156
  36     2.964        3.7008        0.0000       10.7791       10.7791       7.078266       0.00176
  35     3.853        3.7008        0.0000       10.7789       10.7789       7.078058       0.00197
  34     5.035        3.7008        0.0000       10.7786       10.7786       7.077752       0.00219
  33     6.613        3.7008        0.0000       10.7781       10.7781       7.077300       0.00241
  32     8.786        3.7008        0.0000       10.7774       10.7774       7.076634       0.00259
  31     11.80        3.7008        0.0001       10.7763       10.7764       7.075587       0.00293
  30     15.07        3.7008        0.0001       10.7751       10.7752       7.074359       0.00317
  29     18.79        3.7008        0.0001       10.7736       10.7737       7.072874       0.00337
  28     23.16        3.7008        0.0001       10.7717       10.7718       7.071030       0.00356
  27     28.12        3.7008        0.0001       10.7695       10.7696       7.068800       0.00379
  26     33.73        3.7008        0.0001       10.7667       10.7668       7.066049       0.00413
  25     40.54        3.7008        0.0002       10.7629       10.7631       7.062320       0.00463
  24     48.69        3.7008        0.0002       10.7579       10.7581       7.057353       0.00514
  23     57.69        3.7008        0.0003       10.7520       10.7522       7.051467       0.00552
  22     68.43        3.7008        0.0003       10.7446       10.7449       7.044094       0.00580
  21     81.20        3.7008        0.0004       10.7355       10.7359       7.035019       0.00600
  20     96.49        3.7009        0.0004       10.7245       10.7249       7.023985       0.00609
  19     114.6        3.7010        0.0005       10.7107       10.7112       7.010196       0.00644
  18     136.5        3.7012        0.0006       10.6942       10.6948       6.993597       0.00638
  17     162.9        3.7014        0.0007       10.6740       10.6747       6.973266       0.00650
  16     196.4        3.7019        0.0008       10.6464       10.6472       6.945255       0.00705
  15     218.7        3.7024        0.0009       10.6255       10.6264       6.923964       0.00808
  14     243.0        3.7032        0.0010       10.5980       10.5991       6.895914       0.00973
  13     269.0        3.7043        0.0011       10.5611       10.5622       6.857909       0.01233
  12     297.5        3.7061        0.0013       10.5119       10.5132       6.807143       0.01506
  11     328.5        3.7085        0.0014       10.4499       10.4513       6.742787       0.01750
  10     361.9        3.7117        0.0015       10.3702       10.3717       6.660049       0.02093
   9     398.1        3.7156        0.0017       10.2678       10.2694       6.553841       0.02474
   8     437.6        3.7205        0.0018       10.1390       10.1408       6.420261       0.02856
   7     480.5        3.7267        0.0020        9.9877        9.9897       6.262989       0.03089
   6     533.0        3.7358        0.0021        9.7937        9.7958       6.060028       0.03265
   5     589.8        3.7485        0.0023        9.5752        9.5775       5.829037       0.03429
   4     651.6        3.7677        0.0025        9.2958        9.2983       5.530660       0.04080
   3     718.7        3.7974        0.0027        8.9267        8.9294       5.132004       0.05010
   2     792.3        3.8464        0.0028        8.4542        8.4571       4.610657       0.05979
   1     891.5        3.9588        0.0030        7.7948        7.7978       3.839016       0.06566
   0    1013.0        4.2198        0.0032        7.0767        7.0798       2.860009       0.06798



 Wavenumbers:  4650. -  5150. cm-1, ATM      1
 LEVEL PRESSURE   UPWARD FLUX   DIFDOWN FLUX  DIRDOWN FLUX  DOWNWARD FLUX   NET FLUX    HEATING RATE
          mb          W/m2          W/m2          W/m2        W/m2          W/m2       degree/day
  51    .06700        2.6063        0.0000       10.2033       10.2033       7.597002       0.00000
  50    .07753        2.6063        0.0000       10.2031       10.2031       7.596766       0.18901
  49    .09103        2.6063        0.0000       10.2028       10.2028       7.596471       0.18428
  48    0.1069        2.6063        0.0000       10.2025       10.2025       7.596134       0.17931
  47    0.1255        2.6063        0.0000       10.2021       10.2021       7.595750       0.17426
  46    0.1487        2.6063        0.0000       10.2016       10.2016       7.595269       0.17536
  45    0.1794        2.6063        0.0000       10.2010       10.2010       7.594619       0.17850
  44    0.2165        2.6063        0.0000       10.2002       10.2002       7.593859       0.17277
  43    0.2613        2.6063        0.0000       10.1993       10.1993       7.592974       0.16690
  42    0.3336        2.6063        0.0000       10.1979       10.1979       7.591541       0.16702
  41    0.4307        2.6063        0.0000       10.1960       10.1960       7.589701       0.16002
  40    0.5894        2.6063        0.0000       10.1932       10.1932       7.586827       0.15283
  39     1.339        2.6063        0.0000       10.1816       10.1816       7.575236       0.13050
  38     1.782        2.6063        0.0000       10.1760       10.1760       7.569707       0.10526
  37     2.292        2.6063        0.0000       10.1706       10.1706       7.564251       0.09037
  36     2.964        2.6063        0.0000       10.1646       10.1647       7.558328       0.07435
  35     3.853        2.6063        0.0000       10.1584       10.1584       7.552114       0.05897
  34     5.035        2.6063        0.0000       10.1521       10.1521       7.545779       0.04526
  33     6.613        2.6063        0.0000       10.1456       10.1456       7.539322       0.03452
  32     8.786        2.6063        0.0001       10.1386       10.1386       7.532313       0.02722
  31     11.80        2.6063        0.0001       10.1295       10.1296       7.523274       0.02531
  30     15.07        2.6063        0.0001       10.1196       10.1197       7.513397       0.02550
  29     18.79        2.6063        0.0001       10.1076       10.1077       7.501392       0.02722
  28     23.16        2.6063        0.0001       10.0923       10.0924       7.486090       0.02959
  27     28.12        2.6063        0.0002       10.0731       10.0733       7.466999       0.03245
  26     33.73        2.6063        0.0002       10.0500       10.0503       7.443908       0.03472
  25     40.54        2.6064        0.0003       10.0201       10.0204       7.414008       0.03709
  24     48.69        2.6064        0.0003        9.9820        9.9823       7.375840       0.03950
  23     57.69        2.6065        0.0004        9.9384        9.9388       7.332303       0.04081
  22     68.43        2.6066        0.0004        9.8858        9.8862       7.279571       0.04145
  21     81.20        2.6068        0.0005        9.8234        9.8240       7.217177       0.04123
  20     96.49        2.6070        0.0006        9.7518        9.7524       7.145352       0.03964
  19     114.6        2.6073        0.0007        9.6719        9.6726       7.065285       0.03739
  18     136.5        2.6078        0.0008        9.5858        9.5866       6.978818       0.03325
  17     162.9        2.6085        0.0010        9.4940        9.4950       6.886539       0.02950
  16     196.4        2.6096        0.0012        9.3883        9.3895       6.779905       0.02684
  15     218.7        2.6104        0.0013        9.3229        9.3242       6.713811       0.02509
  14     243.0        2.6116        0.0014        9.2520        9.2534       6.641858       0.02496
  13     269.0        2.6131        0.0016        9.1717        9.1732       6.560097       0.02652
  12     297.5        2.6154        0.0017        9.0763        9.0780       6.462578       0.02892
  11     328.5        2.6185        0.0019        8.9650        8.9669       6.348409       0.03104
  10     361.9        2.6224        0.0021        8.8349        8.8370       6.214609       0.03385
   9     398.1        2.6275        0.0022        8.6820        8.6843       6.056784       0.03677
   8     437.6        2.6341        0.0024        8.5028        8.5052       5.871122       0.03970
   7     480.5        2.6427        0.0026        8.2948        8.2974       5.654736       0.04250
   6     533.0        2.6557        0.0028        8.0209        8.0237       5.368013       0.04612
   5     589.8        2.6736        0.0030        7.7063        7.7094       5.035741       0.04932
   4     651.6        2.6997        0.0032        7.3412        7.3444       4.644718       0.05347
   3     718.7        2.7381        0.0034        6.9387        6.9421       4.203919       0.05540
   2     792.3        2.7964        0.0035        6.5066        6.5101       3.713778       0.05621
   1     891.5        2.9176        0.0037        5.9361        5.9398       3.022167       0.05885
   0    1013.0        3.1629        0.0038        5.3025        5.3063       2.143468       0.06101



 Wavenumbers:  5150. -  6150. cm-1, ATM      1
 LEVEL PRESSURE   UPWARD FLUX   DIFDOWN FLUX  DIRDOWN FLUX  DOWNWARD FLUX   NET FLUX    HEATING RATE
          mb          W/m2          W/m2          W/m2        W/m2          W/m2       degree/day
  51    .06700        6.6586        0.0000       25.5798       25.5798      18.921178       0.00000
  50    .07753        6.6586        0.0000       25.5798       25.5798      18.921139       0.03158
  49    .09103        6.6586        0.0000       25.5797       25.5797      18.921088       0.03207
  48    0.1069        6.6586        0.0000       25.5797       25.5797      18.921027       0.03258
  47    0.1255        6.6586        0.0000       25.5796       25.5796      18.920954       0.03308
  46    0.1487        6.6586        0.0000       25.5795       25.5795      18.920858       0.03485
  45    0.1794        6.6586        0.0000       25.5794       25.5794      18.920723       0.03709
  44    0.2165        6.6586        0.0000       25.5792       25.5792      18.920557       0.03766
  43    0.2613        6.6586        0.0000       25.5790       25.5790      18.920355       0.03823
  42    0.3336        6.6586        0.0000       25.5786       25.5786      18.920008       0.04040
  41    0.4307        6.6586        0.0000       25.5782       25.5782      18.919537       0.04094
  40    0.5894        6.6586        0.0000       25.5774       25.5774      18.918748       0.04195
  39     1.339        6.6586        0.0000       25.5735       25.5736      18.914948       0.04278
  38     1.782        6.6586        0.0001       25.5713       25.5714      18.912736       0.04211
  37     2.292        6.6586        0.0001       25.5688       25.5688      18.910233       0.04146
  36     2.964        6.6586        0.0001       25.5656       25.5657      18.907053       0.03992
  35     3.853        6.6586        0.0001       25.5615       25.5616      18.903012       0.03835
  34     5.035        6.6586        0.0001       25.5562       25.5564      18.897807       0.03718
  33     6.613        6.6586        0.0002       25.5494       25.5496      18.891057       0.03609
  32     8.786        6.6585        0.0003       25.5406       25.5409      18.882310       0.03397
  31     11.80        6.6585        0.0003       25.5287       25.5290      18.870482       0.03311
  30     15.07        6.6585        0.0004       25.5167       25.5171      18.858623       0.03062
  29     18.79        6.6585        0.0005       25.5042       25.5047      18.846226       0.02811
  28     23.16        6.6585        0.0007       25.4907       25.4914      18.832876       0.02582
  27     28.12        6.6585        0.0008       25.4764       25.4773      18.818800       0.02393
  26     33.73        6.6585        0.0010       25.4620       25.4630      18.804541       0.02144
  25     40.54        6.6585        0.0012       25.4463       25.4474      18.788954       0.01934
  24     48.69        6.6585        0.0014       25.4294       25.4308      18.772270       0.01726
  23     57.69        6.6586        0.0017       25.4126       25.4143      18.755714       0.01552
  22     68.43        6.6587        0.0020       25.3944       25.3964      18.737746       0.01413
  21     81.20        6.6588        0.0024       25.3744       25.3768      18.717981       0.01306
  20     96.49        6.6590        0.0028       25.3519       25.3547      18.695776       0.01226
  19     114.6        6.6592        0.0033       25.3262       25.3295      18.670316       0.01189
  18     136.5        6.6595        0.0039       25.2962       25.3001      18.640687       0.01139
  17     162.9        6.6598        0.0047       25.2521       25.2568      18.596976       0.01397
  16     196.4        6.6603        0.0056       25.1593       25.1649      18.504615       0.02325
  15     218.7        6.6607        0.0062       25.0159       25.0222      18.361477       0.05434
  14     243.0        6.6612        0.0069       24.7089       24.7158      18.054601       0.10643
  13     269.0        6.6618        0.0075       24.1619       24.1693      17.507505       0.17748
  12     297.5        6.6627        0.0081       23.4544       23.4625      16.799742       0.20991
  11     328.5        6.6639        0.0087       22.7355       22.7442      16.080274       0.19562
  10     361.9        6.6654        0.0093       21.9224       21.9317      15.266336       0.20593
   9     398.1        6.6674        0.0099       20.9939       21.0038      14.336444       0.21664
   8     437.6        6.6700        0.0104       19.9833       19.9938      13.323795       0.21651
   7     480.5        6.6734        0.0110       18.9483       18.9593      12.285841       0.20385
   6     533.0        6.6790        0.0116       17.7796       17.7912      11.112204       0.18880
   5     589.8        6.6874        0.0122       16.6726       16.6847       9.997375       0.16548
   4     651.6        6.7017        0.0128       15.6343       15.6471       8.945397       0.14386
   3     718.7        6.7260        0.0135       14.7738       14.7873       8.061246       0.11111
   2     792.3        6.7697        0.0142       14.0291       14.0434       7.273652       0.09033
   1     891.5        6.8798        0.0152       13.0822       13.0974       6.217616       0.08986
   0    1013.0        7.1858        0.0162       12.0384       12.0546       4.868826       0.09365



 Wavenumbers:  6150. -  7700. cm-1, ATM      1
 LEVEL PRESSURE   UPWARD FLUX   DIFDOWN FLUX  DIRDOWN FLUX  DOWNWARD FLUX   NET FLUX    HEATING RATE
          mb          W/m2          W/m2          W/m2        W/m2          W/m2       degree/day
  51    .06700        9.8160        0.0000       47.3109       47.3109      37.494835       0.00000
  50    .07753        9.8160        0.0000       47.3108       47.3108      37.494778       0.04553
  49    .09103        9.8160        0.0000       47.3107       47.3107      37.494705       0.04583
  48    0.1069        9.8160        0.0000       47.3106       47.3106      37.494618       0.04614
  47    0.1255        9.8160        0.0000       47.3105       47.3105      37.494516       0.04645
  46    0.1487        9.8160        0.0000       47.3104       47.3104      37.494383       0.04852
  45    0.1794        9.8160        0.0000       47.3102       47.3102      37.494196       0.05127
  44    0.2165        9.8160        0.0000       47.3100       47.3100      37.493969       0.05167
  43    0.2613        9.8160        0.0000       47.3097       47.3097      37.493692       0.05210
  42    0.3336        9.8160        0.0000       47.3092       47.3092      37.493223       0.05471
  41    0.4307        9.8160        0.0000       47.3085       47.3086      37.492588       0.05521
  40    0.5894        9.8160        0.0001       47.3074       47.3075      37.491529       0.05633
  39     1.339        9.8159        0.0002       47.3022       47.3023      37.486437       0.05733
  38     1.782        9.8159        0.0002       47.2991       47.2993      37.483466       0.05655
  37     2.292        9.8158        0.0003       47.2956       47.2959      37.480091       0.05591
  36     2.964        9.8158        0.0003       47.2912       47.2915      37.475772       0.05421
  35     3.853        9.8157        0.0005       47.2855       47.2859      37.470238       0.05252
  34     5.035        9.8156        0.0006       47.2780       47.2786      37.463057       0.05129
  33     6.613        9.8154        0.0008       47.2683       47.2691      37.453670       0.05019
  32     8.786        9.8152        0.0010       47.2556       47.2566      37.441371       0.04777
  31     11.80        9.8150        0.0014       47.2380       47.2394      37.424468       0.04732
  30     15.07        9.8147        0.0018       47.2201       47.2219      37.407180       0.04463
  29     18.79        9.8144        0.0022       47.2008       47.2031      37.388702       0.04190
  28     23.16        9.8140        0.0028       47.1795       47.1823      37.368312       0.03943
  27     28.12        9.8135        0.0034       47.1565       47.1598      37.346320       0.03739
  26     33.73        9.8130        0.0040       47.1324       47.1364      37.323400       0.03446
  25     40.54        9.8124        0.0048       47.1054       47.1102      37.297766       0.03180
  24     48.69        9.8117        0.0058       47.0754       47.0812      37.269516       0.02923
  23     57.69        9.8109        0.0069       47.0449       47.0518      37.240898       0.02682
  22     68.43        9.8100        0.0081       47.0110       47.0191      37.209167       0.02495
  21     81.20        9.8088        0.0096       46.9729       46.9825      37.173680       0.02345
  20     96.49        9.8075        0.0115       46.9294       46.9408      37.133350       0.02226
  19     114.6        9.8059        0.0136       46.8790       46.8926      37.086733       0.02177
  18     136.5        9.8040        0.0162       46.8200       46.8361      37.032134       0.02099
  17     162.9        9.8017        0.0192       46.7361       46.7553      36.953557       0.02512
  16     196.4        9.7989        0.0231       46.5703       46.5933      36.794471       0.04004
  15     218.7        9.7971        0.0256       46.3473       46.3729      36.575854       0.08300
  14     243.0        9.7952        0.0282       45.9299       45.9581      36.162916       0.14322
  13     269.0        9.7934        0.0309       45.1708       45.2017      35.408245       0.24481
  12     297.5        9.7919        0.0334       44.0115       44.0449      34.252996       0.34263
  11     328.5        9.7908        0.0360       42.7242       42.7602      32.969472       0.34899
  10     361.9        9.7902        0.0386       41.3539       41.3925      31.602343       0.34590
   9     398.1        9.7906        0.0411       39.7953       39.8364      30.045806       0.36264
   8     437.6        9.7925        0.0435       37.9948       38.0382      28.245719       0.38487
   7     480.5        9.7967        0.0457       36.0647       36.1104      26.313722       0.37944
   6     533.0        9.8057        0.0480       33.7773       33.8253      24.019529       0.36906
   5     589.8        9.8230        0.0500       31.4082       31.4582      21.635248       0.35391
   4     651.6        9.8571        0.0516       28.8834       28.9350      19.077847       0.34973
   3     718.7        9.9201        0.0529       26.4104       26.4633      16.543184       0.31854
   2     792.3       10.0380        0.0540       24.0056       24.0596      14.021585       0.28920
   1     891.5       10.3374        0.0552       21.2348       21.2899      10.952594       0.26116
   0    1013.0       11.1325        0.0565       18.6150       18.6715       7.539011       0.23702



 Wavenumbers:  7700. -  8050. cm-1, ATM      1
 LEVEL PRESSURE   UPWARD FLUX   DIFDOWN FLUX  DIRDOWN FLUX  DOWNWARD FLUX   NET FLUX    HEATING RATE
          mb          W/m2          W/m2          W/m2        W/m2          W/m2       degree/day
  51    .06700        5.2493        0.0000       11.1810       11.1810       5.931671       0.00000
  50    .07753        5.2493        0.0000       11.1809       11.1809       5.931650       0.01698
  49    .09103        5.2493        0.0000       11.1809       11.1809       5.931623       0.01664
  48    0.1069        5.2493        0.0000       11.1809       11.1809       5.931592       0.01629
  47    0.1255        5.2493        0.0000       11.1809       11.1809       5.931557       0.01594
  46    0.1487        5.2493        0.0000       11.1808       11.1808       5.931513       0.01618
  45    0.1794        5.2493        0.0000       11.1808       11.1808       5.931452       0.01665
  44    0.2165        5.2493        0.0000       11.1807       11.1807       5.931380       0.01633
  43    0.2613        5.2493        0.0000       11.1806       11.1806       5.931295       0.01603
  42    0.3336        5.2494        0.0000       11.1805       11.1805       5.931155       0.01640
  41    0.4307        5.2494        0.0000       11.1803       11.1804       5.930968       0.01622
  40    0.5894        5.2494        0.0000       11.1801       11.1801       5.930664       0.01620
  39     1.339        5.2497        0.0001       11.1788       11.1789       5.929222       0.01623
  38     1.782        5.2498        0.0001       11.1781       11.1782       5.928376       0.01612
  37     2.292        5.2499        0.0001       11.1772       11.1773       5.927396       0.01623
  36     2.964        5.2501        0.0002       11.1761       11.1762       5.926109       0.01615
  35     3.853        5.2504        0.0002       11.1746       11.1748       5.924410       0.01613
  34     5.035        5.2507        0.0003       11.1726       11.1729       5.922152       0.01613
  33     6.613        5.2512        0.0004       11.1700       11.1703       5.919137       0.01612
  32     8.786        5.2518        0.0005       11.1664       11.1669       5.915076       0.01577
  31     11.80        5.2527        0.0006       11.1613       11.1619       5.909270       0.01625
  30     15.07        5.2536        0.0008       11.1558       11.1566       5.903042       0.01608
  29     18.79        5.2547        0.0010       11.1497       11.1507       5.896015       0.01593
  28     23.16        5.2559        0.0012       11.1425       11.1437       5.887819       0.01585
  27     28.12        5.2574        0.0015       11.1343       11.1358       5.878463       0.01591
  26     33.73        5.2590        0.0018       11.1252       11.1270       5.868014       0.01571
  25     40.54        5.2609        0.0022       11.1142       11.1164       5.855422       0.01562
  24     48.69        5.2633        0.0026       11.1010       11.1036       5.840289       0.01566
  23     57.69        5.2659        0.0031       11.0866       11.0897       5.823729       0.01552
  22     68.43        5.2691        0.0036       11.0695       11.0732       5.804090       0.01544
  21     81.20        5.2729        0.0043       11.0494       11.0537       5.780816       0.01538
  20     96.49        5.2774        0.0051       11.0255       11.0306       5.753255       0.01521
  19     114.6        5.2828        0.0061       10.9975       11.0036       5.720771       0.01517
  18     136.5        5.2894        0.0072       10.9648       10.9720       5.682598       0.01468
  17     162.9        5.2972        0.0085       10.9263       10.9348       5.637585       0.01439
  16     196.4        5.3076        0.0103       10.8773       10.8875       5.579887       0.01452
  15     218.7        5.3146        0.0114       10.8455       10.8569       5.542358       0.01425
  14     243.0        5.3223        0.0126       10.8114       10.8241       5.501829       0.01406
  13     269.0        5.3307        0.0140       10.7749       10.7888       5.458138       0.01417
  12     297.5        5.3401        0.0154       10.7357       10.7511       5.411062       0.01396
  11     328.5        5.3504        0.0170       10.6937       10.7107       5.360294       0.01380
  10     361.9        5.3619        0.0186       10.6489       10.6675       5.305611       0.01384
   9     398.1        5.3747        0.0205       10.6008       10.6212       5.246522       0.01377
   8     437.6        5.3890        0.0224       10.5491       10.5714       5.182419       0.01371
   7     480.5        5.4051        0.0244       10.4934       10.5179       5.112736       0.01369
   6     533.0        5.4262        0.0270       10.4243       10.4513       5.025107       0.01410
   5     589.8        5.4507        0.0297       10.3479       10.3776       4.926921       0.01457
   4     651.6        5.4801        0.0326       10.2613       10.2940       4.813852       0.01546
   3     718.7        5.5162        0.0357       10.1618       10.1975       4.681299       0.01666
   2     792.3        5.5619        0.0390       10.0439       10.0829       4.520997       0.01838
   1     891.5        5.6388        0.0433        9.8626        9.9059       4.267171       0.02160
   0    1013.0        5.7602        0.0483        9.6103        9.6586       3.898415       0.02560



 Wavenumbers:  8050. - 12850. cm-1, ATM      1
 LEVEL PRESSURE   UPWARD FLUX   DIFDOWN FLUX  DIRDOWN FLUX  DOWNWARD FLUX   NET FLUX    HEATING RATE
          mb          W/m2          W/m2          W/m2        W/m2          W/m2       degree/day
  51    .06700       64.1822        0.0000      156.5418      156.5418      92.359539       0.00000
  50    .07753       64.1822        0.0000      156.5417      156.5417      92.359539      -0.00000
  49    .09103       64.1822        0.0001      156.5417      156.5417      92.359539       0.00000
  48    0.1069       64.1822        0.0001      156.5416      156.5417      92.359539       0.00000
  47    0.1255       64.1821        0.0002      156.5415      156.5417      92.359539      -0.00000
  46    0.1487       64.1821        0.0002      156.5414      156.5416      92.359539       0.00000
  45    0.1794       64.1821        0.0003      156.5413      156.5416      92.359539       0.00000
  44    0.2165       64.1820        0.0004      156.5412      156.5415      92.359539      -0.00000
  43    0.2613       64.1819        0.0005      156.5410      156.5415      92.359539       0.00000
  42    0.3336       64.1818        0.0007      156.5407      156.5414      92.359539       0.00000
  41    0.4307       64.1817        0.0009      156.5403      156.5412      92.359539       0.00000
  40    0.5894       64.1815        0.0013      156.5397      156.5410      92.359539       0.00000
  39     1.339       64.1805        0.0033      156.5367      156.5400      92.359539      -0.00000
  38     1.782       64.1798        0.0044      156.5350      156.5394      92.359539      -0.00000
  37     2.292       64.1791        0.0057      156.5330      156.5387      92.359539       0.00000
  36     2.964       64.1782        0.0074      156.5303      156.5378      92.359539       0.00000
  35     3.853       64.1770        0.0097      156.5268      156.5365      92.359539      -0.00000
  34     5.035       64.1754        0.0127      156.5222      156.5349      92.359539       0.00000
  33     6.613       64.1732        0.0167      156.5160      156.5328      92.359539      -0.00000
  32     8.786       64.1703        0.0222      156.5076      156.5298      92.359539      -0.00000
  31     11.80       64.1661        0.0300      156.4957      156.5256      92.359539       0.00000
  30     15.07       64.1616        0.0384      156.4828      156.5211      92.359539       0.00000
  29     18.79       64.1565        0.0478      156.4682      156.5161      92.359539      -0.00000
  28     23.16       64.1506        0.0589      156.4512      156.5101      92.359539       0.00000
  27     28.12       64.1437        0.0716      156.4317      156.5033      92.359539      -0.00000
  26     33.73       64.1361        0.0858      156.4099      156.4956      92.359539       0.00000
  25     40.54       64.1269        0.1030      156.3834      156.4864      92.359539       0.00000
  24     48.69       64.1157        0.1237      156.3515      156.4752      92.359539      -0.00000
  23     57.69       64.1034        0.1465      156.3164      156.4630      92.359539       0.00000
  22     68.43       64.0888        0.1738      156.2746      156.4483      92.359539       0.00000
  21     81.20       64.0713        0.2063      156.2246      156.4308      92.359539      -0.00000
  20     96.49       64.0504        0.2450      156.1649      156.4100      92.359539       0.00000
  19     114.6       64.0257        0.2912      156.0879      156.3791      92.353385       0.00287
  18     136.5       63.9964        0.3459      155.9962      156.3421      92.345745       0.00294
  17     162.9       63.9613        0.4113      155.8831      156.2944      92.333046       0.00406
  16     196.4       63.9158        0.4963      155.7199      156.2162      92.300417       0.00821
  15     218.7       63.8860        0.5522      155.5733      156.1255      92.239485       0.02313
  14     243.0       63.8539        0.6129      155.3367      155.9496      92.095706       0.04987
  13     269.0       63.8198        0.6785      154.9514      155.6300      91.810137       0.09264
  12     297.5       63.7846        0.7491      154.3896      155.1388      91.354206       0.13522
  11     328.5       63.7484        0.8252      153.7151      154.5403      90.791905       0.15289
  10     361.9       63.7124        0.9068      152.9087      153.8156      90.103156       0.17426
   9     398.1       63.6781        0.9940      151.8986      152.8926      89.214500       0.20704
   8     437.6       63.6484        1.0866      150.6031      151.6897      88.041339       0.25083
   7     480.5       63.6267        1.1842      149.0014      150.1856      86.558989       0.29113
   6     533.0       63.6190        1.3021      146.7375      148.0397      84.420669       0.34399
   5     589.8       63.6456        1.4252      143.8730      145.2982      81.652568       0.41088
   4     651.6       63.7469        1.5508      140.0955      141.6463      77.899453       0.51325
   3     718.7       63.9748        1.6777      135.5278      137.2054      73.230602       0.58675
   2     792.3       64.4440        1.8025      130.0690      131.8715      67.427530       0.66555
   1     891.5       65.6753        1.9522      122.1273      124.0795      58.404234       0.76784
   0    1013.0       68.7374        2.1115      112.9512      115.0627      46.325281       0.83870



 Wavenumbers: 12850. - 16000. cm-1, ATM      1
 LEVEL PRESSURE   UPWARD FLUX   DIFDOWN FLUX  DIRDOWN FLUX  DOWNWARD FLUX   NET FLUX    HEATING RATE
          mb          W/m2          W/m2          W/m2        W/m2          W/m2       degree/day
  51    .06700       66.7757        0.0000       98.0872       98.0872      31.311497       0.00000
  50    .07753       66.7757        0.0001       98.0864       98.0864      31.310708       0.63222
  49    .09103       66.7757        0.0002       98.0853       98.0854      31.309718       0.61884
  48    0.1069       66.7757        0.0002       98.0841       98.0843      31.308581       0.60516
  47    0.1255       66.7757        0.0004       98.0826       98.0830      31.307276       0.59172
  46    0.1487       66.7757        0.0005       98.0809       98.0813      31.305630       0.59989
  45    0.1794       66.7757        0.0007       98.0784       98.0791      31.303393       0.61402
  44    0.2165       66.7758        0.0009       98.0756       98.0765      31.300765       0.59785
  43    0.2613       66.7758        0.0012       98.0723       98.0735      31.297678       0.58182
  42    0.3336       66.7760        0.0016       98.0670       98.0686      31.292649       0.58642
  41    0.4307       66.7762        0.0022       98.0602       98.0624      31.286157       0.56447
  40    0.5894       66.7768        0.0032       98.0496       98.0528      31.275955       0.54249
  39     1.339       66.7818        0.0077       98.0043       98.0121      31.230209       0.51502
  38     1.782       66.7866        0.0104       97.9793       97.9897      31.203056       0.51694
  37     2.292       66.7938        0.0135       97.9498       97.9632      31.169451       0.55659
  36     2.964       66.8058        0.0175       97.9088       97.9263      31.120539       0.61400
  35     3.853       66.8253        0.0229       97.8503       97.8732      31.047944       0.68894
  34     5.035       66.8547        0.0300       97.7680       97.7980      30.943281       0.74766
  33     6.613       66.8958        0.0394       97.6562       97.6956      30.799854       0.76676
  32     8.786       66.9493        0.0522       97.5107       97.5629      30.613624       0.72325
  31     11.80       67.0187        0.0704       97.3179       97.3883      30.369586       0.68323
  30     15.07       67.0851        0.0900       97.1283       97.2183      30.133247       0.61018
  29     18.79       67.1527        0.1121       96.9300       97.0421      29.889426       0.55282
  28     23.16       67.2231        0.1378       96.7166       96.8544      29.631305       0.49912
  27     28.12       67.2937        0.1673       96.4935       96.6607      29.367068       0.44919
  26     33.73       67.3584        0.2002       96.2731       96.4733      29.114836       0.37924
  25     40.54       67.4202        0.2400       96.0408       96.2807      28.860530       0.31550
  24     48.69       67.4787        0.2879       95.7946       96.0825      28.603825       0.26565
  23     57.69       67.5273        0.3406       95.5573       95.8979      28.370521       0.21869
  22     68.43       67.5685        0.4033       95.3106       95.7139      28.145462       0.17693
  21     81.20       67.5945        0.4782       95.0643       95.5425      27.948077       0.13043
  20     96.49       67.6041        0.5675       94.8153       95.3827      27.778682       0.09349
  19     114.6       67.6166        0.6745       94.5411       95.2156      27.598951       0.08392
  18     136.5       67.6218        0.8014       94.2320       95.0335      27.411697       0.07200
  17     162.9       67.6188        0.9525       93.8753       94.8278      27.208962       0.06480
  16     196.4       67.5959        1.1483       93.4347       94.5830      26.987035       0.05586
  15     218.7       67.5740        1.2769       93.1513       94.4282      26.854158       0.05045
  14     243.0       67.5472        1.4166       92.8439       94.2606      26.713386       0.04882
  13     269.0       67.5152        1.5680       92.5111       94.0791      26.563873       0.04850
  12     297.5       67.4785        1.7315       92.1495       93.8810      26.402486       0.04787
  11     328.5       67.4386        1.9082       91.7554       93.6636      26.225045       0.04825
  10     361.9       67.3959        2.0984       91.3262       93.4246      26.028683       0.04968
   9     398.1       67.3515        2.3029       90.8575       93.1605      25.809018       0.05118
   8     437.6       67.3073        2.5224       90.3418       92.8642      25.556940       0.05390
   7     480.5       67.2654        2.7575       89.7728       92.5303      25.264887       0.05736
   6     533.0       67.2247        3.0464       89.0428       92.0892      24.864467       0.06441
   5     589.8       67.2017        3.3567       88.2038       91.5605      24.358775       0.07506
   4     651.6       67.2203        3.6881       87.1979       90.8860      23.665715       0.09478
   3     718.7       67.2961        4.0390       86.0161       90.0551      22.759025       0.11395
   2     792.3       67.4799        4.4057       84.5970       89.0027      21.522829       0.14178
   1     891.5       67.9712        4.8821       82.4374       87.3196      19.348416       0.18503
   0    1013.0       69.0479        5.4281       79.6182       85.0462      15.998299       0.23262



 Wavenumbers: 16000. - 22650. cm-1, ATM      1
 LEVEL PRESSURE   UPWARD FLUX   DIFDOWN FLUX  DIRDOWN FLUX  DOWNWARD FLUX   NET FLUX    HEATING RATE
          mb          W/m2          W/m2          W/m2        W/m2          W/m2       degree/day
  51    .06700      138.3586        0.0000      156.3892      156.3892      18.030660       0.00000
  50    .07753      138.3586        0.0004      156.3887      156.3891      18.030514       0.11721
  49    .09103      138.3585        0.0009      156.3879      156.3888      18.030301       0.13294
  48    0.1069      138.3585        0.0015      156.3871      156.3885      18.030016       0.15160
  47    0.1255      138.3585        0.0021      156.3861      156.3882      18.029635       0.17280
  46    0.1487      138.3586        0.0029      156.3847      156.3876      18.029073       0.20477
  45    0.1794      138.3587        0.0041      156.3828      156.3869      18.028195       0.24110
  44    0.2165      138.3589        0.0054      156.3805      156.3859      18.027004       0.27097
  43    0.2613      138.3592        0.0070      156.3776      156.3846      18.025388       0.30464
  42    0.3336      138.3599        0.0096      156.3726      156.3822      18.022315       0.35825
  41    0.4307      138.3611        0.0131      156.3657      156.3788      18.017683       0.40271
  40    0.5894      138.3636        0.0187      156.3537      156.3724      18.008850       0.46974
  39     1.339      138.3854        0.0455      156.2834      156.3289      17.943589       0.73472
  38     1.782      138.4056        0.0613      156.2324      156.2936      17.887995       1.05842
  37     2.292      138.4361        0.0795      156.1641      156.2436      17.807522       1.33284
  36     2.964      138.4867        0.1034      156.0605      156.1639      17.677156       1.63648
  35     3.853      138.5687        0.1349      155.9041      156.0390      17.470300       1.96311
  34     5.035      138.6925        0.1768      155.6774      155.8542      17.161692       2.20457
  33     6.613      138.8655        0.2327      155.3656      155.5983      16.732827       2.29271
  32     8.786      139.0908        0.3079      154.9577      155.2656      16.174796       2.16719
  31     11.80      139.3839        0.4153      154.4153      154.8306      15.446741       2.03832
  30     15.07      139.6645        0.5305      153.8804      154.4109      14.746412       1.80811
  29     18.79      139.9508        0.6604      153.3191      153.9795      14.028675       1.62733
  28     23.16      140.2499        0.8119      152.7126      153.5245      13.274559       1.45822
  27     28.12      140.5506        0.9849      152.0755      153.0604      12.509803       1.30003
  26     33.73      140.8277        1.1783      151.4409      152.6192      11.791508       1.07998
  25     40.54      141.0938        1.4117      150.7637      152.1754      11.081615       0.88070
  24     48.69      141.3478        1.6929      150.0338      151.7267      10.378851       0.72725
  23     57.69      141.5624        2.0013      149.3151      151.3164       9.754061       0.58565
  22     68.43      141.7482        2.3682      148.5476      150.9158       9.167581       0.46105
  21     81.20      141.8742        2.8050      147.7517      150.5567       8.682453       0.32056
  20     96.49      141.9359        3.3250      146.9127      150.2377       8.301772       0.21011
  19     114.6      141.9637        3.9406      145.9763      149.9169       7.953166       0.16277
  18     136.5      141.9660        4.6674      144.9088      149.5762       7.610248       0.13186
  17     162.9      141.9407        5.5289      143.6785      149.2074       7.266765       0.10979
  16     196.4      141.8475        6.6403      142.1651      148.8053       6.957861       0.07775
  15     218.7      141.7642        7.3665      141.2033      148.5699       6.805692       0.05777
  14     243.0      141.6635        8.1525      140.1753      148.3278       6.664373       0.04901
  13     269.0      141.5438        9.0004      139.0797      148.0801       6.536305       0.04154
  12     297.5      141.4044        9.9122      137.9141      147.8263       6.421871       0.03394
  11     328.5      141.2492       10.8922      136.6676      147.5597       6.310542       0.03027
  10     361.9      141.0779       11.9412      135.3392      147.2804       6.202464       0.02734
   9     398.1      140.8900       13.0633      133.9235      146.9867       6.096768       0.02462
   8     437.6      140.6863       14.2604      132.4163      146.6766       5.990364       0.02275
   7     480.5      140.4663       15.5346      130.8147      146.3493       5.882984       0.02109
   6     533.0      140.1955       17.0908      128.8599      145.9507       5.755151       0.02056
   5     589.8      139.9073       18.7532      126.7679      145.5212       5.613849       0.02097
   4     651.6      139.6076       20.5235      124.5274      145.0510       5.443382       0.02331
   3     718.7      139.3022       22.4034      122.1285      144.5319       5.229676       0.02686
   2     792.3      139.0071       24.3906      119.5548      143.9454       4.938316       0.03342
   1     891.5      138.6861       27.0278      116.0566      143.0844       4.398275       0.04595
   0    1013.0      138.4273       30.1257      111.8404      141.9662       3.538875       0.05967



 Wavenumbers: 22650. - 29000. cm-1, ATM      1
 LEVEL PRESSURE   UPWARD FLUX   DIFDOWN FLUX  DIRDOWN FLUX  DOWNWARD FLUX   NET FLUX    HEATING RATE
          mb          W/m2          W/m2          W/m2        W/m2          W/m2       degree/day
  51    .06700       57.6233        0.0000       59.0156       59.0156       1.392285       0.00000
  50    .07753       57.6232        0.0005       59.0151       59.0155       1.392285       0.00000
  49    .09103       57.6231        0.0010       59.0144       59.0154       1.392285       0.00000
  48    0.1069       57.6230        0.0017       59.0136       59.0153       1.392285       0.00000
  47    0.1255       57.6228        0.0025       59.0127       59.0151       1.392285      -0.00000
  46    0.1487       57.6226        0.0034       59.0115       59.0149       1.392285       0.00000
  45    0.1794       57.6224        0.0047       59.0099       59.0147       1.392285       0.00000
  44    0.2165       57.6221        0.0063       59.0080       59.0143       1.392285      -0.00000
  43    0.2613       57.6217        0.0081       59.0058       59.0140       1.392285       0.00000
  42    0.3336       57.6211        0.0112       59.0022       59.0134       1.392285      -0.00000
  41    0.4307       57.6203        0.0152       58.9973       59.0125       1.392285       0.00000
  40    0.5894       57.6189        0.0219       58.9894       59.0112       1.392285       0.00000
  39     1.339       57.6126        0.0531       58.9518       59.0049       1.392285      -0.00000
  38     1.782       57.6089        0.0715       58.9297       59.0012       1.392285       0.00000
  37     2.292       57.6047        0.0928       58.9042       58.9969       1.392285       0.00000
  36     2.964       57.5990        0.1207       58.8706       58.9913       1.392285       0.00000
  35     3.853       57.5916        0.1575       58.8264       58.9839       1.392285       0.00000
  34     5.035       57.5818        0.2065       58.7676       58.9741       1.392285      -0.00000
  33     6.613       57.5686        0.2718       58.6891       58.9609       1.392285       0.00000
  32     8.786       57.5509        0.3598       58.5834       58.9432       1.392285       0.00000
  31     11.80       57.5256        0.4854       58.4324       58.9179       1.392285       0.00000
  30     15.07       57.4985        0.6201       58.2706       58.8908       1.392285       0.00000
  29     18.79       57.4679        0.7719       58.0882       58.8602       1.392285       0.00000
  28     23.16       57.4323        0.9489       57.8757       58.8245       1.392285      -0.00000
  27     28.12       57.3916        1.1506       57.6333       58.7839       1.392285       0.00000
  26     33.73       57.3463        1.3755       57.3631       58.7386       1.392285       0.00000
  25     40.54       57.2917        1.6461       57.0379       58.6840       1.392285      -0.00000
  24     48.69       57.2262        1.9706       56.6479       58.6185       1.392285       0.00000
  23     57.69       57.1547        2.3249       56.2221       58.5470       1.392285      -0.00000
  22     68.43       57.0701        2.7439       55.7186       58.4624       1.392285       0.00000
  21     81.20       56.9702        3.2386       55.1239       58.3625       1.392285       0.00000
  20     96.49       56.8522        3.8217       54.4228       58.2445       1.392285      -0.00000
  19     114.6       56.7139        4.5052       53.6010       58.1062       1.392285       0.00000
  18     136.5       56.5523        5.3028       52.6418       57.9446       1.392285       0.00000
  17     162.9       56.3631        6.2350       51.5203       57.7554       1.392285      -0.00000
  16     196.4       56.1230        7.4159       50.0994       57.5153       1.392285       0.00000
  15     218.7       55.9685        8.1745       49.1863       57.3608       1.392285      -0.00000
  14     243.0       55.8034        8.9844       48.2113       57.1957       1.392285       0.00000
  13     269.0       55.6276        9.8449       47.1749       57.0199       1.392285       0.00000
  12     297.5       55.4413       10.7553       46.0783       56.8336       1.392285       0.00000
  11     328.5       55.2441       11.7169       44.9195       56.6364       1.392285       0.00000
  10     361.9       55.0366       12.7270       43.7018       56.4288       1.392285       0.00000
   9     398.1       54.8185       13.7857       42.4250       56.2108       1.392285       0.00000
   8     437.6       54.5902       14.8909       41.0916       55.9825       1.392285      -0.00000
   7     480.5       54.3521       16.0399       39.7045       55.7444       1.392285       0.00000
   6     533.0       54.0681       17.4061       38.0543       55.4604       1.392285       0.00000
   5     589.8       53.7725       18.8217       36.3431       55.1648       1.392285      -0.00000
   4     651.6       53.4666       20.2793       34.5795       54.8588       1.392285       0.00000
   3     718.7       53.1513       21.7733       32.7702       54.5435       1.392285      -0.00000
   2     792.3       52.8281       23.2948       30.9256       54.2204       1.392285       0.00000
   1     891.5       52.4140       25.2285       28.5778       53.8063       1.392285      -0.00000
   0    1013.0       51.9490       27.3748       25.9665       53.3412       1.392285       0.00000



 Wavenumbers: 29000. - 38000. cm-1, ATM      1
 LEVEL PRESSURE   UPWARD FLUX   DIFDOWN FLUX  DIRDOWN FLUX  DOWNWARD FLUX   NET FLUX    HEATING RATE
          mb          W/m2          W/m2          W/m2        W/m2          W/m2       degree/day
  51    .06700        8.6307        0.0000       20.8114       20.8114      12.180690       0.00000
  50    .07753        8.6305        0.0003       20.8070       20.8074      12.176883       3.05141
  49    .09103        8.6303        0.0007       20.8009       20.8016      12.171347       3.46068
  48    0.1069        8.6300        0.0012       20.7928       20.7939      12.163937       3.94410
  47    0.1255        8.6297        0.0017       20.7820       20.7837      12.154033       4.49012
  46    0.1487        8.6294        0.0024       20.7665       20.7688      12.139470       5.30817
  45    0.1794        8.6289        0.0033       20.7424       20.7457      12.116807       6.22172
  44    0.2165        8.6284        0.0043       20.7103       20.7147      12.086286       6.94303
  43    0.2613        8.6278        0.0056       20.6675       20.6731      12.045293       7.72690
  42    0.3336        8.6269        0.0077       20.5880       20.5956      11.968737       8.92575
  41    0.4307        8.6258        0.0104       20.4722       20.4826      11.856791       9.73345
  40    0.5894        8.6242        0.0147       20.2637       20.2783      11.654120      10.77777
  39     1.339        8.6207        0.0330       19.0984       19.1314      10.510741      12.87237
  38     1.782        8.6210        0.0426       18.4394       18.4819       9.860900      12.37193
  37     2.292        8.6236        0.0528       17.7714       17.8242       9.200673      10.93508
  36     2.964        8.6299        0.0655       17.0421       17.1076       8.477737       9.07503
  35     3.853        8.6423        0.0813       16.2678       16.3492       7.706852       7.31584
  34     5.035        8.6629        0.1014       15.4803       15.5817       6.918792       5.62957
  33     6.613        8.6929        0.1271       14.7157       14.8428       6.149810       4.11098
  32     8.786        8.7326        0.1607       13.9936       14.1542       5.421645       2.82793
  31     11.80        8.7843        0.2075       13.2835       13.4910       4.706715       2.00158
  30     15.07        8.8342        0.2561       12.7394       12.9954       4.161250       1.40828
  29     18.79        8.8856        0.3099       12.2666       12.5765       3.690858       1.06652
  28     23.16        8.9402        0.3711       11.8300       12.2011       3.260854       0.83149
  27     28.12        8.9961        0.4396       11.4279       11.8674       2.871345       0.66214
  26     33.73        9.0475        0.5151       11.0695       11.5845       2.536987       0.50272
  25     40.54        9.0962        0.6053       10.7209       11.3261       2.229991       0.38086
  24     48.69        9.1418        0.7122       10.3742       11.0864       1.944635       0.29530
  23     57.69        9.1790        0.8280       10.0549       10.8829       1.703981       0.22558
  22     68.43        9.2086        0.9638        9.7327       10.6966       1.488019       0.16978
  21     81.20        9.2217        1.1242        9.4134       10.5376       1.315874       0.11375
  20     96.49        9.2165        1.3126        9.0887       10.4014       1.184879       0.07230
  19     114.6        9.2008        1.5303        8.7388       10.2691       1.068320       0.05443
  18     136.5        9.1775        1.7791        8.3549       10.1340       0.956522       0.04299
  17     162.9        9.1466        2.0626        7.9311        9.9937       0.847110       0.03497
  16     196.4        9.0960        2.4136        7.4333        9.8469       0.750857       0.02423
  15     218.7        9.0599        2.6343        7.1295        9.7638       0.703934       0.01781
  14     243.0        9.0203        2.8649        6.8161        9.6810       0.660622       0.01502
  13     269.0        8.9771        3.1046        6.4943        9.5989       0.621747       0.01261
  12     297.5        8.9304        3.3522        6.1657        9.5179       0.587492       0.01016
  11     328.5        8.8816        3.6068        5.8295        9.4363       0.554710       0.00891
  10     361.9        8.8310        3.8659        5.4886        9.3545       0.523549       0.00788
   9     398.1        8.7788        4.1289        5.1440        9.2728       0.494035       0.00688
   8     437.6        8.7256        4.3942        4.7969        9.1912       0.465599       0.00608
   7     480.5        8.6715        4.6598        4.4504        9.1102       0.438623       0.00530
   6     533.0        8.6093        4.9622        4.0563        9.0185       0.409238       0.00473
   5     589.8        8.5473        5.2600        3.6682        8.9282       0.380810       0.00422
   4     651.6        8.4868        5.5493        3.2905        8.8398       0.353021       0.00380
   3     718.7        8.4279        5.8285        2.9252        8.7537       0.325831       0.00342
   2     792.3        8.3716        6.0944        2.5764        8.6708       0.299244       0.00305
   1     891.5        8.3054        6.4059        2.1659        8.5718       0.266460       0.00279
   0    1013.0        8.2394        6.7172        1.7526        8.4698       0.230318       0.00251



 Wavenumbers: 38000. - 50000. cm-1, ATM      1
 LEVEL PRESSURE   UPWARD FLUX   DIFDOWN FLUX  DIRDOWN FLUX  DOWNWARD FLUX   NET FLUX    HEATING RATE
          mb          W/m2          W/m2          W/m2        W/m2          W/m2       degree/day
  51    .06700        0.0061        0.0000        1.2836        1.2836       1.277518       0.00000
  50    .07753        0.0061        0.0001        1.2812        1.2812       1.275183       1.87150
  49    .09103        0.0060        0.0002        1.2777        1.2778       1.271851       2.08247
  48    0.1069        0.0059        0.0002        1.2731        1.2734       1.267473       2.33059
  47    0.1255        0.0058        0.0004        1.2672        1.2675       1.261717       2.60908
  46    0.1487        0.0057        0.0005        1.2586        1.2591       1.253391       3.03499
  45    0.1794        0.0055        0.0007        1.2455        1.2462       1.240623       3.50520
  44    0.2165        0.0054        0.0009        1.2282        1.2291       1.223697       3.85037
  43    0.2613        0.0052        0.0011        1.2054        1.2065       1.201348       4.21261
  42    0.3336        0.0049        0.0015        1.1639        1.1654       1.160524       4.75970
  41    0.4307        0.0045        0.0020        1.1051        1.1070       1.102565       5.03943
  40    0.5894        0.0039        0.0026        1.0039        1.0064       1.002524       5.32007
  39     1.339        0.0022        0.0035        0.5438        0.5473       0.545104       5.14971
  38     1.782        0.0016        0.0032        0.3635        0.3666       0.365006       3.42879
  37     2.292        0.0012        0.0027        0.2356        0.2383       0.237058       2.11916
  36     2.964        0.0009        0.0022        0.1455        0.1477       0.146786       1.13318
  35     3.853        0.0006        0.0017        0.0858        0.0875       0.086906       0.56828
  34     5.035        0.0004        0.0013        0.0488        0.0501       0.049701       0.26578
  33     6.613        0.0003        0.0010        0.0273        0.0282       0.027974       0.11615
  32     8.786        0.0002        0.0007        0.0144        0.0151       0.014928       0.05067
  31     11.80        0.0001        0.0004        0.0065        0.0070       0.006903       0.02247
  30     15.07        0.0000        0.0003        0.0031        0.0034       0.003329       0.00923
  29     18.79        0.0000        0.0002        0.0014        0.0016       0.001583       0.00396
  28     23.16        0.0000        0.0001        0.0006        0.0007       0.000720       0.00167
  27     28.12        0.0000        0.0001        0.0003        0.0003       0.000317       0.00069
  26     33.73        0.0000        0.0000        0.0001        0.0001       0.000140       0.00027
  25     40.54        0.0000        0.0000        0.0000        0.0001       0.000057       0.00010
  24     48.69        0.0000        0.0000        0.0000        0.0000       0.000021       0.00004
  23     57.69        0.0000        0.0000        0.0000        0.0000       0.000008       0.00001
  22     68.43        0.0000        0.0000        0.0000        0.0000       0.000003       0.00000
  21     81.20        0.0000        0.0000        0.0000        0.0000       0.000001       0.00000
  20     96.49        0.0000        0.0000        0.0000        0.0000       0.000000       0.00000
  19     114.6        0.0000        0.0000        0.0000        0.0000       0.000000       0.00000
  18     136.5        0.0000        0.0000        0.0000        0.0000       0.000000       0.00000
  17     162.9        0.0000        0.0000        0.0000        0.0000       0.000000       0.00000
  16     196.4        0.0000        0.0000        0.0000        0.0000       0.000000       0.00000
  15     218.7        0.0000        0.0000        0.0000        0.0000       0.000000       0.00000
  14     243.0        0.0000        0.0000        0.0000        0.0000       0.000000       0.00000
  13     269.0        0.0000        0.0000        0.0000        0.0000       0.000000       0.00000
  12     297.5        0.0000        0.0000        0.0000        0.0000       0.000000       0.00000
  11     328.5        0.0000        0.0000        0.0000        0.0000       0.000000       0.00000
  10     361.9        0.0000        0.0000        0.0000        0.0000       0.000000       0.00000
   9     398.1        0.0000        0.0000        0.0000        0.0000       0.000000       0.00000
   8     437.6        0.0000        0.0000        0.0000        0.0000       0.000000       0.00000
   7     480.5        0.0000        0.0000        0.0000        0.0000       0.000000       0.00000
   6     533.0        0.0000        0.0000        0.0000        0.0000       0.000000       0.00000
   5     589.8        0.0000        0.0000        0.0000        0.0000       0.000000       0.00000
   4     651.6        0.0000        0.0000        0.0000        0.0000       0.000000       0.00000
   3     718.7        0.0000        0.0000        0.0000        0.0000       0.000000       0.00000
   2     792.3        0.0000        0.0000        0.0000        0.0000       0.000000       0.00000
   1     891.5        0.0000        0.0000        0.0000        0.0000       0.000000       0.00000
   0    1013.0        0.0000        0.0000        0.0000        0.0000       0.000000       0.00000



 Wavenumbers:   820. -  2600. cm-1, ATM      1
 LEVEL PRESSURE   UPWARD FLUX   DIFDOWN FLUX  DIRDOWN FLUX  DOWNWARD FLUX   NET FLUX    HEATING RATE
          mb          W/m2          W/m2          W/m2        W/m2          W/m2       degree/day
  51    .06700        0.6371        0.0000        6.0047        6.0047       5.367587       0.00000
  50    .07753        0.6371        0.0000        6.0008        6.0008       5.363734       3.08820
  49    .09103        0.6371        0.0000        5.9999        5.9999       5.362848       0.55357
  48    0.1069        0.6371        0.0000        5.9989        5.9989       5.361859       0.52651
  47    0.1255        0.6371        0.0000        5.9978        5.9978       5.360742       0.50649
  46    0.1487        0.6371        0.0000        5.9964        5.9964       5.359385       0.49456
  45    0.1794        0.6371        0.0000        5.9947        5.9947       5.357666       0.47199
  44    0.2165        0.6371        0.0000        5.9929        5.9929       5.355823       0.41909
  43    0.2613        0.6371        0.0000        5.9909        5.9909       5.353864       0.36932
  42    0.3336        0.6371        0.0000        5.9880        5.9880       5.350986       0.33555
  41    0.4307        0.6371        0.0000        5.9846        5.9846       5.347517       0.30164
  40    0.5894        0.6371        0.0000        5.9791        5.9791       5.342012       0.29275
  39     1.339        0.6371        0.0000        5.9536        5.9536       5.316526       0.28693
  38     1.782        0.6371        0.0000        5.9395        5.9395       5.302388       0.26916
  37     2.292        0.6371        0.0000        5.9237        5.9237       5.286637       0.26087
  36     2.964        0.6371        0.0000        5.9039        5.9039       5.266864       0.24821
  35     3.853        0.6371        0.0000        5.8793        5.8793       5.242209       0.23398
  34     5.035        0.6371        0.0000        5.8487        5.8487       5.211647       0.21832
  33     6.613        0.6371        0.0000        5.8108        5.8108       5.173684       0.20295
  32     8.786        0.6371        0.0000        5.7631        5.7631       5.126063       0.18495
  31     11.80        0.6371        0.0000        5.7039        5.7039       5.066808       0.16589
  30     15.07        0.6371        0.0000        5.6539        5.6539       5.016771       0.12919
  29     18.79        0.6371        0.0000        5.6127        5.6127       4.975637       0.09326
  28     23.16        0.6371        0.0000        5.5794        5.5794       4.942262       0.06454
  27     28.12        0.6371        0.0000        5.5518        5.5518       4.914695       0.04686
  26     33.73        0.6371        0.0000        5.5268        5.5268       4.889640       0.03767
  25     40.54        0.6371        0.0000        5.4993        5.4993       4.862192       0.03405
  24     48.69        0.6372        0.0000        5.4678        5.4678       4.830644       0.03265
  23     57.69        0.6372        0.0000        5.4340        5.4340       4.796847       0.03168
  22     68.43        0.6372        0.0000        5.3947        5.3948       4.757561       0.03088
  21     81.20        0.6372        0.0000        5.3497        5.3497       4.712512       0.02977
  20     96.49        0.6372        0.0000        5.2982        5.2982       4.660977       0.02844
  19     114.6        0.6373        0.0000        5.2389        5.2389       4.601628       0.02771
  18     136.5        0.6373        0.0000        5.1716        5.1717       4.534338       0.02587
  17     162.9        0.6374        0.0000        5.0890        5.0890       4.451656       0.02643
  16     196.4        0.6375        0.0000        4.9668        4.9668       4.329330       0.03079
  15     218.7        0.6376        0.0000        4.8585        4.8585       4.220858       0.04118
  14     243.0        0.6378        0.0000        4.7078        4.7079       4.070060       0.05230
  13     269.0        0.6381        0.0000        4.5343        4.5343       3.896199       0.05640
  12     297.5        0.6385        0.0000        4.3419        4.3420       3.703422       0.05718
  11     328.5        0.6392        0.0000        4.1281        4.1281       3.488970       0.05831
  10     361.9        0.6400        0.0000        3.8786        3.8787       3.238650       0.06333
   9     398.1        0.6412        0.0000        3.6159        3.6159       2.974796       0.06147
   8     437.6        0.6426        0.0000        3.3759        3.3759       2.733254       0.05164
   7     480.5        0.6445        0.0000        3.1957        3.1958       2.551305       0.03573
   6     533.0        0.6474        0.0000        3.0467        3.0467       2.399355       0.02444
   5     589.8        0.6517        0.0000        2.9023        2.9023       2.250646       0.02207
   4     651.6        0.6595        0.0000        2.7183        2.7184       2.058868       0.02623
   3     718.7        0.6731        0.0000        2.5058        2.5059       1.832778       0.02841
   2     792.3        0.6981        0.0000        2.2756        2.2757       1.577595       0.02927
   1     891.5        0.7617        0.0000        1.9621        1.9622       1.200434       0.03209
   0    1013.0        0.9219        0.0000        1.5468        1.5469       0.624936       0.03996

  Modules and versions used in this calculation:

       rrtmg_sw.1col.f90:  $Revision$                    rrtmg_sw_init.f90:  $Revision$        
     rrtmgsw_cldprop.f90:  $Revision$                  rrtmgsw_cldprmc.f90:  NOT USED          
     rrtmg_sw_reftra.f90:  $Revision$                  rrtmg_sw_spcvrt.f90:  NOT USED          
     rrtmg_sw_spcvmc.f90:  NOT USED                    rrtmgsw_setcoef.f90:  NOT USED          
     rrtmg_sw_taumol.f90:  $Revision$                  rrtmg_sw_vrtqdr.f90:  NOT USED          
                rrtatm.f:  NOT USED                             util_xxx.f:  NOT USED          
                 extra.f:  NOT USED                       rrtmg_sw_k_g.f90:  $Revision$        

