

 Wavenumbers:   820. - 50000. cm-1, ATM      1
 LEVEL PRESSURE   UPWARD FLUX   DIFDOWN FLUX  DIRDOWN FLUX  DOWNWARD FLUX   NET FLUX    HEATING RATE
          mb          W/m2          W/m2          W/m2        W/m2          W/m2       degree/day
  51    .06700      376.1076        0.0000      617.8126      617.8126     241.705014       0.00000
  50    .07753      376.1072        0.0013      617.7947      617.7961     241.688877      12.93414
  49    .09103      376.1067        0.0030      617.7778      617.7808     241.674071       9.25401
  48    0.1069      376.1062        0.0050      617.7581      617.7631     241.656815       9.18577
  47    0.1255      376.1057        0.0072      617.7340      617.7412     241.635476       9.67393
  46    0.1487      376.1051        0.0100      617.7009      617.7109     241.605798      10.81774
  45    0.1794      376.1044        0.0139      617.6521      617.6660     241.561580      12.13912
  44    0.2165      376.1036        0.0184      617.5895      617.6079     241.504274      13.03606
  43    0.2613      376.1029        0.0237      617.5089      617.5326     241.429781      14.04157
  42    0.3336      376.1019        0.0326      617.3641      617.3967     241.294732      15.74536
  41    0.4307      376.1011        0.0442      617.1591      617.2033     241.102161      16.74361
  40    0.5894      376.1008        0.0629      616.8005      616.8634     240.762566      18.05927
  39     1.339      376.1172        0.1475      614.9443      615.0918     238.974594      20.12931
  38     1.782      376.1393        0.1952      613.9670      614.1622     238.022851      18.11966
  37     2.292      376.1763        0.2494      613.0059      613.2552     237.078966      15.63319
  36     2.964      376.2418        0.3198      611.9577      612.2775     236.035644      13.09684
  35     3.853      376.3521        0.4122      610.8024      611.2146     234.862435      11.13397
  34     5.035      376.5220        0.5341      609.5327      610.0668     233.544721       9.41320
  33     6.613      376.7615        0.6958      608.1464      608.8423     232.080809       7.82608
  32     8.786      377.0733        0.9129      606.6250      607.5379     230.464642       6.27661
  31     11.80      377.4767        1.2219      604.8486      606.0705     228.593795       5.23778
  30     15.07      377.8604        1.5516      603.2440      604.7956     226.935228       4.28210
  29     18.79      378.2494        1.9226      601.6511      603.5738     225.324380       3.65229
  28     23.16      378.6527        2.3537      599.9927      602.3464     223.693674       3.15326
  27     28.12      379.0542        2.8444      598.2881      601.1324     222.078212       2.74618
  26     33.73      379.4161        3.3914      596.5951      599.9865     220.570399       2.26704
  25     40.54      379.7513        4.0499      594.7727      598.8226     219.071301       1.85980
  24     48.69      380.0567        4.8401      592.7865      597.6266     217.569872       1.55374
  23     57.69      380.2964        5.7039      590.7959      596.4998     216.203390       1.28087
  22     68.43      380.4778        6.7272      588.6191      595.3462     214.868457       1.04944
  21     81.20      380.5494        7.9403      586.2690      594.2093     213.659916       0.79859
  20     96.49      380.5006        9.3767      583.6961      593.0728     212.572169       0.60036
  19     114.6      380.3907       11.0666      580.7708      591.8374     211.446683       0.52552
  18     136.5      380.2157       13.0453      577.4359      590.4812     210.265493       0.45420
  17     162.9      379.9687       15.3672      573.5624      588.9297     208.960972       0.41698
  16     196.4      379.5601       18.3282      568.5907      586.9189     207.358873       0.40327
  15     218.7      379.2618       20.2426      565.0572      585.2998     206.037942       0.50151
  14     243.0      378.9270       22.2957      560.7495      583.0453     204.118233       0.66582
  13     269.0      378.5544       24.4892      555.3947      579.8838     201.329398       0.90469
  12     297.5      378.1453       26.8234      548.9964      575.8198     197.674545       1.08399
  11     328.5      377.7070       29.3050      542.0895      571.3946     193.687522       1.08406
  10     361.9      377.2427       31.9301      534.6242      566.5543     189.311638       1.10714
   9     398.1      376.7553       34.7032      526.4204      561.1236     184.368308       1.15168
   8     437.6      376.2536       37.6230      517.3907      555.0137     178.760092       1.19907
   7     480.5      375.7450       40.6875      507.7216      548.4091     172.664095       1.19723
   6     533.0      375.1725       44.3717      495.9006      540.2723     165.099758       1.21686
   5     589.8      374.6495       48.2375      483.0788      531.3163     156.666782       1.25173
   4     651.6      374.2695       52.2725      468.6907      520.9632     146.693665       1.36385
   3     718.7      374.1318       56.4686      453.2257      509.6944     135.562545       1.39887
   2     792.3      374.4761       60.8042      436.4928      497.2971     122.820980       1.46131
   1     891.5      376.1803       66.4063      413.9344      480.3407     104.160410       1.58792
   0    1013.0      381.2194       72.7787      388.4125      461.1912      79.971826       1.67954



 Wavenumbers:  2600. -  3250. cm-1, ATM      1
 LEVEL PRESSURE   UPWARD FLUX   DIFDOWN FLUX  DIRDOWN FLUX  DOWNWARD FLUX   NET FLUX    HEATING RATE
          mb          W/m2          W/m2          W/m2        W/m2          W/m2       degree/day
  51    .06700        0.0224        0.0000        5.4450        5.4450       5.422643       0.00000
  50    .07753        0.0224        0.0000        5.4450        5.4450       5.422635       0.00640
  49    .09103        0.0224        0.0000        5.4450        5.4450       5.422625       0.00627
  48    0.1069        0.0224        0.0000        5.4450        5.4450       5.422613       0.00613
  47    0.1255        0.0224        0.0000        5.4450        5.4450       5.422600       0.00599
  46    0.1487        0.0224        0.0000        5.4450        5.4450       5.422583       0.00608
  45    0.1794        0.0224        0.0000        5.4450        5.4450       5.422561       0.00625
  44    0.2165        0.0224        0.0000        5.4449        5.4449       5.422534       0.00612
  43    0.2613        0.0224        0.0000        5.4449        5.4449       5.422502       0.00600
  42    0.3336        0.0224        0.0000        5.4448        5.4448       5.422449       0.00617
  41    0.4307        0.0224        0.0000        5.4448        5.4448       5.422378       0.00620
  40    0.5894        0.0224        0.0000        5.4446        5.4446       5.422258       0.00637
  39     1.339        0.0224        0.0000        5.4439        5.4439       5.421550       0.00797
  38     1.782        0.0224        0.0000        5.4434        5.4434       5.421008       0.01034
  37     2.292        0.0224        0.0000        5.4427        5.4427       5.420292       0.01186
  36     2.964        0.0224        0.0000        5.4416        5.4416       5.419253       0.01304
  35     3.853        0.0224        0.0000        5.4402        5.4402       5.417776       0.01402
  34     5.035        0.0224        0.0000        5.4381        5.4381       5.415720       0.01468
  33     6.613        0.0224        0.0000        5.4353        5.4353       5.412939       0.01487
  32     8.786        0.0224        0.0000        5.4317        5.4317       5.409307       0.01411
  31     11.80        0.0224        0.0000        5.4269        5.4269       5.404527       0.01338
  30     15.07        0.0224        0.0000        5.4224        5.4224       5.400001       0.01169
  29     18.79        0.0224        0.0000        5.4180        5.4180       5.395590       0.01000
  28     23.16        0.0224        0.0000        5.4135        5.4135       5.391105       0.00867
  27     28.12        0.0224        0.0000        5.4088        5.4088       5.386458       0.00790
  26     33.73        0.0224        0.0000        5.4036        5.4036       5.381219       0.00788
  25     40.54        0.0224        0.0000        5.3966        5.3967       5.374280       0.00861
  24     48.69        0.0224        0.0000        5.3872        5.3872       5.364807       0.00980
  23     57.69        0.0224        0.0000        5.3754        5.3754       5.353028       0.01104
  22     68.43        0.0224        0.0000        5.3599        5.3599       5.337547       0.01217
  21     81.20        0.0224        0.0000        5.3401        5.3401       5.317723       0.01310
  20     96.49        0.0224        0.0000        5.3155        5.3155       5.293171       0.01355
  19     114.6        0.0224        0.0000        5.2853        5.2853       5.262992       0.01409
  18     136.5        0.0223        0.0000        5.2504        5.2505       5.228110       0.01341
  17     162.9        0.0223        0.0001        5.2111        5.2111       5.188802       0.01256
  16     196.4        0.0223        0.0001        5.1640        5.1641       5.141770       0.01184
  15     218.7        0.0223        0.0001        5.1331        5.1332       5.110852       0.01174
  14     243.0        0.0223        0.0001        5.0962        5.0963       5.073969       0.01279
  13     269.0        0.0223        0.0001        5.0511        5.0512       5.028850       0.01464
  12     297.5        0.0223        0.0001        4.9956        4.9957       4.973364       0.01646
  11     328.5        0.0224        0.0001        4.9304        4.9305       4.908127       0.01774
  10     361.9        0.0224        0.0001        4.8511        4.8512       4.828842       0.02006
   9     398.1        0.0224        0.0001        4.7507        4.7508       4.728403       0.02340
   8     437.6        0.0225        0.0001        4.6220        4.6222       4.599716       0.02751
   7     480.5        0.0225        0.0001        4.4625        4.4626       4.440097       0.03135
   6     533.0        0.0226        0.0002        4.2460        4.2462       4.223551       0.03484
   5     589.8        0.0228        0.0002        3.9954        3.9956       3.972746       0.03723
   4     651.6        0.0231        0.0002        3.7089        3.7090       3.685915       0.03922
   3     718.7        0.0236        0.0002        3.4018        3.4020       3.378428       0.03864
   2     792.3        0.0243        0.0002        3.0564        3.0566       3.032293       0.03970
   1     891.5        0.0260        0.0002        2.5828        2.5830       2.556971       0.04045
   0    1013.0        0.0300        0.0001        2.0845        2.0847       2.054643       0.03488



 Wavenumbers:  3250. -  4000. cm-1, ATM      1
 LEVEL PRESSURE   UPWARD FLUX   DIFDOWN FLUX  DIRDOWN FLUX  DOWNWARD FLUX   NET FLUX    HEATING RATE
          mb          W/m2          W/m2          W/m2        W/m2          W/m2       degree/day
  51    .06700        0.0005        0.0000        9.1795        9.1795       9.179064       0.00000
  50    .07753        0.0005        0.0000        9.1747        9.1747       9.174222       3.88148
  49    .09103        0.0005        0.0000        9.1713        9.1713       9.170834       2.11747
  48    0.1069        0.0005        0.0000        9.1688        9.1688       9.168309       1.34402
  47    0.1255        0.0005        0.0000        9.1665        9.1665       9.166050       1.02422
  46    0.1487        0.0005        0.0000        9.1641        9.1641       9.163608       0.88991
  45    0.1794        0.0005        0.0000        9.1612        9.1612       9.160730       0.79008
  44    0.2165        0.0005        0.0000        9.1583        9.1583       9.157810       0.66430
  43    0.2613        0.0005        0.0000        9.1553        9.1553       9.154837       0.56041
  42    0.3336        0.0005        0.0000        9.1511        9.1511       9.150658       0.48723
  41    0.4307        0.0005        0.0000        9.1464        9.1464       9.145890       0.41459
  40    0.5894        0.0005        0.0000        9.1393        9.1394       9.138884       0.37255
  39     1.339        0.0005        0.0000        9.1127        9.1127       9.112271       0.29962
  38     1.782        0.0005        0.0000        9.1011        9.1011       9.100683       0.22062
  37     2.292        0.0005        0.0000        9.0901        9.0901       9.089616       0.18329
  36     2.964        0.0005        0.0000        9.0776        9.0776       9.077186       0.15603
  35     3.853        0.0005        0.0000        9.0629        9.0629       9.062396       0.14036
  34     5.035        0.0005        0.0000        9.0441        9.0441       9.043657       0.13386
  33     6.613        0.0005        0.0000        9.0191        9.0191       9.018655       0.13366
  32     8.786        0.0005        0.0000        8.9843        8.9843       8.983872       0.13509
  31     11.80        0.0004        0.0000        8.9327        8.9327       8.932255       0.14451
  30     15.07        0.0004        0.0000        8.8758        8.8759       8.875411       0.14676
  29     18.79        0.0004        0.0000        8.8110        8.8110       8.810583       0.14698
  28     23.16        0.0004        0.0000        8.7365        8.7366       8.736138       0.14395
  27     28.12        0.0004        0.0000        8.6554        8.6555       8.655025       0.13789
  26     33.73        0.0004        0.0000        8.5719        8.5719       8.571526       0.12554
  25     40.54        0.0004        0.0001        8.4812        8.4812       8.480802       0.11255
  24     48.69        0.0004        0.0001        8.3838        8.3839       8.383501       0.10069
  23     57.69        0.0004        0.0001        8.2861        8.2862       8.285766       0.09161
  22     68.43        0.0004        0.0001        8.1751        8.1751       8.174769       0.08726
  21     81.20        0.0004        0.0001        8.0457        8.0458       8.045411       0.08548
  20     96.49        0.0003        0.0001        7.8949        7.8950       7.894708       0.08318
  19     114.6        0.0003        0.0001        7.7162        7.7163       7.715998       0.08344
  18     136.5        0.0003        0.0002        7.5193        7.5194       7.519154       0.07569
  17     162.9        0.0003        0.0002        7.2913        7.2915       7.291263       0.07284
  16     196.4        0.0002        0.0002        6.9660        6.9662       6.965991       0.08187
  15     218.7        0.0002        0.0002        6.6648        6.6650       6.664802       0.11435
  14     243.0        0.0002        0.0002        6.2619        6.2622       6.262008       0.13970
  13     269.0        0.0002        0.0003        5.7576        5.7579       5.757708       0.16359
  12     297.5        0.0001        0.0003        5.1719        5.1722       5.172018       0.17371
  11     328.5        0.0001        0.0002        4.5757        4.5760       4.575859       0.16209
  10     361.9        0.0001        0.0002        3.9995        3.9998       3.999684       0.14578
   9     398.1        0.0001        0.0002        3.4655        3.4657       3.465628       0.12442
   8     437.6        0.0001        0.0002        2.9740        2.9742       2.974182       0.10507
   7     480.5        0.0001        0.0002        2.5307        2.5309       2.530811       0.08708
   6     533.0        0.0000        0.0002        2.0614        2.0616       2.061519       0.07549
   5     589.8        0.0000        0.0002        1.6150        1.6151       1.615096       0.06626
   4     651.6        0.0000        0.0001        1.1565        1.1566       1.156563       0.06271
   3     718.7        0.0000        0.0001        0.7390        0.7391       0.739090       0.05246
   2     792.3        0.0000        0.0001        0.3985        0.3985       0.398509       0.03906
   1     891.5        0.0000        0.0000        0.1139        0.1139       0.113928       0.02422
   0    1013.0        0.0002        0.0000        0.0094        0.0094       0.009181       0.00727



 Wavenumbers:  4000. -  4650. cm-1, ATM      1
 LEVEL PRESSURE   UPWARD FLUX   DIFDOWN FLUX  DIRDOWN FLUX  DOWNWARD FLUX   NET FLUX    HEATING RATE
          mb          W/m2          W/m2          W/m2        W/m2          W/m2       degree/day
  51    .06700        0.4478        0.0000       10.7795       10.7795      10.331787       0.00000
  50    .07753        0.4478        0.0000       10.7795       10.7795      10.331786       0.00080
  49    .09103        0.4478        0.0000       10.7795       10.7795      10.331785       0.00078
  48    0.1069        0.4478        0.0000       10.7795       10.7795      10.331783       0.00076
  47    0.1255        0.4478        0.0000       10.7795       10.7795      10.331782       0.00075
  46    0.1487        0.4478        0.0000       10.7795       10.7795      10.331780       0.00076
  45    0.1794        0.4478        0.0000       10.7795       10.7795      10.331777       0.00078
  44    0.2165        0.4478        0.0000       10.7795       10.7795      10.331773       0.00076
  43    0.2613        0.4478        0.0000       10.7795       10.7795      10.331769       0.00075
  42    0.3336        0.4478        0.0000       10.7795       10.7795      10.331763       0.00077
  41    0.4307        0.4478        0.0000       10.7795       10.7795      10.331754       0.00077
  40    0.5894        0.4478        0.0000       10.7795       10.7795      10.331739       0.00080
  39     1.339        0.4478        0.0000       10.7794       10.7794      10.331650       0.00101
  38     1.782        0.4477        0.0000       10.7793       10.7793      10.331580       0.00133
  37     2.292        0.4477        0.0000       10.7792       10.7792      10.331486       0.00156
  36     2.964        0.4477        0.0000       10.7791       10.7791      10.331346       0.00176
  35     3.853        0.4477        0.0000       10.7789       10.7789      10.331138       0.00197
  34     5.035        0.4477        0.0000       10.7786       10.7786      10.330831       0.00219
  33     6.613        0.4477        0.0000       10.7781       10.7781      10.330380       0.00241
  32     8.786        0.4477        0.0000       10.7774       10.7774      10.329714       0.00259
  31     11.80        0.4477        0.0000       10.7763       10.7764      10.328668       0.00293
  30     15.07        0.4477        0.0001       10.7751       10.7751      10.327442       0.00317
  29     18.79        0.4477        0.0001       10.7736       10.7737      10.325960       0.00336
  28     23.16        0.4477        0.0001       10.7717       10.7718      10.324120       0.00356
  27     28.12        0.4477        0.0001       10.7695       10.7696      10.321895       0.00378
  26     33.73        0.4476        0.0001       10.7667       10.7668      10.319153       0.00412
  25     40.54        0.4476        0.0001       10.7629       10.7631      10.315437       0.00461
  24     48.69        0.4476        0.0002       10.7579       10.7581      10.310491       0.00512
  23     57.69        0.4476        0.0002       10.7520       10.7522      10.304635       0.00549
  22     68.43        0.4475        0.0002       10.7446       10.7448      10.297305       0.00576
  21     81.20        0.4475        0.0003       10.7355       10.7358      10.288294       0.00595
  20     96.49        0.4475        0.0003       10.7245       10.7248      10.277351       0.00604
  19     114.6        0.4474        0.0004       10.7107       10.7111      10.263701       0.00637
  18     136.5        0.4474        0.0005       10.6942       10.6947      10.247299       0.00631
  17     162.9        0.4473        0.0006       10.6740       10.6746      10.227262       0.00640
  16     196.4        0.4473        0.0007       10.6464       10.6471      10.199763       0.00692
  15     218.7        0.4473        0.0008       10.6255       10.6262      10.178945       0.00790
  14     243.0        0.4473        0.0009       10.5980       10.5989      10.151606       0.00948
  13     269.0        0.4474        0.0010       10.5611       10.5620      10.114674       0.01198
  12     297.5        0.4475        0.0011       10.5119       10.5130      10.065499       0.01458
  11     328.5        0.4477        0.0012       10.4499       10.4510      10.003334       0.01690
  10     361.9        0.4480        0.0013       10.3702       10.3714       9.923462       0.02021
   9     398.1        0.4484        0.0014       10.2678       10.2692       9.820804       0.02392
   8     437.6        0.4488        0.0015       10.1390       10.1405       9.691651       0.02761
   7     480.5        0.4495        0.0016        9.9877        9.9893       9.539858       0.02981
   6     533.0        0.4504        0.0018        9.7937        9.7954       9.345025       0.03134
   5     589.8        0.4518        0.0019        9.5752        9.5771       9.125279       0.03262
   4     651.6        0.4539        0.0021        9.2958        9.2978       8.843904       0.03848
   3     718.7        0.4574        0.0022        8.9267        8.9289       8.471544       0.04680
   2     792.3        0.4631        0.0023        8.4542        8.4565       7.993422       0.05484
   1     891.5        0.4764        0.0024        7.7948        7.7972       7.320817       0.05724
   0    1013.0        0.5075        0.0025        7.0767        7.0791       6.571598       0.05202



 Wavenumbers:  4650. -  5150. cm-1, ATM      1
 LEVEL PRESSURE   UPWARD FLUX   DIFDOWN FLUX  DIRDOWN FLUX  DOWNWARD FLUX   NET FLUX    HEATING RATE
          mb          W/m2          W/m2          W/m2        W/m2          W/m2       degree/day
  51    .06700        0.0834        0.0000       10.2033       10.2033      10.119924       0.00000
  50    .07753        0.0834        0.0000       10.2031       10.2031      10.119688       0.18901
  49    .09103        0.0834        0.0000       10.2028       10.2028      10.119393       0.18428
  48    0.1069        0.0834        0.0000       10.2025       10.2025      10.119056       0.17931
  47    0.1255        0.0834        0.0000       10.2021       10.2021      10.118672       0.17426
  46    0.1487        0.0834        0.0000       10.2016       10.2016      10.118191       0.17536
  45    0.1794        0.0834        0.0000       10.2010       10.2010      10.117541       0.17850
  44    0.2165        0.0834        0.0000       10.2002       10.2002      10.116781       0.17277
  43    0.2613        0.0834        0.0000       10.1993       10.1993      10.115896       0.16690
  42    0.3336        0.0834        0.0000       10.1979       10.1979      10.114463       0.16702
  41    0.4307        0.0834        0.0000       10.1960       10.1960      10.112623       0.16002
  40    0.5894        0.0834        0.0000       10.1932       10.1932      10.109749       0.15283
  39     1.339        0.0834        0.0000       10.1816       10.1816      10.098158       0.13050
  38     1.782        0.0834        0.0000       10.1760       10.1760      10.092629       0.10525
  37     2.292        0.0834        0.0000       10.1706       10.1706      10.087173       0.09036
  36     2.964        0.0834        0.0000       10.1646       10.1647      10.081251       0.07434
  35     3.853        0.0834        0.0000       10.1584       10.1584      10.075038       0.05896
  34     5.035        0.0834        0.0000       10.1521       10.1521      10.068705       0.04524
  33     6.613        0.0834        0.0000       10.1456       10.1456      10.062251       0.03450
  32     8.786        0.0834        0.0000       10.1386       10.1386      10.055246       0.02720
  31     11.80        0.0834        0.0001       10.1295       10.1296      10.046216       0.02528
  30     15.07        0.0833        0.0001       10.1196       10.1197      10.036351       0.02547
  29     18.79        0.0833        0.0001       10.1076       10.1077      10.024362       0.02718
  28     23.16        0.0833        0.0001       10.0923       10.0924      10.009084       0.02954
  27     28.12        0.0833        0.0002       10.0731       10.0733       9.990024       0.03240
  26     33.73        0.0832        0.0002       10.0500       10.0502       9.966975       0.03465
  25     40.54        0.0832        0.0002       10.0201       10.0203       9.937135       0.03702
  24     48.69        0.0832        0.0003        9.9820        9.9822       9.899051       0.03941
  23     57.69        0.0831        0.0003        9.9384        9.9388       9.855623       0.04071
  22     68.43        0.0831        0.0004        9.8858        9.8861       9.803041       0.04134
  21     81.20        0.0830        0.0004        9.8234        9.8239       9.740856       0.04109
  20     96.49        0.0830        0.0005        9.7518        9.7523       9.669318       0.03948
  19     114.6        0.0829        0.0006        9.6719        9.6725       9.589645       0.03720
  18     136.5        0.0828        0.0007        9.5858        9.5865       9.503720       0.03304
  17     162.9        0.0827        0.0008        9.4940        9.4949       9.412193       0.02926
  16     196.4        0.0826        0.0010        9.3883        9.3893       9.306711       0.02655
  15     218.7        0.0825        0.0011        9.3229        9.3240       9.241533       0.02475
  14     243.0        0.0824        0.0012        9.2520        9.2532       9.170778       0.02454
  13     269.0        0.0823        0.0013        9.1717        9.1730       9.090651       0.02599
  12     297.5        0.0823        0.0015        9.0763        9.0777       8.995452       0.02823
  11     328.5        0.0823        0.0016        8.9650        8.9666       8.884317       0.03022
  10     361.9        0.0822        0.0017        8.8349        8.8367       8.754425       0.03286
   9     398.1        0.0822        0.0019        8.6820        8.6839       8.601664       0.03559
   8     437.6        0.0823        0.0020        8.5028        8.5048       8.422550       0.03830
   7     480.5        0.0824        0.0022        8.2948        8.2970       8.214611       0.04084
   6     533.0        0.0826        0.0023        8.0209        8.0232       7.940652       0.04407
   5     589.8        0.0829        0.0025        7.7063        7.7088       7.625908       0.04672
   4     651.6        0.0835        0.0026        7.3412        7.3439       7.260363       0.04999
   3     718.7        0.0844        0.0027        6.9387        6.9414       6.856961       0.05070
   2     792.3        0.0860        0.0028        6.5066        6.5094       6.423435       0.04972
   1     891.5        0.0894        0.0029        5.9361        5.9390       5.849594       0.04883
   0    1013.0        0.0965        0.0030        5.3025        5.3055       5.208912       0.04449



 Wavenumbers:  5150. -  6150. cm-1, ATM      1
 LEVEL PRESSURE   UPWARD FLUX   DIFDOWN FLUX  DIRDOWN FLUX  DOWNWARD FLUX   NET FLUX    HEATING RATE
          mb          W/m2          W/m2          W/m2        W/m2          W/m2       degree/day
  51    .06700        1.0309        0.0000       25.5798       25.5798      24.548908       0.00000
  50    .07753        1.0309        0.0000       25.5798       25.5798      24.548869       0.03156
  49    .09103        1.0309        0.0000       25.5797       25.5797      24.548817       0.03204
  48    0.1069        1.0309        0.0000       25.5797       25.5797      24.548756       0.03255
  47    0.1255        1.0309        0.0000       25.5796       25.5796      24.548683       0.03305
  46    0.1487        1.0309        0.0000       25.5795       25.5795      24.548588       0.03483
  45    0.1794        1.0309        0.0000       25.5794       25.5794      24.548453       0.03707
  44    0.2165        1.0309        0.0000       25.5792       25.5792      24.548287       0.03763
  43    0.2613        1.0309        0.0000       25.5790       25.5790      24.548084       0.03821
  42    0.3336        1.0309        0.0000       25.5786       25.5786      24.547738       0.04037
  41    0.4307        1.0309        0.0000       25.5782       25.5782      24.547268       0.04091
  40    0.5894        1.0309        0.0000       25.5774       25.5774      24.546479       0.04192
  39     1.339        1.0309        0.0000       25.5735       25.5736      24.542682       0.04275
  38     1.782        1.0309        0.0000       25.5713       25.5713      24.540473       0.04207
  37     2.292        1.0309        0.0001       25.5688       25.5688      24.537972       0.04141
  36     2.964        1.0308        0.0001       25.5656       25.5656      24.534797       0.03986
  35     3.853        1.0308        0.0001       25.5615       25.5616      24.530762       0.03829
  34     5.035        1.0308        0.0001       25.5562       25.5564      24.525568       0.03710
  33     6.613        1.0308        0.0002       25.5494       25.5496      24.518833       0.03601
  32     8.786        1.0307        0.0002       25.5406       25.5408      24.510108       0.03388
  31     11.80        1.0306        0.0003       25.5287       25.5290      24.498314       0.03302
  30     15.07        1.0306        0.0004       25.5167       25.5171      24.486495       0.03051
  29     18.79        1.0305        0.0005       25.5042       25.5046      24.474148       0.02800
  28     23.16        1.0304        0.0006       25.4907       25.4913      24.460858       0.02570
  27     28.12        1.0303        0.0007       25.4764       25.4772      24.446858       0.02380
  26     33.73        1.0302        0.0009       25.4620       25.4629      24.432691       0.02130
  25     40.54        1.0300        0.0010       25.4463       25.4473      24.417231       0.01918
  24     48.69        1.0299        0.0012       25.4294       25.4306      24.400719       0.01709
  23     57.69        1.0297        0.0015       25.4126       25.4141      24.384367       0.01533
  22     68.43        1.0295        0.0017       25.3944       25.3962      24.366659       0.01392
  21     81.20        1.0293        0.0021       25.3744       25.3765      24.347219       0.01285
  20     96.49        1.0290        0.0024       25.3519       25.3544      24.325415       0.01203
  19     114.6        1.0286        0.0029       25.3262       25.3291      24.300447       0.01166
  18     136.5        1.0282        0.0034       25.2962       25.2996      24.271418       0.01116
  17     162.9        1.0277        0.0041       25.2521       25.2562      24.228444       0.01374
  16     196.4        1.0271        0.0049       25.1593       25.1642      24.137077       0.02300
  15     218.7        1.0267        0.0054       25.0159       25.0214      23.994628       0.05408
  14     243.0        1.0263        0.0060       24.7089       24.7149      23.688554       0.10616
  13     269.0        1.0259        0.0065       24.1619       24.1683      23.142411       0.17717
  12     297.5        1.0255        0.0070       23.4544       23.4614      22.435824       0.20957
  11     328.5        1.0252        0.0075       22.7355       22.7429      21.717779       0.19523
  10     361.9        1.0248        0.0080       21.9224       21.9304      20.905567       0.20550
   9     398.1        1.0245        0.0084       20.9939       21.0023      19.977795       0.21615
   8     437.6        1.0243        0.0088       19.9833       19.9922      18.967824       0.21594
   7     480.5        1.0242        0.0092       18.9483       18.9575      17.933258       0.20318
   6     533.0        1.0244        0.0096       17.7796       17.7892      16.764842       0.18796
   5     589.8        1.0249        0.0100       16.6726       16.6826      15.657675       0.16434
   4     651.6        1.0263        0.0104       15.6343       15.6447      14.618359       0.14213
   3     718.7        1.0292        0.0108       14.7738       14.7846      13.755363       0.10845
   2     792.3        1.0351        0.0113       14.0291       14.0404      13.005343       0.08602
   1     891.5        1.0509        0.0120       13.0822       13.0942      12.043299       0.08187
   0    1013.0        1.0963        0.0126       12.0384       12.0509      10.954607       0.07559



 Wavenumbers:  6150. -  7700. cm-1, ATM      1
 LEVEL PRESSURE   UPWARD FLUX   DIFDOWN FLUX  DIRDOWN FLUX  DOWNWARD FLUX   NET FLUX    HEATING RATE
          mb          W/m2          W/m2          W/m2        W/m2          W/m2       degree/day
  51    .06700        2.1733        0.0000       47.3109       47.3109      45.137521       0.00000
  50    .07753        2.1733        0.0000       47.3108       47.3108      45.137464       0.04553
  49    .09103        2.1733        0.0000       47.3107       47.3107      45.137391       0.04583
  48    0.1069        2.1733        0.0000       47.3106       47.3106      45.137304       0.04614
  47    0.1255        2.1733        0.0000       47.3105       47.3105      45.137202       0.04645
  46    0.1487        2.1733        0.0000       47.3104       47.3104      45.137069       0.04852
  45    0.1794        2.1733        0.0000       47.3102       47.3102      45.136882       0.05127
  44    0.2165        2.1733        0.0000       47.3100       47.3100      45.136655       0.05167
  43    0.2613        2.1733        0.0000       47.3097       47.3097      45.136378       0.05210
  42    0.3336        2.1733        0.0000       47.3092       47.3092      45.135909       0.05471
  41    0.4307        2.1733        0.0000       47.3085       47.3086      45.135274       0.05521
  40    0.5894        2.1733        0.0001       47.3074       47.3075      45.134215       0.05633
  39     1.339        2.1732        0.0001       47.3022       47.3023      45.129123       0.05733
  38     1.782        2.1732        0.0002       47.2991       47.2993      45.126153       0.05655
  37     2.292        2.1731        0.0002       47.2956       47.2959      45.122777       0.05591
  36     2.964        2.1730        0.0003       47.2912       47.2915      45.118459       0.05421
  35     3.853        2.1730        0.0004       47.2855       47.2859      45.112924       0.05252
  34     5.035        2.1728        0.0005       47.2780       47.2786      45.105744       0.05129
  33     6.613        2.1727        0.0007       47.2683       47.2690      45.096356       0.05019
  32     8.786        2.1725        0.0009       47.2556       47.2565      45.084057       0.04776
  31     11.80        2.1722        0.0013       47.2380       47.2393      45.067154       0.04732
  30     15.07        2.1718        0.0016       47.2201       47.2217      45.049868       0.04463
  29     18.79        2.1714        0.0020       47.2008       47.2028      45.031389       0.04190
  28     23.16        2.1710        0.0025       47.1795       47.1820      45.011001       0.03943
  27     28.12        2.1705        0.0030       47.1565       47.1595      44.989009       0.03738
  26     33.73        2.1699        0.0036       47.1324       47.1360      44.966090       0.03446
  25     40.54        2.1693        0.0044       47.1054       47.1097      44.940458       0.03180
  24     48.69        2.1685        0.0052       47.0754       47.0807      44.912210       0.02923
  23     57.69        2.1676        0.0062       47.0449       47.0511      44.883595       0.02682
  22     68.43        2.1665        0.0073       47.0110       47.0183      44.851866       0.02494
  21     81.20        2.1652        0.0087       46.9729       46.9816      44.816385       0.02345
  20     96.49        2.1637        0.0103       46.9294       46.9397      44.776061       0.02226
  19     114.6        2.1618        0.0123       46.8790       46.8913      44.729454       0.02176
  18     136.5        2.1597        0.0146       46.8200       46.8346      44.674869       0.02099
  17     162.9        2.1571        0.0173       46.7361       46.7534      44.596317       0.02511
  16     196.4        2.1538        0.0208       46.5703       46.5911      44.437298       0.04003
  15     218.7        2.1516        0.0231       46.3473       46.3704      44.218760       0.08297
  14     243.0        2.1493        0.0255       45.9299       45.9553      43.805972       0.14317
  13     269.0        2.1470        0.0278       45.1708       45.1986      43.051599       0.24472
  12     297.5        2.1445        0.0300       44.0115       44.0415      41.896925       0.34246
  11     328.5        2.1421        0.0322       42.7242       42.7565      40.614335       0.34873
  10     361.9        2.1397        0.0344       41.3539       41.3884      39.248661       0.34553
   9     398.1        2.1375        0.0366       39.7953       39.8318      37.694367       0.36212
   8     437.6        2.1355        0.0385       37.9948       38.0332      35.897756       0.38413
   7     480.5        2.1339        0.0402       36.0647       36.1049      33.970983       0.37841
   6     533.0        2.1330        0.0419       33.7773       33.8192      31.686187       0.36755
   5     589.8        2.1338        0.0433       31.4082       31.4515      29.317681       0.35156
   4     651.6        2.1382        0.0441       28.8834       28.9275      26.789291       0.34576
   3     718.7        2.1489        0.0448       26.4104       26.4551      24.306183       0.31206
   2     792.3        2.1715        0.0451       24.0056       24.0507      21.879146       0.27835
   1     891.5        2.2325        0.0452       21.2348       21.2800      19.047490       0.24096
   0    1013.0        2.4000        0.0454       18.6150       18.6605      16.260457       0.19352



 Wavenumbers:  7700. -  8050. cm-1, ATM      1
 LEVEL PRESSURE   UPWARD FLUX   DIFDOWN FLUX  DIRDOWN FLUX  DOWNWARD FLUX   NET FLUX    HEATING RATE
          mb          W/m2          W/m2          W/m2        W/m2          W/m2       degree/day
  51    .06700        4.0274        0.0000       11.1810       11.1810       7.153534       0.00000
  50    .07753        4.0274        0.0000       11.1809       11.1809       7.153513       0.01634
  49    .09103        4.0274        0.0000       11.1809       11.1809       7.153488       0.01601
  48    0.1069        4.0274        0.0000       11.1809       11.1809       7.153458       0.01568
  47    0.1255        4.0274        0.0000       11.1809       11.1809       7.153424       0.01534
  46    0.1487        4.0274        0.0000       11.1808       11.1808       7.153382       0.01556
  45    0.1794        4.0275        0.0000       11.1808       11.1808       7.153323       0.01602
  44    0.2165        4.0275        0.0000       11.1807       11.1807       7.153254       0.01571
  43    0.2613        4.0275        0.0000       11.1806       11.1806       7.153172       0.01542
  42    0.3336        4.0275        0.0000       11.1805       11.1805       7.153037       0.01577
  41    0.4307        4.0275        0.0000       11.1803       11.1804       7.152858       0.01560
  40    0.5894        4.0275        0.0000       11.1801       11.1801       7.152565       0.01558
  39     1.339        4.0277        0.0001       11.1788       11.1789       7.151178       0.01561
  38     1.782        4.0278        0.0001       11.1781       11.1782       7.150364       0.01550
  37     2.292        4.0279        0.0001       11.1772       11.1773       7.149421       0.01561
  36     2.964        4.0280        0.0001       11.1761       11.1762       7.148184       0.01554
  35     3.853        4.0282        0.0002       11.1746       11.1748       7.146549       0.01551
  34     5.035        4.0285        0.0003       11.1726       11.1729       7.144378       0.01551
  33     6.613        4.0288        0.0003       11.1700       11.1703       7.141478       0.01550
  32     8.786        4.0293        0.0004       11.1664       11.1668       7.137572       0.01517
  31     11.80        4.0299        0.0006       11.1613       11.1619       7.131989       0.01563
  30     15.07        4.0306        0.0008       11.1558       11.1566       7.126002       0.01546
  29     18.79        4.0314        0.0009       11.1497       11.1506       7.119246       0.01532
  28     23.16        4.0323        0.0012       11.1425       11.1437       7.111369       0.01523
  27     28.12        4.0334        0.0014       11.1343       11.1357       7.102378       0.01528
  26     33.73        4.0345        0.0017       11.1252       11.1269       7.092340       0.01509
  25     40.54        4.0360        0.0020       11.1142       11.1162       7.080246       0.01500
  24     48.69        4.0377        0.0024       11.1010       11.1035       7.065716       0.01504
  23     57.69        4.0397        0.0029       11.0866       11.0895       7.049822       0.01490
  22     68.43        4.0420        0.0034       11.0695       11.0730       7.030982       0.01481
  21     81.20        4.0448        0.0041       11.0494       11.0534       7.008665       0.01475
  20     96.49        4.0481        0.0048       11.0255       11.0304       6.982254       0.01458
  19     114.6        4.0521        0.0057       10.9975       11.0033       6.951150       0.01452
  18     136.5        4.0569        0.0068       10.9648       10.9715       6.914629       0.01404
  17     162.9        4.0627        0.0080       10.9263       10.9343       6.871610       0.01375
  16     196.4        4.0704        0.0097       10.8773       10.8869       6.816540       0.01386
  15     218.7        4.0755        0.0107       10.8455       10.8563       6.780764       0.01358
  14     243.0        4.0812        0.0119       10.8114       10.8234       6.742167       0.01339
  13     269.0        4.0874        0.0132       10.7749       10.7880       6.700606       0.01348
  12     297.5        4.0943        0.0145       10.7357       10.7502       6.655881       0.01327
  11     328.5        4.1020        0.0160       10.6937       10.7097       6.607713       0.01310
  10     361.9        4.1105        0.0176       10.6489       10.6664       6.555906       0.01311
   9     398.1        4.1200        0.0193       10.6008       10.6200       6.500016       0.01302
   8     437.6        4.1306        0.0211       10.5491       10.5701       6.439491       0.01294
   7     480.5        4.1426        0.0230       10.4934       10.5164       6.373818       0.01290
   6     533.0        4.1583        0.0254       10.4243       10.4497       6.291402       0.01326
   5     589.8        4.1766        0.0279       10.3479       10.3758       6.199275       0.01367
   4     651.6        4.1986        0.0307       10.2613       10.2920       6.093441       0.01447
   3     718.7        4.2256        0.0336       10.1618       10.1953       5.969703       0.01555
   2     792.3        4.2600        0.0367       10.0439       10.0805       5.820505       0.01711
   1     891.5        4.3181        0.0407        9.8626        9.9033       5.585224       0.02002
   0    1013.0        4.4100        0.0453        9.6103        9.6556       5.245576       0.02358



 Wavenumbers:  8050. - 12850. cm-1, ATM      1
 LEVEL PRESSURE   UPWARD FLUX   DIFDOWN FLUX  DIRDOWN FLUX  DOWNWARD FLUX   NET FLUX    HEATING RATE
          mb          W/m2          W/m2          W/m2        W/m2          W/m2       degree/day
  51    .06700       83.8565        0.0000      156.5418      156.5418      72.685242       0.00000
  50    .07753       83.8565        0.0000      156.5417      156.5417      72.685242       0.00000
  49    .09103       83.8565        0.0001      156.5417      156.5417      72.685242      -0.00000
  48    0.1069       83.8565        0.0001      156.5416      156.5417      72.685242      -0.00000
  47    0.1255       83.8564        0.0002      156.5415      156.5417      72.685242      -0.00000
  46    0.1487       83.8564        0.0002      156.5414      156.5417      72.685242       0.00000
  45    0.1794       83.8564        0.0003      156.5413      156.5416      72.685242       0.00000
  44    0.2165       83.8563        0.0004      156.5412      156.5416      72.685242      -0.00000
  43    0.2613       83.8563        0.0005      156.5410      156.5415      72.685242       0.00000
  42    0.3336       83.8562        0.0007      156.5407      156.5414      72.685242       0.00000
  41    0.4307       83.8561        0.0010      156.5403      156.5413      72.685242      -0.00000
  40    0.5894       83.8559        0.0014      156.5397      156.5411      72.685242       0.00000
  39     1.339       83.8550        0.0035      156.5367      156.5402      72.685242      -0.00000
  38     1.782       83.8545        0.0047      156.5350      156.5397      72.685242      -0.00000
  37     2.292       83.8538        0.0061      156.5330      156.5391      72.685242       0.00000
  36     2.964       83.8530        0.0080      156.5303      156.5383      72.685242       0.00000
  35     3.853       83.8520        0.0104      156.5268      156.5372      72.685242       0.00000
  34     5.035       83.8506        0.0136      156.5222      156.5358      72.685242      -0.00000
  33     6.613       83.8487        0.0179      156.5160      156.5339      72.685242      -0.00000
  32     8.786       83.8462        0.0238      156.5076      156.5314      72.685242       0.00000
  31     11.80       83.8425        0.0321      156.4957      156.5278      72.685242       0.00000
  30     15.07       83.8386        0.0411      156.4828      156.5239      72.685242       0.00000
  29     18.79       83.8342        0.0512      156.4682      156.5194      72.685242       0.00000
  28     23.16       83.8290        0.0631      156.4512      156.5143      72.685242      -0.00000
  27     28.12       83.8231        0.0767      156.4317      156.5084      72.685242      -0.00000
  26     33.73       83.8165        0.0919      156.4099      156.5017      72.685242       0.00000
  25     40.54       83.8085        0.1103      156.3834      156.4937      72.685242       0.00000
  24     48.69       83.7988        0.1325      156.3515      156.4840      72.685242      -0.00000
  23     57.69       83.7881        0.1570      156.3164      156.4734      72.685242       0.00000
  22     68.43       83.7754        0.1861      156.2746      156.4607      72.685242       0.00000
  21     81.20       83.7603        0.2209      156.2246      156.4455      72.685242      -0.00000
  20     96.49       83.7422        0.2625      156.1649      156.4274      72.685242       0.00000
  19     114.6       83.7208        0.3119      156.0879      156.3998      72.679050       0.00289
  18     136.5       83.6954        0.3706      155.9962      156.3667      72.671367       0.00295
  17     162.9       83.6650        0.4406      155.8831      156.3237      72.658609       0.00408
  16     196.4       83.6257        0.5317      155.7199      156.2516      72.625881       0.00824
  15     218.7       83.6000        0.5916      155.5733      156.1649      72.564851       0.02317
  14     243.0       83.5724        0.6566      155.3367      155.9933      72.420871       0.04994
  13     269.0       83.5436        0.7270      154.9514      155.6784      72.134867       0.09278
  12     297.5       83.5144        0.8028      154.3896      155.1924      71.678020       0.13550
  11     328.5       83.4854        0.8844      153.7151      154.5995      71.114155       0.15331
  10     361.9       83.4579        0.9720      152.9087      153.8808      70.422865       0.17490
   9     398.1       83.4342        1.0657      151.8986      152.9643      69.530152       0.20798
   8     437.6       83.4180        1.1654      150.6031      151.7685      68.350504       0.25222
   7     480.5       83.4139        1.2706      149.0014      150.2720      66.858144       0.29309
   6     533.0       83.4337        1.3979      146.7375      148.1354      64.701709       0.34690
   5     589.8       83.5007        1.5311      143.8730      145.4041      61.903412       0.41536
   4     651.6       83.6677        1.6677      140.0955      141.7632      58.095434       0.52075
   3     718.7       84.0033        1.8062      135.5278      137.3340      53.330669       0.59880
   2     792.3       84.6579        1.9435      130.0690      132.0125      47.354600       0.68539
   1     891.5       86.3267        2.1095      122.1273      124.2368      37.910138       0.80368
   0    1013.0       90.4121        2.2877      112.9512      115.2389      24.826781       0.90844



 Wavenumbers: 12850. - 16000. cm-1, ATM      1
 LEVEL PRESSURE   UPWARD FLUX   DIFDOWN FLUX  DIRDOWN FLUX  DOWNWARD FLUX   NET FLUX    HEATING RATE
          mb          W/m2          W/m2          W/m2        W/m2          W/m2       degree/day
  51    .06700       77.7823        0.0000       98.0872       98.0872      20.304947       0.00000
  50    .07753       77.7823        0.0001       98.0864       98.0864      20.304156       0.63420
  49    .09103       77.7823        0.0002       98.0853       98.0854      20.303162       0.62109
  48    0.1069       77.7823        0.0003       98.0841       98.0843      20.302020       0.60771
  47    0.1255       77.7823        0.0004       98.0826       98.0830      20.300709       0.59463
  46    0.1487       77.7823        0.0005       98.0809       98.0814      20.299053       0.60334
  45    0.1794       77.7824        0.0007       98.0784       98.0792      20.296802       0.61809
  44    0.2165       77.7824        0.0010       98.0756       98.0766      20.294154       0.60242
  43    0.2613       77.7825        0.0012       98.0723       98.0736      20.291040       0.58697
  42    0.3336       77.7828        0.0017       98.0670       98.0687      20.285958       0.59247
  41    0.4307       77.7831        0.0023       98.0602       98.0625      20.279388       0.57127
  40    0.5894       77.7839        0.0033       98.0496       98.0529      20.269037       0.55042
  39     1.339       77.7903        0.0081       98.0043       98.0125      20.222187       0.52745
  38     1.782       77.7961        0.0109       97.9793       97.9902      20.194094       0.53485
  37     2.292       77.8048        0.0142       97.9498       97.9639      20.159127       0.57915
  36     2.964       77.8192        0.0184       97.9088       97.9272      20.108008       0.64170
  35     3.853       77.8425        0.0240       97.8503       97.8744      20.031909       0.72219
  34     5.035       77.8775        0.0315       97.7680       97.7995      19.922012       0.78506
  33     6.613       77.9263        0.0415       97.6562       97.6976      19.771297       0.80572
  32     8.786       77.9900        0.0549       97.5107       97.5655      19.575556       0.76018
  31     11.80       78.0728        0.0740       97.3179       97.3919      19.319064       0.71810
  30     15.07       78.1522        0.0946       97.1283       97.2229      19.070691       0.64125
  29     18.79       78.2334        0.1178       96.9300       97.0478      18.814482       0.58090
  28     23.16       78.3182        0.1449       96.7166       96.8615      18.543281       0.52442
  27     28.12       78.4036        0.1759       96.4935       96.6693      18.265711       0.47185
  26     33.73       78.4827        0.2105       96.2731       96.4836      18.000884       0.39817
  25     40.54       78.5591        0.2524       96.0408       96.2931      17.734055       0.33103
  24     48.69       78.6325        0.3028       95.7946       96.0974      17.464876       0.27856
  23     57.69       78.6951        0.3583       95.5573       95.9155      17.220416       0.22914
  22     68.43       78.7501        0.4243       95.3106       95.7349      16.984831       0.18520
  21     81.20       78.7888        0.5031       95.0643       95.5675      16.778696       0.13621
  20     96.49       78.8101        0.5972       94.8153       95.4124      16.602385       0.09731
  19     114.6       78.8368        0.7100       94.5411       95.2511      16.414302       0.08782
  18     136.5       78.8571        0.8438       94.2320       95.0758      16.218782       0.07518
  17     162.9       78.8707        1.0031       93.8753       94.8784      16.007713       0.06747
  16     196.4       78.8662        1.2097       93.4347       94.6443      15.778177       0.05778
  15     218.7       78.8551        1.3453       93.1513       94.4966      15.641461       0.05191
  14     243.0       78.8397        1.4928       92.8439       94.3367      15.497025       0.05010
  13     269.0       78.8197        1.6526       92.5111       94.1637      15.344024       0.04963
  12     297.5       78.7955        1.8253       92.1495       93.9748      15.179248       0.04887
  11     328.5       78.7691        2.0119       91.7554       93.7673      14.998203       0.04923
  10     361.9       78.7411        2.2128       91.3262       93.5390      14.797904       0.05068
   9     398.1       78.7128        2.4290       90.8575       93.2865      14.573761       0.05222
   8     437.6       78.6866        2.6611       90.3418       93.0029      14.316279       0.05505
   7     480.5       78.6650        2.9097       89.7728       92.6825      14.017521       0.05868
   6     533.0       78.6514        3.2155       89.0428       92.2583      13.606995       0.06604
   5     589.8       78.6612        3.5443       88.2038       91.7481      13.086854       0.07721
   4     651.6       78.7229        3.8958       87.1979       91.0937      12.370838       0.09792
   3     718.7       78.8547        4.2683       86.0161       90.2845      11.429813       0.11826
   2     792.3       79.1162        4.6582       84.5970       89.2552      10.138976       0.14804
   1     891.5       79.7548        5.1657       82.4374       87.6031       7.848305       0.19493
   0    1013.0       81.0935        5.7487       79.6182       85.3669       4.273373       0.24823



 Wavenumbers: 16000. - 22650. cm-1, ATM      1
 LEVEL PRESSURE   UPWARD FLUX   DIFDOWN FLUX  DIRDOWN FLUX  DOWNWARD FLUX   NET FLUX    HEATING RATE
          mb          W/m2          W/m2          W/m2        W/m2          W/m2       degree/day
  51    .06700      139.4987        0.0000      156.3892      156.3892      16.890559       0.00000
  50    .07753      139.4987        0.0004      156.3887      156.3891      16.890412       0.11763
  49    .09103      139.4986        0.0009      156.3879      156.3888      16.890199       0.13342
  48    0.1069      139.4986        0.0015      156.3871      156.3885      16.889913       0.15214
  47    0.1255      139.4986        0.0021      156.3861      156.3882      16.889530       0.17342
  46    0.1487      139.4987        0.0029      156.3847      156.3877      16.888967       0.20550
  45    0.1794      139.4988        0.0041      156.3828      156.3869      16.888085       0.24196
  44    0.2165      139.4990        0.0054      156.3805      156.3859      16.886890       0.27194
  43    0.2613      139.4993        0.0070      156.3776      156.3846      16.885268       0.30572
  42    0.3336      139.5001        0.0096      156.3726      156.3823      16.882184       0.35952
  41    0.4307      139.5013        0.0131      156.3657      156.3788      16.877536       0.40414
  40    0.5894      139.5038        0.0188      156.3537      156.3725      16.868671       0.47141
  39     1.339      139.5259        0.0457      156.2834      156.3291      16.803178       0.73734
  38     1.782      139.5464        0.0615      156.2324      156.2938      16.747386       1.06219
  37     2.292      139.5772        0.0797      156.1641      156.2438      16.666626       1.33759
  36     2.964      139.6284        0.1037      156.0605      156.1642      16.535796       1.64232
  35     3.853      139.7112        0.1354      155.9041      156.0394      16.328201       1.97011
  34     5.035      139.8362        0.1774      155.6774      155.8547      16.018489       2.21245
  33     6.613      140.0110        0.2334      155.3656      155.5990      15.588086       2.30093
  32     8.786      140.2385        0.3089      154.9577      155.2665      15.028048       2.17499
  31     11.80      140.5346        0.4167      154.4153      154.8319      14.297363       2.04569
  30     15.07      140.8181        0.5322      153.8804      154.4126      13.594491       1.81468
  29     18.79      141.1075        0.6625      153.3191      153.9816      12.874137       1.63327
  28     23.16      141.4098        0.8145      152.7126      153.5271      12.117256       1.46356
  27     28.12      141.7139        0.9880      152.0755      153.0635      11.349681       1.30483
  26     33.73      141.9943        1.1821      151.4409      152.6230      10.628724       1.08398
  25     40.54      142.2638        1.4163      150.7637      152.1799       9.916186       0.88398
  24     48.69      142.5213        1.6983      150.0338      151.7321       9.210790       0.72997
  23     57.69      142.7392        2.0077      149.3151      151.3229       8.583645       0.58785
  22     68.43      142.9285        2.3758      148.5476      150.9235       7.994944       0.46280
  21     81.20      143.0578        2.8141      147.7517      150.5658       7.507969       0.32179
  20     96.49      143.1227        3.3359      146.9127      150.2485       7.125830       0.21091
  19     114.6      143.1539        3.9535      145.9763      149.9298       6.775878       0.16340
  18     136.5      143.1600        4.6828      144.9088      149.5916       6.431627       0.13237
  17     162.9      143.1389        5.5472      143.6785      149.2257       6.086801       0.11022
  16     196.4      143.0508        6.6624      142.1651      148.8275       5.776680       0.07806
  15     218.7      142.9706        7.3912      141.2033      148.5945       5.623908       0.05800
  14     243.0      142.8732        8.1799      140.1753      148.3553       5.482025       0.04921
  13     269.0      142.7570        9.0308      139.0797      148.1105       5.353445       0.04171
  12     297.5      142.6214        9.9458      137.9141      147.8599       5.238552       0.03408
  11     328.5      142.4702       10.9294      136.6676      147.5969       5.126776       0.03039
  10     361.9      142.3031       11.9822      135.3392      147.3214       5.018262       0.02746
   9     398.1      142.1198       13.1084      133.9235      147.0319       4.912141       0.02472
   8     437.6      141.9209       14.3100      132.4163      146.7263       4.805309       0.02284
   7     480.5      141.7063       15.5891      130.8147      146.4038       4.697500       0.02117
   6     533.0      141.4420       17.1512      128.8599      146.0111       4.569160       0.02065
   5     589.8      141.1608       18.8202      126.7679      145.5881       4.427302       0.02106
   4     651.6      140.8688       20.5975      124.5274      145.1250       4.256171       0.02340
   3     718.7      140.5719       22.4850      122.1285      144.6135       4.041636       0.02696
   2     792.3      140.2862       24.4805      119.5548      144.0353       3.749132       0.03355
   1     891.5      139.9788       27.1291      116.0566      143.1857       3.206892       0.04614
   0    1013.0      139.7375       30.2408      111.8404      142.0813       2.343766       0.05993



 Wavenumbers: 22650. - 29000. cm-1, ATM      1
 LEVEL PRESSURE   UPWARD FLUX   DIFDOWN FLUX  DIRDOWN FLUX  DOWNWARD FLUX   NET FLUX    HEATING RATE
          mb          W/m2          W/m2          W/m2        W/m2          W/m2       degree/day
  51    .06700       58.4408        0.0000       59.0156       59.0156       0.574760       0.00000
  50    .07753       58.4408        0.0005       59.0151       59.0155       0.574760       0.00000
  49    .09103       58.4406        0.0010       59.0144       59.0154       0.574760       0.00000
  48    0.1069       58.4405        0.0017       59.0136       59.0153       0.574760       0.00000
  47    0.1255       58.4404        0.0025       59.0127       59.0151       0.574760      -0.00000
  46    0.1487       58.4402        0.0034       59.0115       59.0149       0.574760       0.00000
  45    0.1794       58.4399        0.0048       59.0099       59.0147       0.574760      -0.00000
  44    0.2165       58.4396        0.0063       59.0080       59.0144       0.574760       0.00000
  43    0.2613       58.4393        0.0082       59.0058       59.0140       0.574760       0.00000
  42    0.3336       58.4387        0.0113       59.0022       59.0134       0.574760      -0.00000
  41    0.4307       58.4379        0.0153       58.9973       59.0126       0.574760       0.00000
  40    0.5894       58.4366        0.0220       58.9894       59.0113       0.574760       0.00000
  39     1.339       58.4305        0.0534       58.9518       59.0052       0.574760      -0.00000
  38     1.782       58.4269        0.0719       58.9297       59.0016       0.574760       0.00000
  37     2.292       58.4227        0.0933       58.9042       58.9975       0.574760       0.00000
  36     2.964       58.4172        0.1214       58.8706       58.9920       0.574760      -0.00000
  35     3.853       58.4100        0.1584       58.8264       58.9848       0.574760       0.00000
  34     5.035       58.4005        0.2076       58.7676       58.9752       0.574760      -0.00000
  33     6.613       58.3877        0.2734       58.6891       58.9624       0.574760       0.00000
  32     8.786       58.3705        0.3618       58.5834       58.9452       0.574760      -0.00000
  31     11.80       58.3459        0.4882       58.4324       58.9206       0.574760       0.00000
  30     15.07       58.3195        0.6236       58.2706       58.8943       0.574760      -0.00000
  29     18.79       58.2898        0.7764       58.0882       58.8646       0.574760       0.00000
  28     23.16       58.2552        0.9543       57.8757       58.8300       0.574760      -0.00000
  27     28.12       58.2157        1.1571       57.6333       58.7905       0.574760       0.00000
  26     33.73       58.1717        1.3834       57.3631       58.7465       0.574760       0.00000
  25     40.54       58.1187        1.6556       57.0379       58.6935       0.574760       0.00000
  24     48.69       58.0552        1.9820       56.6479       58.6299       0.574760      -0.00000
  23     57.69       57.9858        2.3384       56.2221       58.5605       0.574760       0.00000
  22     68.43       57.9037        2.7599       55.7186       58.4784       0.574760       0.00000
  21     81.20       57.8067        3.2576       55.1239       58.3815       0.574760      -0.00000
  20     96.49       57.6924        3.8443       54.4228       58.2671       0.574760       0.00000
  19     114.6       57.5583        4.5320       53.6010       58.1330       0.574760       0.00000
  18     136.5       57.4017        5.3347       52.6418       57.9765       0.574760       0.00000
  17     162.9       57.2186        6.2730       51.5203       57.7933       0.574760      -0.00000
  16     196.4       56.9864        7.4617       50.0994       57.5611       0.574760       0.00000
  15     218.7       56.8371        8.2256       49.1863       57.4118       0.574760       0.00000
  14     243.0       56.6776        9.0411       48.2113       57.2523       0.574760       0.00000
  13     269.0       56.5079        9.9078       47.1749       57.0827       0.574760      -0.00000
  12     297.5       56.3283       10.8248       46.0783       56.9031       0.574760       0.00000
  11     328.5       56.1384       11.7936       44.9195       56.7131       0.574760       0.00000
  10     361.9       55.9386       12.8116       43.7018       56.5134       0.574760       0.00000
   9     398.1       55.7290       13.8788       42.4250       56.3038       0.574760       0.00000
   8     437.6       55.5099       14.9930       41.0916       56.0847       0.574760       0.00000
   7     480.5       55.2817       16.1520       39.7045       55.8565       0.574760       0.00000
   6     533.0       55.0099       17.5304       38.0543       55.5846       0.574760       0.00000
   5     589.8       54.7275       18.9592       36.3431       55.3023       0.574760      -0.00000
   4     651.6       54.4361       20.4313       34.5795       55.0108       0.574760       0.00000
   3     718.7       54.1364       21.9410       32.7702       54.7112       0.574760       0.00000
   2     792.3       53.8303       23.4794       30.9256       54.4050       0.574760      -0.00000
   1     891.5       53.4394       25.4364       28.5778       54.0142       0.574760       0.00000
   0    1013.0       53.0028       27.6111       25.9665       53.5776       0.574760      -0.00000



 Wavenumbers: 29000. - 38000. cm-1, ATM      1
 LEVEL PRESSURE   UPWARD FLUX   DIFDOWN FLUX  DIRDOWN FLUX  DOWNWARD FLUX   NET FLUX    HEATING RATE
          mb          W/m2          W/m2          W/m2        W/m2          W/m2       degree/day
  51    .06700        8.7258        0.0000       20.8114       20.8114      12.085569       0.00000
  50    .07753        8.7256        0.0003       20.8070       20.8074      12.081761       3.05151
  49    .09103        8.7254        0.0007       20.8009       20.8016      12.076224       3.46080
  48    0.1069        8.7251        0.0012       20.7928       20.7939      12.068815       3.94423
  47    0.1255        8.7248        0.0017       20.7820       20.7837      12.058910       4.49027
  46    0.1487        8.7245        0.0024       20.7665       20.7688      12.044347       5.30836
  45    0.1794        8.7240        0.0033       20.7424       20.7457      12.021683       6.22194
  44    0.2165        8.7235        0.0044       20.7103       20.7147      11.991160       6.94329
  43    0.2613        8.7229        0.0056       20.6675       20.6731      11.950166       7.72719
  42    0.3336        8.7220        0.0077       20.5880       20.5956      11.873607       8.92610
  41    0.4307        8.7209        0.0104       20.4722       20.4826      11.761656       9.73385
  40    0.5894        8.7194        0.0147       20.2637       20.2784      11.558976      10.77825
  39     1.339        8.7159        0.0331       19.0984       19.1315      10.415529      12.87314
  38     1.782        8.7164        0.0427       18.4394       18.4820       9.765631      12.37303
  37     2.292        8.7190        0.0529       17.7714       17.8243       9.105322      10.93643
  36     2.964        8.7255        0.0656       17.0421       17.1078       8.382255       9.07667
  35     3.853        8.7382        0.0815       16.2678       16.3494       7.611166       7.31778
  34     5.035        8.7592        0.1017       15.4803       15.5820       6.822805       5.63172
  33     6.613        8.7897        0.1274       14.7157       14.8431       6.053407       4.11320
  32     8.786        8.8300        0.1612       13.9936       14.1547       5.324699       2.83004
  31     11.80        8.8826        0.2082       13.2835       13.4917       4.609055       2.00358
  30     15.07        8.9334        0.2569       12.7394       12.9962       4.062892       1.41009
  29     18.79        8.9857        0.3109       12.2666       12.5775       3.591770       1.06818
  28     23.16        9.0414        0.3723       11.8300       12.2024       3.160980       0.83301
  27     28.12        9.0984        0.4411       11.4279       11.8690       2.770650       0.66353
  26     33.73        9.1509        0.5169       11.0695       11.5864       2.435496       0.50391
  25     40.54        9.2007        0.6075       10.7209       11.3284       2.127686       0.38187
  24     48.69        9.2477        0.7150       10.3742       11.0892       1.841496       0.29616
  23     57.69        9.2861        0.8313       10.0549       10.8862       1.600072       0.22630
  22     68.43        9.3171        0.9678        9.7327       10.7005       1.383360       0.17036
  21     81.20        9.3317        1.1289        9.4134       10.5423       1.210572       0.11418
  20     96.49        9.3279        1.3183        9.0887       10.4070       1.079054       0.07259
  19     114.6        9.3138        1.5370        8.7388       10.2758       0.961999       0.05466
  18     136.5        9.2924        1.7872        8.3549       10.1421       0.849694       0.04318
  17     162.9        9.2637        2.0723        7.9311       10.0034       0.739748       0.03514
  16     196.4        9.2157        2.4253        7.4333        9.8587       0.642989       0.02436
  15     218.7        9.1812        2.6474        7.1295        9.7770       0.595804       0.01791
  14     243.0        9.1434        2.8796        6.8161        9.6956       0.552238       0.01511
  13     269.0        9.1021        3.1209        6.4943        9.6152       0.513123       0.01269
  12     297.5        9.0574        3.3703        6.1657        9.5361       0.478647       0.01023
  11     328.5        9.0107        3.6269        5.8295        9.4564       0.445642       0.00897
  10     361.9        8.9625        3.8881        5.4886        9.3768       0.414258       0.00794
   9     398.1        8.9129        4.1534        5.1440        9.2974       0.384520       0.00693
   8     437.6        8.8624        4.4213        4.7969        9.2182       0.355857       0.00613
   7     480.5        8.8113        4.6896        4.4504        9.1399       0.328655       0.00534
   6     533.0        8.7526        4.9954        4.0563        9.0516       0.299006       0.00477
   5     589.8        8.6946        5.2968        3.6682        8.9650       0.270306       0.00426
   4     651.6        8.6383        5.5901        3.2905        8.8806       0.242235       0.00384
   3     718.7        8.5841        5.8737        2.9252        8.7989       0.214747       0.00345
   2     792.3        8.5328        6.1442        2.5764        8.7207       0.187849       0.00308
   1     891.5        8.4735        6.4622        2.1659        8.6282       0.154650       0.00283
   0    1013.0        8.4161        6.7815        1.7526        8.5341       0.118006       0.00254



 Wavenumbers: 38000. - 50000. cm-1, ATM      1
 LEVEL PRESSURE   UPWARD FLUX   DIFDOWN FLUX  DIRDOWN FLUX  DOWNWARD FLUX   NET FLUX    HEATING RATE
          mb          W/m2          W/m2          W/m2        W/m2          W/m2       degree/day
  51    .06700        0.0061        0.0000        1.2836        1.2836       1.277518       0.00000
  50    .07753        0.0061        0.0001        1.2812        1.2812       1.275183       1.87150
  49    .09103        0.0060        0.0002        1.2777        1.2778       1.271851       2.08247
  48    0.1069        0.0059        0.0002        1.2731        1.2734       1.267473       2.33059
  47    0.1255        0.0058        0.0004        1.2672        1.2675       1.261717       2.60908
  46    0.1487        0.0057        0.0005        1.2586        1.2591       1.253391       3.03499
  45    0.1794        0.0055        0.0007        1.2455        1.2462       1.240623       3.50520
  44    0.2165        0.0054        0.0009        1.2282        1.2291       1.223697       3.85037
  43    0.2613        0.0052        0.0011        1.2054        1.2065       1.201348       4.21261
  42    0.3336        0.0049        0.0015        1.1639        1.1654       1.160524       4.75970
  41    0.4307        0.0045        0.0020        1.1051        1.1070       1.102565       5.03943
  40    0.5894        0.0039        0.0026        1.0039        1.0064       1.002524       5.32007
  39     1.339        0.0022        0.0035        0.5438        0.5473       0.545104       5.14971
  38     1.782        0.0016        0.0032        0.3635        0.3666       0.365006       3.42879
  37     2.292        0.0012        0.0027        0.2356        0.2383       0.237058       2.11916
  36     2.964        0.0009        0.0022        0.1455        0.1477       0.146786       1.13318
  35     3.853        0.0006        0.0017        0.0858        0.0875       0.086906       0.56828
  34     5.035        0.0004        0.0013        0.0488        0.0501       0.049701       0.26578
  33     6.613        0.0003        0.0010        0.0273        0.0282       0.027974       0.11615
  32     8.786        0.0002        0.0007        0.0144        0.0151       0.014928       0.05067
  31     11.80        0.0001        0.0004        0.0065        0.0070       0.006903       0.02247
  30     15.07        0.0000        0.0003        0.0031        0.0034       0.003329       0.00923
  29     18.79        0.0000        0.0002        0.0014        0.0016       0.001583       0.00396
  28     23.16        0.0000        0.0001        0.0006        0.0007       0.000720       0.00167
  27     28.12        0.0000        0.0001        0.0003        0.0003       0.000317       0.00069
  26     33.73        0.0000        0.0000        0.0001        0.0001       0.000140       0.00027
  25     40.54        0.0000        0.0000        0.0000        0.0001       0.000057       0.00010
  24     48.69        0.0000        0.0000        0.0000        0.0000       0.000021       0.00004
  23     57.69        0.0000        0.0000        0.0000        0.0000       0.000008       0.00001
  22     68.43        0.0000        0.0000        0.0000        0.0000       0.000003       0.00000
  21     81.20        0.0000        0.0000        0.0000        0.0000       0.000001       0.00000
  20     96.49        0.0000        0.0000        0.0000        0.0000       0.000000       0.00000
  19     114.6        0.0000        0.0000        0.0000        0.0000       0.000000       0.00000
  18     136.5        0.0000        0.0000        0.0000        0.0000       0.000000       0.00000
  17     162.9        0.0000        0.0000        0.0000        0.0000       0.000000       0.00000
  16     196.4        0.0000        0.0000        0.0000        0.0000       0.000000       0.00000
  15     218.7        0.0000        0.0000        0.0000        0.0000       0.000000       0.00000
  14     243.0        0.0000        0.0000        0.0000        0.0000       0.000000       0.00000
  13     269.0        0.0000        0.0000        0.0000        0.0000       0.000000       0.00000
  12     297.5        0.0000        0.0000        0.0000        0.0000       0.000000       0.00000
  11     328.5        0.0000        0.0000        0.0000        0.0000       0.000000       0.00000
  10     361.9        0.0000        0.0000        0.0000        0.0000       0.000000       0.00000
   9     398.1        0.0000        0.0000        0.0000        0.0000       0.000000       0.00000
   8     437.6        0.0000        0.0000        0.0000        0.0000       0.000000       0.00000
   7     480.5        0.0000        0.0000        0.0000        0.0000       0.000000       0.00000
   6     533.0        0.0000        0.0000        0.0000        0.0000       0.000000       0.00000
   5     589.8        0.0000        0.0000        0.0000        0.0000       0.000000       0.00000
   4     651.6        0.0000        0.0000        0.0000        0.0000       0.000000       0.00000
   3     718.7        0.0000        0.0000        0.0000        0.0000       0.000000       0.00000
   2     792.3        0.0000        0.0000        0.0000        0.0000       0.000000       0.00000
   1     891.5        0.0000        0.0000        0.0000        0.0000       0.000000       0.00000
   0    1013.0        0.0000        0.0000        0.0000        0.0000       0.000000       0.00000



 Wavenumbers:   820. -  2600. cm-1, ATM      1
 LEVEL PRESSURE   UPWARD FLUX   DIFDOWN FLUX  DIRDOWN FLUX  DOWNWARD FLUX   NET FLUX    HEATING RATE
          mb          W/m2          W/m2          W/m2        W/m2          W/m2       degree/day
  51    .06700        0.0116        0.0000        6.0047        6.0047       5.993039       0.00000
  50    .07753        0.0116        0.0000        6.0008        6.0008       5.989186       3.08819
  49    .09103        0.0116        0.0000        5.9999        5.9999       5.988300       0.55356
  48    0.1069        0.0116        0.0000        5.9989        5.9989       5.987311       0.52650
  47    0.1255        0.0116        0.0000        5.9978        5.9978       5.986194       0.50647
  46    0.1487        0.0116        0.0000        5.9964        5.9964       5.984837       0.49454
  45    0.1794        0.0116        0.0000        5.9947        5.9947       5.983118       0.47197
  44    0.2165        0.0116        0.0000        5.9929        5.9929       5.981276       0.41908
  43    0.2613        0.0116        0.0000        5.9909        5.9909       5.979316       0.36930
  42    0.3336        0.0116        0.0000        5.9880        5.9880       5.976439       0.33553
  41    0.4307        0.0116        0.0000        5.9846        5.9846       5.972970       0.30162
  40    0.5894        0.0116        0.0000        5.9791        5.9791       5.967465       0.29273
  39     1.339        0.0116        0.0000        5.9536        5.9536       5.941980       0.28691
  38     1.782        0.0116        0.0000        5.9395        5.9395       5.927844       0.26914
  37     2.292        0.0116        0.0000        5.9237        5.9237       5.912094       0.26085
  36     2.964        0.0116        0.0000        5.9039        5.9039       5.892322       0.24820
  35     3.853        0.0116        0.0000        5.8793        5.8793       5.867669       0.23396
  34     5.035        0.0116        0.0000        5.8487        5.8487       5.837109       0.21830
  33     6.613        0.0116        0.0000        5.8108        5.8108       5.799149       0.20293
  32     8.786        0.0116        0.0000        5.7631        5.7631       5.751532       0.18493
  31     11.80        0.0116        0.0000        5.7039        5.7039       5.692284       0.16588
  30     15.07        0.0116        0.0000        5.6539        5.6539       5.642253       0.12917
  29     18.79        0.0116        0.0000        5.6127        5.6127       5.601126       0.09325
  28     23.16        0.0116        0.0000        5.5794        5.5794       5.567759       0.06452
  27     28.12        0.0116        0.0000        5.5518        5.5518       5.540202       0.04685
  26     33.73        0.0116        0.0000        5.5268        5.5268       5.515158       0.03765
  25     40.54        0.0116        0.0000        5.4993        5.4993       5.487724       0.03404
  24     48.69        0.0116        0.0000        5.4678        5.4678       5.456192       0.03263
  23     57.69        0.0116        0.0000        5.4340        5.4340       5.422412       0.03166
  22     68.43        0.0116        0.0000        5.3947        5.3948       5.383147       0.03087
  21     81.20        0.0116        0.0000        5.3497        5.3497       5.338122       0.02975
  20     96.49        0.0116        0.0000        5.2982        5.2982       5.286619       0.02843
  19     114.6        0.0116        0.0000        5.2389        5.2389       5.227307       0.02769
  18     136.5        0.0116        0.0000        5.1716        5.1717       5.160064       0.02586
  17     162.9        0.0116        0.0000        5.0890        5.0890       5.077448       0.02641
  16     196.4        0.0116        0.0000        4.9668        4.9668       4.955237       0.03076
  15     218.7        0.0116        0.0000        4.8585        4.8585       4.846876       0.04114
  14     243.0        0.0116        0.0000        4.7078        4.7079       4.696261       0.05224
  13     269.0        0.0116        0.0000        4.5343        4.5343       4.522678       0.05631
  12     297.5        0.0116        0.0000        4.3419        4.3420       4.330355       0.05704
  11     328.5        0.0116        0.0000        4.1281        4.1281       4.116522       0.05814
  10     361.9        0.0116        0.0000        3.8786        3.8787       3.867043       0.06312
   9     398.1        0.0116        0.0000        3.6159        3.6159       3.604297       0.06121
   8     437.6        0.0117        0.0000        3.3759        3.3759       3.364213       0.05133
   7     480.5        0.0117        0.0000        3.1957        3.1958       3.184078       0.03538
   6     533.0        0.0118        0.0000        3.0467        3.0467       3.034949       0.02399
   5     589.8        0.0118        0.0000        2.9023        2.9023       2.890488       0.02144
   4     651.6        0.0120        0.0000        2.7183        2.7184       2.706392       0.02518
   3     718.7        0.0122        0.0000        2.5058        2.5059       2.493648       0.02674
   2     792.3        0.0127        0.0000        2.2756        2.2757       2.263011       0.02645
   1     891.5        0.0138        0.0000        1.9621        1.9621       1.948342       0.02678
   0    1013.0        0.0167        0.0000        1.5468        1.5469       1.530166       0.02904

  Modules and versions used in this calculation:

       rrtmg_sw.1col.f90:  $Revision$                    rrtmg_sw_init.f90:  $Revision$        
     rrtmgsw_cldprop.f90:  $Revision$                  rrtmgsw_cldprmc.f90:  NOT USED          
     rrtmg_sw_reftra.f90:  $Revision$                  rrtmg_sw_spcvrt.f90:  NOT USED          
     rrtmg_sw_spcvmc.f90:  NOT USED                    rrtmgsw_setcoef.f90:  NOT USED          
     rrtmg_sw_taumol.f90:  $Revision$                  rrtmg_sw_vrtqdr.f90:  NOT USED          
                rrtatm.f:  NOT USED                             util_xxx.f:  NOT USED          
                 extra.f:  NOT USED                       rrtmg_sw_k_g.f90:  $Revision$        

