

 Wavenumbers:   820. - 50000. cm-1, ATM      1
 LEVEL PRESSURE   UPWARD FLUX   DIFDOWN FLUX  DIRDOWN FLUX  DOWNWARD FLUX   NET FLUX    HEATING RATE
          mb          W/m2          W/m2          W/m2        W/m2          W/m2       degree/day
  51    .06700      356.0059        0.0000      617.8126      617.8126     261.806633       0.00000
  50    .07753      356.0056        0.0013      617.7947      617.7961     261.790499      12.93147
  49    .09103      356.0051        0.0030      617.7778      617.7808     261.775698       9.25091
  48    0.1069      356.0046        0.0049      617.7581      617.7630     261.758448       9.18215
  47    0.1255      356.0040        0.0071      617.7340      617.7411     261.737119       9.66973
  46    0.1487      356.0034        0.0099      617.7009      617.7108     261.707455      10.81267
  45    0.1794      356.0026        0.0137      617.6521      617.6658     261.663259      12.13307
  44    0.2165      356.0017        0.0182      617.5895      617.6077     261.605983      13.02919
  43    0.2613      356.0009        0.0235      617.5089      617.5324     261.531532      14.03377
  42    0.3336      355.9998        0.0322      617.3641      617.3964     261.396562      15.73611
  41    0.4307      355.9988        0.0437      617.1591      617.2029     261.204112      16.73313
  40    0.5894      355.9980        0.0623      616.8005      616.8627     260.864748      18.04694
  39     1.339      356.0118        0.1460      614.9443      615.0903     259.078516      20.10973
  38     1.782      356.0319        0.1932      613.9670      614.1602     258.128265      18.09124
  37     2.292      356.0661        0.2467      613.0059      613.2526     257.186547      15.59731
  36     2.964      356.1273        0.3164      611.9577      612.2741     256.146741      13.05271
  35     3.853      356.2310        0.4077      610.8024      611.2101     254.979121      11.08093
  34     5.035      356.3912        0.5282      609.5327      610.0609     253.669759       9.35354
  33     6.613      356.6171        0.6881      608.1464      608.8346     252.217474       7.76392
  32     8.786      356.9113        0.9027      606.6250      607.5277     250.616474       6.21771
  31     11.80      357.2913        1.2081      604.8486      606.0568     248.765474       5.18221
  30     15.07      357.6519        1.5340      603.2440      604.7780     247.126068       4.23263
  29     18.79      358.0169        1.9007      601.6511      603.5518     245.534934       3.60759
  28     23.16      358.3943        2.3266      599.9927      602.3194     243.925028       3.11304
  27     28.12      358.7688        2.8115      598.2881      601.0995     242.330748       2.71017
  26     33.73      359.1041        3.3519      596.5951      599.9470     240.842891       2.23703
  25     40.54      359.4117        4.0025      594.7727      598.7752     239.363541       1.83530
  24     48.69      359.6879        4.7831      592.7865      597.5696     237.881665       1.53351
  23     57.69      359.8996        5.6363      590.7959      596.4322     236.532518       1.26462
  22     68.43      360.0523        6.6469      588.6191      595.2660     235.213723       1.03675
  21     81.20      360.0957        7.8449      586.2690      594.1139     234.018201       0.78998
  20     96.49      360.0191        9.2632      583.6961      592.9593     232.940167       0.59500
  19     114.6      359.8767       10.9313      580.7708      591.7022     231.825450       0.52049
  18     136.5      359.6656       12.8841      577.4359      590.3200     230.654411       0.45029
  17     162.9      359.3781       15.1752      573.5624      588.7376     229.359483       0.41391
  16     196.4      358.9220       18.0958      568.5907      586.6866     227.764519       0.40147
  15     218.7      358.5947       19.9836      565.0572      585.0408     226.446077       0.50056
  14     243.0      358.2295       22.0077      560.7495      582.7573     224.527730       0.66535
  13     269.0      357.8254       24.1696      555.3947      579.5643     221.738830       0.90471
  12     297.5      357.3838       26.4696      548.9964      575.4660     218.082148       1.08453
  11     328.5      356.9116       28.9140      542.0895      571.0035     214.091959       1.08492
  10     361.9      356.4115       31.4988      534.6242      566.1230     209.711540       1.10829
   9     398.1      355.8863       34.2283      526.4204      560.6488     204.762418       1.15303
   8     437.6      355.3443       37.1010      517.3907      554.4917     199.147420       1.20052
   7     480.5      354.7923       40.1147      507.7216      547.8363     193.044006       1.19869
   6     533.0      354.1658       43.7358      495.9006      539.6365     185.470668       1.21831
   5     589.8      353.5831       47.5331      483.0788      530.6119     177.028835       1.25304
   4     651.6      353.1351       51.4937      468.6907      520.1843     167.049244       1.36474
   3     718.7      352.9208       55.6093      453.2257      508.8351     155.914255       1.39936
   2     792.3      353.1759       59.8584      436.4928      496.3512     143.175295       1.46102
   1     891.5      354.7538       65.3434      413.9344      479.2778     124.523961       1.58714
   0    1013.0      359.7348       71.5749      388.4125      459.9874     100.252529       1.68529



 Wavenumbers:  2600. -  3250. cm-1, ATM      1
 LEVEL PRESSURE   UPWARD FLUX   DIFDOWN FLUX  DIRDOWN FLUX  DOWNWARD FLUX   NET FLUX    HEATING RATE
          mb          W/m2          W/m2          W/m2        W/m2          W/m2       degree/day
  51    .06700        0.8545        0.0000        5.4450        5.4450       4.590541       0.00000
  50    .07753        0.8545        0.0000        5.4450        5.4450       4.590533       0.00640
  49    .09103        0.8545        0.0000        5.4450        5.4450       4.590523       0.00627
  48    0.1069        0.8545        0.0000        5.4450        5.4450       4.590512       0.00613
  47    0.1255        0.8545        0.0000        5.4450        5.4450       4.590499       0.00599
  46    0.1487        0.8545        0.0000        5.4450        5.4450       4.590482       0.00608
  45    0.1794        0.8545        0.0000        5.4450        5.4450       4.590459       0.00625
  44    0.2165        0.8545        0.0000        5.4449        5.4449       4.590432       0.00612
  43    0.2613        0.8545        0.0000        5.4449        5.4449       4.590401       0.00600
  42    0.3336        0.8545        0.0000        5.4448        5.4448       4.590348       0.00617
  41    0.4307        0.8545        0.0000        5.4448        5.4448       4.590276       0.00620
  40    0.5894        0.8545        0.0000        5.4446        5.4446       4.590157       0.00637
  39     1.339        0.8545        0.0000        5.4439        5.4439       4.589449       0.00797
  38     1.782        0.8545        0.0000        5.4434        5.4434       4.588906       0.01034
  37     2.292        0.8545        0.0000        5.4427        5.4427       4.588190       0.01186
  36     2.964        0.8545        0.0000        5.4416        5.4416       4.587152       0.01304
  35     3.853        0.8545        0.0000        5.4402        5.4402       4.585674       0.01402
  34     5.035        0.8545        0.0000        5.4381        5.4381       4.583619       0.01468
  33     6.613        0.8545        0.0000        5.4353        5.4353       4.580838       0.01487
  32     8.786        0.8545        0.0000        5.4317        5.4317       4.577205       0.01411
  31     11.80        0.8545        0.0000        5.4269        5.4269       4.572425       0.01338
  30     15.07        0.8545        0.0000        5.4224        5.4224       4.567898       0.01169
  29     18.79        0.8545        0.0000        5.4180        5.4180       4.563486       0.01000
  28     23.16        0.8545        0.0000        5.4135        5.4135       4.558999       0.00868
  27     28.12        0.8545        0.0000        5.4088        5.4088       4.554350       0.00790
  26     33.73        0.8545        0.0000        5.4036        5.4036       4.549108       0.00788
  25     40.54        0.8545        0.0000        5.3966        5.3967       4.542164       0.00862
  24     48.69        0.8545        0.0000        5.3872        5.3872       4.532683       0.00981
  23     57.69        0.8545        0.0000        5.3754        5.3754       4.520892       0.01105
  22     68.43        0.8545        0.0000        5.3599        5.3599       4.505396       0.01218
  21     81.20        0.8545        0.0000        5.3401        5.3401       4.485549       0.01311
  20     96.49        0.8546        0.0000        5.3155        5.3155       4.460964       0.01357
  19     114.6        0.8546        0.0000        5.2853        5.2854       4.430741       0.01411
  18     136.5        0.8547        0.0001        5.2504        5.2505       4.395796       0.01344
  17     162.9        0.8548        0.0001        5.2111        5.2112       4.356396       0.01259
  16     196.4        0.8549        0.0001        5.1640        5.1641       4.309204       0.01188
  15     218.7        0.8551        0.0001        5.1331        5.1332       4.278121       0.01180
  14     243.0        0.8554        0.0001        5.0962        5.0963       4.240953       0.01289
  13     269.0        0.8558        0.0001        5.0511        5.0512       4.195397       0.01478
  12     297.5        0.8565        0.0001        4.9956        4.9957       4.139255       0.01665
  11     328.5        0.8574        0.0001        4.9304        4.9305       4.073112       0.01798
  10     361.9        0.8586        0.0001        4.8511        4.8512       3.992600       0.02037
   9     398.1        0.8603        0.0001        4.7507        4.7508       3.890497       0.02379
   8     437.6        0.8626        0.0002        4.6220        4.6222       3.759557       0.02800
   7     480.5        0.8657        0.0002        4.4625        4.4626       3.596897       0.03195
   6     533.0        0.8707        0.0002        4.2460        4.2462       3.375528       0.03561
   5     589.8        0.8780        0.0002        3.9954        3.9956       3.117586       0.03829
   4     651.6        0.8896        0.0002        3.7089        3.7090       2.819490       0.04077
   3     718.7        0.9075        0.0002        3.4018        3.4020       2.494560       0.04083
   2     792.3        0.9367        0.0002        3.0564        3.0566       2.119893       0.04297
   1     891.5        1.0030        0.0002        2.5828        2.5830       1.580016       0.04594
   0    1013.0        1.1587        0.0002        2.0845        2.0847       0.926008       0.04541



 Wavenumbers:  3250. -  4000. cm-1, ATM      1
 LEVEL PRESSURE   UPWARD FLUX   DIFDOWN FLUX  DIRDOWN FLUX  DOWNWARD FLUX   NET FLUX    HEATING RATE
          mb          W/m2          W/m2          W/m2        W/m2          W/m2       degree/day
  51    .06700        0.0005        0.0000        9.1795        9.1795       9.179009       0.00000
  50    .07753        0.0005        0.0000        9.1747        9.1747       9.174167       3.88148
  49    .09103        0.0005        0.0000        9.1713        9.1713       9.170779       2.11747
  48    0.1069        0.0005        0.0000        9.1688        9.1688       9.168254       1.34402
  47    0.1255        0.0005        0.0000        9.1665        9.1665       9.165995       1.02422
  46    0.1487        0.0005        0.0000        9.1641        9.1641       9.163553       0.88991
  45    0.1794        0.0005        0.0000        9.1612        9.1612       9.160675       0.79008
  44    0.2165        0.0005        0.0000        9.1583        9.1583       9.157755       0.66430
  43    0.2613        0.0005        0.0000        9.1553        9.1553       9.154782       0.56041
  42    0.3336        0.0005        0.0000        9.1511        9.1511       9.150603       0.48723
  41    0.4307        0.0005        0.0000        9.1464        9.1464       9.145835       0.41459
  40    0.5894        0.0005        0.0000        9.1393        9.1394       9.138829       0.37255
  39     1.339        0.0005        0.0000        9.1127        9.1127       9.112216       0.29962
  38     1.782        0.0005        0.0000        9.1011        9.1011       9.100627       0.22062
  37     2.292        0.0005        0.0000        9.0901        9.0901       9.089561       0.18329
  36     2.964        0.0005        0.0000        9.0776        9.0776       9.077131       0.15603
  35     3.853        0.0005        0.0000        9.0629        9.0629       9.062341       0.14036
  34     5.035        0.0005        0.0000        9.0441        9.0441       9.043602       0.13386
  33     6.613        0.0005        0.0000        9.0191        9.0191       9.018600       0.13366
  32     8.786        0.0005        0.0000        8.9843        8.9843       8.983817       0.13509
  31     11.80        0.0005        0.0000        8.9327        8.9327       8.932200       0.14451
  30     15.07        0.0005        0.0000        8.8758        8.8759       8.875355       0.14676
  29     18.79        0.0005        0.0000        8.8110        8.8110       8.810528       0.14698
  28     23.16        0.0005        0.0000        8.7365        8.7366       8.736083       0.14395
  27     28.12        0.0005        0.0000        8.6554        8.6555       8.654970       0.13789
  26     33.73        0.0005        0.0000        8.5719        8.5719       8.571471       0.12554
  25     40.54        0.0005        0.0001        8.4812        8.4812       8.480747       0.11255
  24     48.69        0.0005        0.0001        8.3838        8.3839       8.383446       0.10069
  23     57.69        0.0004        0.0001        8.2861        8.2862       8.285710       0.09161
  22     68.43        0.0004        0.0001        8.1751        8.1751       8.174714       0.08726
  21     81.20        0.0004        0.0001        8.0457        8.0458       8.045356       0.08548
  20     96.49        0.0004        0.0001        7.8949        7.8950       7.894652       0.08318
  19     114.6        0.0004        0.0001        7.7162        7.7163       7.715943       0.08344
  18     136.5        0.0004        0.0002        7.5193        7.5194       7.519099       0.07569
  17     162.9        0.0003        0.0002        7.2913        7.2915       7.291208       0.07284
  16     196.4        0.0003        0.0002        6.9660        6.9662       6.965935       0.08187
  15     218.7        0.0003        0.0002        6.6648        6.6650       6.664747       0.11435
  14     243.0        0.0002        0.0002        6.2619        6.2622       6.261952       0.13970
  13     269.0        0.0002        0.0003        5.7576        5.7579       5.757653       0.16359
  12     297.5        0.0002        0.0003        5.1719        5.1722       5.171962       0.17371
  11     328.5        0.0002        0.0002        4.5757        4.5760       4.575803       0.16209
  10     361.9        0.0002        0.0002        3.9995        3.9998       3.999628       0.14578
   9     398.1        0.0001        0.0002        3.4655        3.4657       3.465572       0.12442
   8     437.6        0.0001        0.0002        2.9740        2.9742       2.974125       0.10507
   7     480.5        0.0001        0.0002        2.5307        2.5309       2.530752       0.08708
   6     533.0        0.0001        0.0002        2.0614        2.0616       2.061457       0.07549
   5     589.8        0.0001        0.0002        1.6150        1.6151       1.615029       0.06626
   4     651.6        0.0001        0.0001        1.1565        1.1566       1.156485       0.06271
   3     718.7        0.0001        0.0001        0.7390        0.7391       0.738986       0.05247
   2     792.3        0.0002        0.0001        0.3985        0.3985       0.398340       0.03907
   1     891.5        0.0005        0.0000        0.1139        0.1139       0.113408       0.02425
   0    1013.0        0.0052        0.0000        0.0094        0.0094       0.004168       0.00759



 Wavenumbers:  4000. -  4650. cm-1, ATM      1
 LEVEL PRESSURE   UPWARD FLUX   DIFDOWN FLUX  DIRDOWN FLUX  DOWNWARD FLUX   NET FLUX    HEATING RATE
          mb          W/m2          W/m2          W/m2        W/m2          W/m2       degree/day
  51    .06700        3.4514        0.0000       10.7795       10.7795       7.328153       0.00000
  50    .07753        3.4514        0.0000       10.7795       10.7795       7.328152       0.00080
  49    .09103        3.4514        0.0000       10.7795       10.7795       7.328150       0.00078
  48    0.1069        3.4514        0.0000       10.7795       10.7795       7.328149       0.00076
  47    0.1255        3.4514        0.0000       10.7795       10.7795       7.328147       0.00075
  46    0.1487        3.4514        0.0000       10.7795       10.7795       7.328145       0.00076
  45    0.1794        3.4514        0.0000       10.7795       10.7795       7.328142       0.00078
  44    0.2165        3.4514        0.0000       10.7795       10.7795       7.328139       0.00076
  43    0.2613        3.4514        0.0000       10.7795       10.7795       7.328135       0.00075
  42    0.3336        3.4514        0.0000       10.7795       10.7795       7.328128       0.00077
  41    0.4307        3.4514        0.0000       10.7795       10.7795       7.328119       0.00077
  40    0.5894        3.4514        0.0000       10.7795       10.7795       7.328105       0.00080
  39     1.339        3.4514        0.0000       10.7794       10.7794       7.328015       0.00101
  38     1.782        3.4514        0.0000       10.7793       10.7793       7.327945       0.00133
  37     2.292        3.4514        0.0000       10.7792       10.7792       7.327851       0.00156
  36     2.964        3.4514        0.0000       10.7791       10.7791       7.327711       0.00176
  35     3.853        3.4514        0.0000       10.7789       10.7789       7.327503       0.00197
  34     5.035        3.4514        0.0000       10.7786       10.7786       7.327196       0.00219
  33     6.613        3.4514        0.0000       10.7781       10.7781       7.326745       0.00241
  32     8.786        3.4514        0.0000       10.7774       10.7774       7.326078       0.00259
  31     11.80        3.4514        0.0001       10.7763       10.7764       7.325032       0.00293
  30     15.07        3.4514        0.0001       10.7751       10.7752       7.323804       0.00317
  29     18.79        3.4513        0.0001       10.7736       10.7737       7.322319       0.00337
  28     23.16        3.4513        0.0001       10.7717       10.7718       7.320476       0.00356
  27     28.12        3.4513        0.0001       10.7695       10.7696       7.318246       0.00379
  26     33.73        3.4513        0.0001       10.7667       10.7668       7.315496       0.00413
  25     40.54        3.4513        0.0002       10.7629       10.7631       7.311768       0.00463
  24     48.69        3.4513        0.0002       10.7579       10.7581       7.306803       0.00514
  23     57.69        3.4513        0.0002       10.7520       10.7522       7.300919       0.00552
  22     68.43        3.4513        0.0003       10.7446       10.7449       7.293549       0.00579
  21     81.20        3.4514        0.0003       10.7355       10.7359       7.284479       0.00599
  20     96.49        3.4514        0.0004       10.7245       10.7249       7.273451       0.00609
  19     114.6        3.4515        0.0005       10.7107       10.7112       7.259673       0.00643
  18     136.5        3.4517        0.0006       10.6942       10.6948       7.243090       0.00638
  17     162.9        3.4519        0.0007       10.6740       10.6747       7.222781       0.00649
  16     196.4        3.4524        0.0008       10.6464       10.6472       7.194810       0.00704
  15     218.7        3.4528        0.0009       10.6255       10.6264       7.173555       0.00807
  14     243.0        3.4535        0.0010       10.5980       10.5991       7.145559       0.00971
  13     269.0        3.4546        0.0011       10.5611       10.5622       7.107636       0.01230
  12     297.5        3.4562        0.0012       10.5119       10.5132       7.056993       0.01502
  11     328.5        3.4584        0.0014       10.4499       10.4512       6.992804       0.01745
  10     361.9        3.4614        0.0015       10.3702       10.3717       6.910286       0.02088
   9     398.1        3.4651        0.0016       10.2678       10.2694       6.804350       0.02468
   8     437.6        3.4697        0.0018       10.1390       10.1408       6.671109       0.02849
   7     480.5        3.4754        0.0019        9.9877        9.9896       6.514258       0.03081
   6     533.0        3.4839        0.0021        9.7937        9.7958       6.311921       0.03255
   5     589.8        3.4957        0.0023        9.5752        9.5775       6.081792       0.03416
   4     651.6        3.5136        0.0025        9.2958        9.2983       5.784718       0.04063
   3     718.7        3.5413        0.0027        8.9267        8.9294       5.388078       0.04985
   2     792.3        3.5870        0.0028        8.4542        8.4570       4.870046       0.05941
   1     891.5        3.6918        0.0030        7.7948        7.7978       4.105998       0.06502
   0    1013.0        3.9352        0.0031        7.0767        7.0798       3.144610       0.06675



 Wavenumbers:  4650. -  5150. cm-1, ATM      1
 LEVEL PRESSURE   UPWARD FLUX   DIFDOWN FLUX  DIRDOWN FLUX  DOWNWARD FLUX   NET FLUX    HEATING RATE
          mb          W/m2          W/m2          W/m2        W/m2          W/m2       degree/day
  51    .06700        2.4308        0.0000       10.2033       10.2033       7.772561       0.00000
  50    .07753        2.4308        0.0000       10.2031       10.2031       7.772325       0.18901
  49    .09103        2.4308        0.0000       10.2028       10.2028       7.772030       0.18428
  48    0.1069        2.4308        0.0000       10.2025       10.2025       7.771693       0.17931
  47    0.1255        2.4308        0.0000       10.2021       10.2021       7.771309       0.17426
  46    0.1487        2.4308        0.0000       10.2016       10.2016       7.770828       0.17536
  45    0.1794        2.4308        0.0000       10.2010       10.2010       7.770177       0.17850
  44    0.2165        2.4308        0.0000       10.2002       10.2002       7.769418       0.17277
  43    0.2613        2.4308        0.0000       10.1993       10.1993       7.768533       0.16690
  42    0.3336        2.4308        0.0000       10.1979       10.1979       7.767100       0.16702
  41    0.4307        2.4308        0.0000       10.1960       10.1960       7.765260       0.16002
  40    0.5894        2.4308        0.0000       10.1932       10.1932       7.762386       0.15283
  39     1.339        2.4308        0.0000       10.1816       10.1816       7.750794       0.13050
  38     1.782        2.4308        0.0000       10.1760       10.1760       7.745266       0.10526
  37     2.292        2.4308        0.0000       10.1706       10.1706       7.739809       0.09037
  36     2.964        2.4308        0.0000       10.1646       10.1647       7.733887       0.07435
  35     3.853        2.4308        0.0000       10.1584       10.1584       7.727673       0.05897
  34     5.035        2.4308        0.0000       10.1521       10.1521       7.721338       0.04525
  33     6.613        2.4308        0.0000       10.1456       10.1456       7.714881       0.03451
  32     8.786        2.4308        0.0001       10.1386       10.1386       7.707872       0.02722
  31     11.80        2.4307        0.0001       10.1295       10.1296       7.698834       0.02530
  30     15.07        2.4307        0.0001       10.1196       10.1197       7.688958       0.02550
  29     18.79        2.4307        0.0001       10.1076       10.1077       7.676954       0.02722
  28     23.16        2.4307        0.0001       10.0923       10.0924       7.661654       0.02959
  27     28.12        2.4308        0.0002       10.0731       10.0733       7.642565       0.03245
  26     33.73        2.4308        0.0002       10.0500       10.0502       7.619477       0.03471
  25     40.54        2.4308        0.0003       10.0201       10.0204       7.589581       0.03709
  24     48.69        2.4308        0.0003        9.9820        9.9823       7.551418       0.03949
  23     57.69        2.4309        0.0004        9.9384        9.9388       7.507889       0.04080
  22     68.43        2.4310        0.0004        9.8858        9.8862       7.455168       0.04145
  21     81.20        2.4312        0.0005        9.8234        9.8239       7.392788       0.04122
  20     96.49        2.4314        0.0006        9.7518        9.7524       7.320983       0.03963
  19     114.6        2.4317        0.0007        9.6719        9.6726       7.240944       0.03737
  18     136.5        2.4321        0.0008        9.5858        9.5866       7.154514       0.03323
  17     162.9        2.4327        0.0010        9.4940        9.4950       7.062288       0.02948
  16     196.4        2.4337        0.0012        9.3883        9.3894       6.955734       0.02682
  15     218.7        2.4345        0.0013        9.3229        9.3242       6.889704       0.02507
  14     243.0        2.4356        0.0014        9.2520        9.2534       6.817834       0.02493
  13     269.0        2.4370        0.0016        9.1717        9.1732       6.736187       0.02649
  12     297.5        2.4392        0.0017        9.0763        9.0780       6.638829       0.02888
  11     328.5        2.4420        0.0019        8.9650        8.9668       6.524872       0.03098
  10     361.9        2.4456        0.0020        8.8349        8.8370       6.391343       0.03378
   9     398.1        2.4504        0.0022        8.6820        8.6842       6.233871       0.03669
   8     437.6        2.4565        0.0024        8.5028        8.5052       6.048665       0.03960
   7     480.5        2.4645        0.0026        8.2948        8.2974       5.832866       0.04238
   6     533.0        2.4766        0.0028        8.0209        8.0237       5.547031       0.04598
   5     589.8        2.4933        0.0030        7.7063        7.7093       5.215979       0.04914
   4     651.6        2.5177        0.0032        7.3412        7.3444       4.826728       0.05323
   3     718.7        2.5535        0.0033        6.9387        6.9420       4.388531       0.05507
   2     792.3        2.6078        0.0035        6.5066        6.5101       3.902330       0.05576
   1     891.5        2.7208        0.0036        5.9361        5.9397       3.218913       0.05816
   0    1013.0        2.9495        0.0038        5.3025        5.3063       2.356776       0.05986



 Wavenumbers:  5150. -  6150. cm-1, ATM      1
 LEVEL PRESSURE   UPWARD FLUX   DIFDOWN FLUX  DIRDOWN FLUX  DOWNWARD FLUX   NET FLUX    HEATING RATE
          mb          W/m2          W/m2          W/m2        W/m2          W/m2       degree/day
  51    .06700        6.2106        0.0000       25.5798       25.5798      19.369265       0.00000
  50    .07753        6.2106        0.0000       25.5798       25.5798      19.369225       0.03158
  49    .09103        6.2106        0.0000       25.5797       25.5797      19.369174       0.03207
  48    0.1069        6.2106        0.0000       25.5797       25.5797      19.369113       0.03258
  47    0.1255        6.2106        0.0000       25.5796       25.5796      19.369040       0.03308
  46    0.1487        6.2106        0.0000       25.5795       25.5795      19.368944       0.03485
  45    0.1794        6.2106        0.0000       25.5794       25.5794      19.368809       0.03709
  44    0.2165        6.2106        0.0000       25.5792       25.5792      19.368643       0.03765
  43    0.2613        6.2106        0.0000       25.5790       25.5790      19.368441       0.03823
  42    0.3336        6.2106        0.0000       25.5786       25.5786      19.368094       0.04039
  41    0.4307        6.2105        0.0000       25.5782       25.5782      19.367623       0.04094
  40    0.5894        6.2105        0.0000       25.5774       25.5774      19.366835       0.04195
  39     1.339        6.2105        0.0000       25.5735       25.5736      19.363035       0.04278
  38     1.782        6.2105        0.0000       25.5713       25.5714      19.360823       0.04211
  37     2.292        6.2105        0.0001       25.5688       25.5688      19.358320       0.04146
  36     2.964        6.2105        0.0001       25.5656       25.5657      19.355140       0.03992
  35     3.853        6.2105        0.0001       25.5615       25.5616      19.351099       0.03835
  34     5.035        6.2105        0.0001       25.5562       25.5564      19.345896       0.03717
  33     6.613        6.2105        0.0002       25.5494       25.5496      19.339147       0.03608
  32     8.786        6.2105        0.0003       25.5406       25.5409      19.330402       0.03396
  31     11.80        6.2104        0.0003       25.5287       25.5290      19.318577       0.03311
  30     15.07        6.2104        0.0004       25.5167       25.5171      19.306720       0.03061
  29     18.79        6.2104        0.0005       25.5042       25.5047      19.294328       0.02810
  28     23.16        6.2104        0.0007       25.4907       25.4913      19.280982       0.02581
  27     28.12        6.2103        0.0008       25.4764       25.4773      19.266913       0.02392
  26     33.73        6.2103        0.0010       25.4620       25.4630      19.252660       0.02143
  25     40.54        6.2103        0.0012       25.4463       25.4474      19.237084       0.01932
  24     48.69        6.2104        0.0014       25.4294       25.4308      19.220414       0.01725
  23     57.69        6.2104        0.0017       25.4126       25.4143      19.203874       0.01550
  22     68.43        6.2105        0.0020       25.3944       25.3964      19.185926       0.01411
  21     81.20        6.2106        0.0023       25.3744       25.3767      19.166187       0.01304
  20     96.49        6.2107        0.0028       25.3519       25.3547      19.144014       0.01224
  19     114.6        6.2109        0.0033       25.3262       25.3295      19.118594       0.01187
  18     136.5        6.2111        0.0039       25.2962       25.3001      19.089012       0.01137
  17     162.9        6.2114        0.0046       25.2521       25.2567      19.045360       0.01395
  16     196.4        6.2118        0.0056       25.1593       25.1649      18.953078       0.02323
  15     218.7        6.2121        0.0062       25.0159       25.0221      18.809995       0.05432
  14     243.0        6.2125        0.0068       24.7089       24.7157      18.503183       0.10641
  13     269.0        6.2131        0.0074       24.1619       24.1693      17.956163       0.17745
  12     297.5        6.2139        0.0080       23.4544       23.4624      17.248493       0.20989
  11     328.5        6.2149        0.0086       22.7355       22.7441      16.529138       0.19559
  10     361.9        6.2163        0.0092       21.9224       21.9316      15.715338       0.20590
   9     398.1        6.2181        0.0098       20.9939       21.0037      14.785614       0.21660
   8     437.6        6.2205        0.0103       19.9833       19.9936      13.773179       0.21647
   7     480.5        6.2236        0.0108       18.9483       18.9591      12.735495       0.20380
   6     533.0        6.2287        0.0114       17.7796       17.7910      11.562274       0.18873
   5     589.8        6.2365        0.0120       16.6726       16.6846      10.448055       0.16539
   4     651.6        6.2498        0.0126       15.6343       15.6469       9.397084       0.14372
   3     718.7        6.2724        0.0133       14.7738       14.7870       8.514618       0.11090
   2     792.3        6.3131        0.0140       14.0291       14.0431       7.730015       0.08999
   1     891.5        6.4157        0.0149       13.0822       13.0971       6.681462       0.08923
   0    1013.0        6.7009        0.0159       12.0384       12.0543       5.353377       0.09222



 Wavenumbers:  6150. -  7700. cm-1, ATM      1
 LEVEL PRESSURE   UPWARD FLUX   DIFDOWN FLUX  DIRDOWN FLUX  DOWNWARD FLUX   NET FLUX    HEATING RATE
          mb          W/m2          W/m2          W/m2        W/m2          W/m2       degree/day
  51    .06700        9.1584        0.0000       47.3109       47.3109      38.152502       0.00000
  50    .07753        9.1584        0.0000       47.3108       47.3108      38.152445       0.04553
  49    .09103        9.1584        0.0000       47.3107       47.3107      38.152372       0.04583
  48    0.1069        9.1584        0.0000       47.3106       47.3106      38.152285       0.04614
  47    0.1255        9.1584        0.0000       47.3105       47.3105      38.152183       0.04645
  46    0.1487        9.1584        0.0000       47.3104       47.3104      38.152050       0.04852
  45    0.1794        9.1583        0.0000       47.3102       47.3102      38.151863       0.05127
  44    0.2165        9.1583        0.0000       47.3100       47.3100      38.151636       0.05167
  43    0.2613        9.1583        0.0000       47.3097       47.3097      38.151359       0.05210
  42    0.3336        9.1583        0.0000       47.3092       47.3092      38.150890       0.05471
  41    0.4307        9.1583        0.0000       47.3085       47.3086      38.150255       0.05521
  40    0.5894        9.1583        0.0001       47.3074       47.3075      38.149196       0.05633
  39     1.339        9.1582        0.0002       47.3022       47.3023      38.144104       0.05733
  38     1.782        9.1582        0.0002       47.2991       47.2993      38.141133       0.05655
  37     2.292        9.1582        0.0003       47.2956       47.2959      38.137758       0.05591
  36     2.964        9.1581        0.0003       47.2912       47.2915      38.133439       0.05421
  35     3.853        9.1580        0.0005       47.2855       47.2859      38.127905       0.05252
  34     5.035        9.1579        0.0006       47.2780       47.2786      38.120725       0.05129
  33     6.613        9.1578        0.0008       47.2683       47.2691      38.111337       0.05019
  32     8.786        9.1576        0.0010       47.2556       47.2566      38.099038       0.04777
  31     11.80        9.1573        0.0014       47.2380       47.2394      38.082135       0.04732
  30     15.07        9.1570        0.0018       47.2201       47.2218      38.064848       0.04463
  29     18.79        9.1567        0.0022       47.2008       47.2030      38.046369       0.04190
  28     23.16        9.1563        0.0027       47.1795       47.1823      38.025980       0.03943
  27     28.12        9.1558        0.0033       47.1565       47.1598      38.003987       0.03739
  26     33.73        9.1553        0.0040       47.1324       47.1364      37.981068       0.03446
  25     40.54        9.1547        0.0048       47.1054       47.1102      37.955434       0.03180
  24     48.69        9.1540        0.0057       47.0754       47.0812      37.927184       0.02923
  23     57.69        9.1532        0.0068       47.0449       47.0518      37.898566       0.02682
  22     68.43        9.1522        0.0081       47.0110       47.0191      37.866835       0.02495
  21     81.20        9.1511        0.0096       46.9729       46.9824      37.831349       0.02345
  20     96.49        9.1497        0.0114       46.9294       46.9407      37.791020       0.02226
  19     114.6        9.1481        0.0135       46.8790       46.8925      37.744403       0.02177
  18     136.5        9.1462        0.0160       46.8200       46.8360      37.689805       0.02099
  17     162.9        9.1439        0.0190       46.7361       46.7551      37.611230       0.02512
  16     196.4        9.1410        0.0229       46.5703       46.5932      37.452150       0.04004
  15     218.7        9.1392        0.0254       46.3473       46.3727      37.233540       0.08300
  14     243.0        9.1373        0.0280       45.9299       45.9579      36.820615       0.14322
  13     269.0        9.1354        0.0306       45.1708       45.2014      36.065969       0.24480
  12     297.5        9.1338        0.0331       44.0115       44.0446      34.910770       0.34262
  11     328.5        9.1326        0.0357       42.7242       42.7599      33.627327       0.34896
  10     361.9        9.1319        0.0382       41.3539       41.3922      32.260322       0.34587
   9     398.1        9.1320        0.0407       39.7953       39.8360      30.703979       0.36259
   8     437.6        9.1336        0.0431       37.9948       38.0378      28.904190       0.38481
   7     480.5        9.1373        0.0452       36.0647       36.1099      26.972643       0.37935
   6     533.0        9.1455        0.0475       33.7773       33.8247      24.679258       0.36893
   5     589.8        9.1613        0.0494       31.4082       31.4576      22.296334       0.35370
   4     651.6        9.1929        0.0509       28.8834       28.9343      19.741429       0.34939
   3     718.7        9.2514        0.0522       26.4104       26.4626      17.211202       0.31798
   2     792.3        9.3611        0.0532       24.0056       24.0588      14.697738       0.28827
   1     891.5        9.6399        0.0543       21.2348       21.2891      11.649164       0.25942
   0    1013.0       10.3811        0.0555       18.6150       18.6706       8.289479       0.23328



 Wavenumbers:  7700. -  8050. cm-1, ATM      1
 LEVEL PRESSURE   UPWARD FLUX   DIFDOWN FLUX  DIRDOWN FLUX  DOWNWARD FLUX   NET FLUX    HEATING RATE
          mb          W/m2          W/m2          W/m2        W/m2          W/m2       degree/day
  51    .06700        4.8972        0.0000       11.1810       11.1810       6.283716       0.00000
  50    .07753        4.8972        0.0000       11.1809       11.1809       6.283695       0.01680
  49    .09103        4.8973        0.0000       11.1809       11.1809       6.283669       0.01646
  48    0.1069        4.8973        0.0000       11.1809       11.1809       6.283639       0.01612
  47    0.1255        4.8973        0.0000       11.1809       11.1809       6.283604       0.01577
  46    0.1487        4.8973        0.0000       11.1808       11.1808       6.283560       0.01600
  45    0.1794        4.8973        0.0000       11.1808       11.1808       6.283500       0.01647
  44    0.2165        4.8973        0.0000       11.1807       11.1807       6.283429       0.01615
  43    0.2613        4.8973        0.0000       11.1806       11.1806       6.283345       0.01585
  42    0.3336        4.8973        0.0000       11.1805       11.1805       6.283206       0.01622
  41    0.4307        4.8973        0.0000       11.1803       11.1804       6.283021       0.01604
  40    0.5894        4.8974        0.0000       11.1801       11.1801       6.282720       0.01602
  39     1.339        4.8976        0.0001       11.1788       11.1789       6.281295       0.01605
  38     1.782        4.8977        0.0001       11.1781       11.1782       6.280457       0.01594
  37     2.292        4.8978        0.0001       11.1772       11.1773       6.279488       0.01605
  36     2.964        4.8980        0.0002       11.1761       11.1762       6.278216       0.01597
  35     3.853        4.8982        0.0002       11.1746       11.1748       6.276535       0.01595
  34     5.035        4.8986        0.0003       11.1726       11.1729       6.274302       0.01595
  33     6.613        4.8990        0.0003       11.1700       11.1703       6.271320       0.01594
  32     8.786        4.8995        0.0005       11.1664       11.1668       6.267304       0.01560
  31     11.80        4.9004        0.0006       11.1613       11.1619       6.261562       0.01607
  30     15.07        4.9012        0.0008       11.1558       11.1566       6.255404       0.01590
  29     18.79        4.9022        0.0010       11.1497       11.1507       6.248455       0.01575
  28     23.16        4.9034        0.0012       11.1425       11.1437       6.240351       0.01567
  27     28.12        4.9047        0.0015       11.1343       11.1358       6.231099       0.01573
  26     33.73        4.9062        0.0018       11.1252       11.1270       6.220769       0.01553
  25     40.54        4.9080        0.0021       11.1142       11.1163       6.208321       0.01544
  24     48.69        4.9102        0.0025       11.1010       11.1036       6.193362       0.01548
  23     57.69        4.9126        0.0030       11.0866       11.0896       6.176993       0.01534
  22     68.43        4.9155        0.0036       11.0695       11.0731       6.157585       0.01526
  21     81.20        4.9190        0.0042       11.0494       11.0536       6.134586       0.01520
  20     96.49        4.9232        0.0050       11.0255       11.0306       6.107357       0.01503
  19     114.6        4.9282        0.0060       10.9975       11.0035       6.075270       0.01498
  18     136.5        4.9343        0.0071       10.9648       10.9718       6.037574       0.01450
  17     162.9        4.9415        0.0084       10.9263       10.9347       5.993135       0.01420
  16     196.4        4.9512        0.0101       10.8773       10.8874       5.936194       0.01433
  15     218.7        4.9576        0.0112       10.8455       10.8568       5.899170       0.01406
  14     243.0        4.9647        0.0124       10.8114       10.8239       5.859198       0.01386
  13     269.0        4.9725        0.0137       10.7749       10.7886       5.816120       0.01397
  12     297.5        4.9811        0.0152       10.7357       10.7509       5.769721       0.01376
  11     328.5        4.9907        0.0167       10.6937       10.7104       5.719703       0.01360
  10     361.9        5.0013        0.0183       10.6489       10.6672       5.665848       0.01363
   9     398.1        5.0132        0.0201       10.6008       10.6209       5.607681       0.01355
   8     437.6        5.0265        0.0220       10.5491       10.5711       5.544609       0.01349
   7     480.5        5.0414        0.0240       10.4934       10.5175       5.476082       0.01346
   6     533.0        5.0609        0.0265       10.4243       10.4508       5.389954       0.01386
   5     589.8        5.0836        0.0292       10.3479       10.3771       5.293515       0.01431
   4     651.6        5.1109        0.0321       10.2613       10.2934       5.182529       0.01518
   3     718.7        5.1444        0.0351       10.1618       10.1969       5.052517       0.01634
   2     792.3        5.1868        0.0383       10.0439       10.0822       4.895414       0.01802
   1     891.5        5.2582        0.0426        9.8626        9.9052       4.646931       0.02114
   0    1013.0        5.3712        0.0474        9.6103        9.6577       4.286562       0.02502



 Wavenumbers:  8050. - 12850. cm-1, ATM      1
 LEVEL PRESSURE   UPWARD FLUX   DIFDOWN FLUX  DIRDOWN FLUX  DOWNWARD FLUX   NET FLUX    HEATING RATE
          mb          W/m2          W/m2          W/m2        W/m2          W/m2       degree/day
  51    .06700       59.9537        0.0000      156.5418      156.5418      96.588017       0.00000
  50    .07753       59.9537        0.0000      156.5417      156.5417      96.588017      -0.00000
  49    .09103       59.9537        0.0001      156.5417      156.5417      96.588017       0.00000
  48    0.1069       59.9537        0.0001      156.5416      156.5417      96.588017      -0.00000
  47    0.1255       59.9536        0.0001      156.5415      156.5417      96.588017       0.00000
  46    0.1487       59.9536        0.0002      156.5414      156.5416      96.588017       0.00000
  45    0.1794       59.9536        0.0003      156.5413      156.5416      96.588017       0.00000
  44    0.2165       59.9535        0.0004      156.5412      156.5415      96.588017      -0.00000
  43    0.2613       59.9535        0.0005      156.5410      156.5415      96.588017       0.00000
  42    0.3336       59.9534        0.0007      156.5407      156.5414      96.588017       0.00000
  41    0.4307       59.9532        0.0009      156.5403      156.5412      96.588017      -0.00000
  40    0.5894       59.9530        0.0013      156.5397      156.5410      96.588017       0.00000
  39     1.339       59.9519        0.0032      156.5367      156.5399      96.588017      -0.00000
  38     1.782       59.9513        0.0043      156.5350      156.5393      96.588017      -0.00000
  37     2.292       59.9506        0.0056      156.5330      156.5386      96.588017       0.00000
  36     2.964       59.9496        0.0073      156.5303      156.5376      96.588017       0.00000
  35     3.853       59.9484        0.0095      156.5268      156.5364      96.588017       0.00000
  34     5.035       59.9467        0.0125      156.5222      156.5347      96.588017      -0.00000
  33     6.613       59.9445        0.0165      156.5160      156.5325      96.588017      -0.00000
  32     8.786       59.9415        0.0219      156.5076      156.5295      96.588017      -0.00000
  31     11.80       59.9372        0.0295      156.4957      156.5252      96.588017       0.00000
  30     15.07       59.9325        0.0378      156.4828      156.5206      96.588017       0.00000
  29     18.79       59.9273        0.0471      156.4682      156.5153      96.588017       0.00000
  28     23.16       59.9212        0.0580      156.4512      156.5092      96.588017      -0.00000
  27     28.12       59.9142        0.0705      156.4317      156.5022      96.588017      -0.00000
  26     33.73       59.9063        0.0845      156.4099      156.4943      96.588017       0.00000
  25     40.54       59.8968        0.1014      156.3834      156.4848      96.588017       0.00000
  24     48.69       59.8853        0.1218      156.3515      156.4734      96.588017      -0.00000
  23     57.69       59.8727        0.1443      156.3164      156.4607      96.588017       0.00000
  22     68.43       59.8577        0.1711      156.2746      156.4457      96.588017      -0.00000
  21     81.20       59.8397        0.2031      156.2246      156.4277      96.588017      -0.00000
  20     96.49       59.8182        0.2413      156.1649      156.4062      96.588017       0.00000
  19     114.6       59.7928        0.2867      156.0879      156.3747      96.581870       0.00287
  18     136.5       59.7626        0.3407      155.9962      156.3368      96.574240       0.00293
  17     162.9       59.7265        0.4050      155.8831      156.2881      96.561553       0.00406
  16     196.4       59.6797        0.4887      155.7199      156.2086      96.528946       0.00821
  15     218.7       59.6490        0.5437      155.5733      156.1170      96.468035       0.02313
  14     243.0       59.6159        0.6035      155.3367      155.9402      96.324299       0.04985
  13     269.0       59.5807        0.6681      154.9514      155.6195      96.038824       0.09261
  12     297.5       59.5442        0.7376      154.3896      155.1272      95.583089       0.13517
  11     328.5       59.5065        0.8125      153.7151      154.5276      95.021124       0.15280
  10     361.9       59.4686        0.8928      152.9087      153.8015      94.332920       0.17412
   9     398.1       59.4320        0.9786      151.8986      152.8772      93.445135       0.20683
   8     437.6       59.3994        1.0696      150.6031      151.6728      92.273366       0.25053
   7     480.5       59.3739        1.1657      149.0014      150.1671      90.793163       0.29071
   6     533.0       59.3604        1.2816      146.7375      148.0191      88.658732       0.34336
   5     589.8       59.3783        1.4024      143.8730      145.2754      85.897110       0.40992
   4     651.6       59.4654        1.5257      140.0955      141.6212      82.155768       0.51164
   3     718.7       59.6703        1.6500      135.5278      137.1778      77.507499       0.58416
   2     792.3       60.0997        1.7722      130.0690      131.8412      71.741549       0.66129
   1     891.5       61.2371        1.9184      122.1273      124.0457      62.808621       0.76015
   0    1013.0       64.0797        2.0736      112.9512      115.0248      50.945142       0.82374



 Wavenumbers: 12850. - 16000. cm-1, ATM      1
 LEVEL PRESSURE   UPWARD FLUX   DIFDOWN FLUX  DIRDOWN FLUX  DOWNWARD FLUX   NET FLUX    HEATING RATE
          mb          W/m2          W/m2          W/m2        W/m2          W/m2       degree/day
  51    .06700       65.0991        0.0000       98.0872       98.0872      32.988130       0.00000
  50    .07753       65.0991        0.0001       98.0864       98.0864      32.987341       0.63192
  49    .09103       65.0991        0.0001       98.0853       98.0854      32.986352       0.61850
  48    0.1069       65.0991        0.0002       98.0841       98.0843      32.985216       0.60477
  47    0.1255       65.0991        0.0004       98.0826       98.0830      32.983911       0.59127
  46    0.1487       65.0991        0.0005       98.0809       98.0813      32.982267       0.59936
  45    0.1794       65.0991        0.0007       98.0784       98.0791      32.980033       0.61340
  44    0.2165       65.0991        0.0009       98.0756       98.0765      32.977408       0.59715
  43    0.2613       65.0992        0.0012       98.0723       98.0735      32.974325       0.58104
  42    0.3336       65.0993        0.0016       98.0670       98.0686      32.969303       0.58550
  41    0.4307       65.0996        0.0022       98.0602       98.0624      32.962823       0.56343
  40    0.5894       65.1001        0.0031       98.0496       98.0527      32.952645       0.54128
  39     1.339       65.1049        0.0077       98.0043       98.0120      32.907066       0.51313
  38     1.782       65.1095        0.0103       97.9793       97.9896      32.880057       0.51421
  37     2.292       65.1165        0.0134       97.9498       97.9631      32.846660       0.55315
  36     2.964       65.1281        0.0174       97.9088       97.9262      32.798084       0.60977
  35     3.853       65.1470        0.0227       97.8503       97.8730      32.726023       0.68387
  34     5.035       65.1756        0.0297       97.7680       97.7977      32.622159       0.74196
  33     6.613       65.2155        0.0391       97.6562       97.6953      32.479843       0.76082
  32     8.786       65.2674        0.0518       97.5107       97.5625      32.295063       0.71762
  31     11.80       65.3348        0.0699       97.3179       97.3877      32.052924       0.67791
  30     15.07       65.3992        0.0893       97.1283       97.2176      31.818420       0.60544
  29     18.79       65.4647        0.1112       96.9300       97.0412      31.576488       0.54853
  28     23.16       65.5329        0.1367       96.7166       96.8533      31.320361       0.49527
  27     28.12       65.6013        0.1659       96.4935       96.6594      31.058157       0.44573
  26     33.73       65.6638        0.1986       96.2731       96.4717      30.807846       0.37635
  25     40.54       65.7234        0.2381       96.0408       96.2788      30.555449       0.31313
  24     48.69       65.7796        0.2856       95.7946       96.0802      30.300645       0.26368
  23     57.69       65.8261        0.3379       95.5573       95.8952      30.069043       0.21709
  22     68.43       65.8652        0.4001       95.3106       95.7107      29.845589       0.17566
  21     81.20       65.8892        0.4744       95.0643       95.5387      29.649538       0.12955
  20     96.49       65.8970        0.5630       94.8153       95.3782      29.481197       0.09291
  19     114.6       65.9074        0.6691       94.5411       95.2102      29.302739       0.08333
  18     136.5       65.9103        0.7950       94.2320       95.0270      29.116745       0.07152
  17     162.9       65.9048        0.9447       93.8753       94.8201      28.915279       0.06440
  16     196.4       65.8791        1.1389       93.4347       94.5736      28.694512       0.05557
  15     218.7       65.8555        1.2665       93.1513       94.4177      28.562220       0.05023
  14     243.0       65.8269        1.4050       92.8439       94.2489      28.422006       0.04863
  13     269.0       65.7932        1.5551       92.5111       94.0662      28.273024       0.04833
  12     297.5       65.7546        1.7173       92.1495       93.8667      28.112153       0.04771
  11     328.5       65.7126        1.8924       91.7554       93.6478      27.935261       0.04810
  10     361.9       65.6677        2.0809       91.3262       93.4072      27.739499       0.04953
   9     398.1       65.6208        2.2837       90.8575       93.1413      27.520516       0.05102
   8     437.6       65.5739        2.5013       90.3418       92.8431      27.269261       0.05372
   7     480.5       65.5288        2.7343       89.7728       92.5071      26.978229       0.05716
   6     533.0       65.4841        3.0206       89.0428       92.0634      26.579348       0.06417
   5     589.8       65.4561        3.3281       88.2038       91.5319      26.075857       0.07473
   4     651.6       65.4681        3.6564       87.1979       90.8544      25.386293       0.09430
   3     718.7       65.5354        4.0040       86.0161       90.0202      24.484833       0.11329
   2     792.3       65.7073        4.3672       84.5970       88.9642      23.256961       0.14082
   1     891.5       66.1761        4.8389       82.4374       87.2764      21.100254       0.18353
   0    1013.0       67.2130        5.3792       79.6182       84.9974      17.784372       0.23024



 Wavenumbers: 16000. - 22650. cm-1, ATM      1
 LEVEL PRESSURE   UPWARD FLUX   DIFDOWN FLUX  DIRDOWN FLUX  DOWNWARD FLUX   NET FLUX    HEATING RATE
          mb          W/m2          W/m2          W/m2        W/m2          W/m2       degree/day
  51    .06700      137.4960        0.0000      156.3892      156.3892      18.893289       0.00000
  50    .07753      137.4959        0.0004      156.3887      156.3891      18.893144       0.11690
  49    .09103      137.4959        0.0009      156.3879      156.3888      18.892932       0.13259
  48    0.1069      137.4959        0.0015      156.3871      156.3885      18.892647       0.15119
  47    0.1255      137.4959        0.0021      156.3861      156.3882      18.892267       0.17234
  46    0.1487      137.4959        0.0029      156.3847      156.3876      18.891707       0.20422
  45    0.1794      137.4960        0.0041      156.3828      156.3869      18.890831       0.24045
  44    0.2165      137.4962        0.0054      156.3805      156.3859      18.889643       0.27024
  43    0.2613      137.4965        0.0070      156.3776      156.3846      18.888031       0.30382
  42    0.3336      137.4972        0.0096      156.3726      156.3822      18.884967       0.35728
  41    0.4307      137.4984        0.0130      156.3657      156.3787      18.880348       0.40162
  40    0.5894      137.5008        0.0187      156.3537      156.3724      18.871538       0.46848
  39     1.339      137.5224        0.0454      156.2834      156.3288      18.806453       0.73274
  38     1.782      137.5425        0.0611      156.2324      156.2935      18.751009       1.05557
  37     2.292      137.5726        0.0793      156.1641      156.2434      18.670753       1.32925
  36     2.964      137.6229        0.1031      156.0605      156.1636      18.540739       1.63207
  35     3.853      137.7042        0.1346      155.9041      156.0387      18.334441       1.95780
  34     5.035      137.8271        0.1764      155.6774      155.8538      18.026668       2.19860
  33     6.613      137.9988        0.2321      155.3656      155.5978      17.598967       2.28649
  32     8.786      138.2224        0.3072      154.9577      155.2648      17.042454       2.16129
  31     11.80      138.5132        0.4144      154.4153      154.8296      16.316390       2.03275
  30     15.07      138.7916        0.5292      153.8804      154.4096      15.617984       1.80315
  29     18.79      139.0757        0.6588      153.3191      153.9779      14.902228       1.62284
  28     23.16      139.3723        0.8100      152.7126      153.5225      14.150204       1.45417
  27     28.12      139.6704        0.9825      152.0755      153.0580      13.387580       1.29641
  26     33.73      139.9451        1.1755      151.4409      152.6164      12.671299       1.07695
  25     40.54      140.2086        1.4083      150.7637      152.1720      11.963407       0.87822
  24     48.69      140.4600        1.6887      150.0338      151.7226      11.262635       0.72519
  23     57.69      140.6719        1.9964      149.3151      151.3115      10.639625       0.58398
  22     68.43      140.8552        2.3624      148.5476      150.9100      10.054826       0.45973
  21     81.20      140.9787        2.7981      147.7517      150.5498       9.571096       0.31964
  20     96.49      141.0379        3.3168      146.9127      150.2295       9.191517       0.20950
  19     114.6      141.0632        3.9308      145.9763      149.9071       8.843930       0.16230
  18     136.5      141.0626        4.6558      144.9088      149.5646       8.502020       0.13147
  17     162.9      141.0340        5.5150      143.6785      149.1936       8.159554       0.10947
  16     196.4      140.9370        6.6235      142.1651      148.7886       7.851571       0.07752
  15     218.7      140.8513        7.3479      141.2033      148.5512       7.699859       0.05760
  14     243.0      140.7481        8.1318      140.1753      148.3071       7.558965       0.04887
  13     269.0      140.6258        8.9774      139.0797      148.0571       7.431285       0.04142
  12     297.5      140.4836        9.8867      137.9141      147.8008       7.317198       0.03384
  11     328.5      140.3254       10.8640      136.6676      147.5316       7.206208       0.03018
  10     361.9      140.1509       11.9101      135.3392      147.2493       7.098458       0.02726
   9     398.1      139.9595       13.0291      133.9235      146.9526       6.993084       0.02455
   8     437.6      139.7521       14.2228      132.4163      146.6391       6.887003       0.02268
   7     480.5      139.5282       15.4934      130.8147      146.3081       6.779948       0.02103
   6     533.0      139.2525       17.0450      128.8599      145.9050       6.652499       0.02050
   5     589.8      138.9589       18.7026      126.7679      145.4705       6.511619       0.02091
   4     651.6      138.6534       20.4676      124.5274      144.9950       6.341653       0.02324
   3     718.7      138.3415       22.3416      122.1285      144.4701       6.128575       0.02678
   2     792.3      138.0393       24.3225      119.5548      143.8774       5.838080       0.03332
   1     891.5      137.7081       26.9512      116.0566      143.0078       5.299703       0.04581
   0    1013.0      137.4360       30.0386      111.8404      141.8791       4.443121       0.05948



 Wavenumbers: 22650. - 29000. cm-1, ATM      1
 LEVEL PRESSURE   UPWARD FLUX   DIFDOWN FLUX  DIRDOWN FLUX  DOWNWARD FLUX   NET FLUX    HEATING RATE
          mb          W/m2          W/m2          W/m2        W/m2          W/m2       degree/day
  51    .06700       57.2715        0.0000       59.0156       59.0156       1.744071       0.00000
  50    .07753       57.2714        0.0005       59.0151       59.0155       1.744071      -0.00000
  49    .09103       57.2713        0.0010       59.0144       59.0154       1.744071       0.00000
  48    0.1069       57.2712        0.0017       59.0136       59.0153       1.744071       0.00000
  47    0.1255       57.2710        0.0025       59.0127       59.0151       1.744071      -0.00000
  46    0.1487       57.2708        0.0034       59.0115       59.0149       1.744071      -0.00000
  45    0.1794       57.2706        0.0047       59.0099       59.0146       1.744071       0.00000
  44    0.2165       57.2703        0.0063       59.0080       59.0143       1.744071      -0.00000
  43    0.2613       57.2699        0.0081       59.0058       59.0140       1.744071       0.00000
  42    0.3336       57.2693        0.0112       59.0022       59.0133       1.744071       0.00000
  41    0.4307       57.2684        0.0152       58.9973       59.0125       1.744071      -0.00000
  40    0.5894       57.2671        0.0218       58.9894       59.0112       1.744071       0.00000
  39     1.339       57.2607        0.0530       58.9518       59.0048       1.744071      -0.00000
  38     1.782       57.2570        0.0713       58.9297       59.0010       1.744071       0.00000
  37     2.292       57.2526        0.0925       58.9042       58.9967       1.744071       0.00000
  36     2.964       57.2470        0.1204       58.8706       58.9910       1.744071       0.00000
  35     3.853       57.2394        0.1571       58.8264       58.9835       1.744071      -0.00000
  34     5.035       57.2295        0.2060       58.7676       58.9735       1.744071       0.00000
  33     6.613       57.2162        0.2711       58.6891       58.9602       1.744071       0.00000
  32     8.786       57.1982        0.3589       58.5834       58.9423       1.744071       0.00000
  31     11.80       57.1726        0.4843       58.4324       58.9167       1.744071      -0.00000
  30     15.07       57.1452        0.6186       58.2706       58.8892       1.744071       0.00000
  29     18.79       57.1142        0.7701       58.0882       58.8583       1.744071       0.00000
  28     23.16       57.0781        0.9465       57.8757       58.8222       1.744071      -0.00000
  27     28.12       57.0370        1.1477       57.6333       58.7811       1.744071       0.00000
  26     33.73       56.9911        1.3721       57.3631       58.7352       1.744071       0.00000
  25     40.54       56.9358        1.6420       57.0379       58.6799       1.744071      -0.00000
  24     48.69       56.8695        1.9657       56.6479       58.6136       1.744071      -0.00000
  23     57.69       56.7971        2.3191       56.2221       58.5412       1.744071      -0.00000
  22     68.43       56.7115        2.7370       55.7186       58.4555       1.744071       0.00000
  21     81.20       56.6102        3.2304       55.1239       58.3543       1.744071      -0.00000
  20     96.49       56.4907        3.8120       54.4228       58.2348       1.744071       0.00000
  19     114.6       56.3506        4.4937       53.6010       58.0946       1.744071       0.00000
  18     136.5       56.1868        5.2891       52.6418       57.9308       1.744071      -0.00000
  17     162.9       55.9950        6.2187       51.5203       57.7391       1.744071      -0.00000
  16     196.4       55.7515        7.3962       50.0994       57.4956       1.744071       0.00000
  15     218.7       55.5948        8.1526       49.1863       57.3389       1.744071       0.00000
  14     243.0       55.4272        8.9600       48.2113       57.1713       1.744071       0.00000
  13     269.0       55.2488        9.8179       47.1749       56.9929       1.744071      -0.00000
  12     297.5       55.0596       10.7254       46.0783       56.8037       1.744071       0.00000
  11     328.5       54.8594       11.6839       44.9195       56.6034       1.744071       0.00000
  10     361.9       54.6484       12.6906       43.7018       56.3925       1.744071      -0.00000
   9     398.1       54.4267       13.7457       42.4250       56.1708       1.744071      -0.00000
   8     437.6       54.1945       14.8469       41.0916       55.9386       1.744071       0.00000
   7     480.5       53.9522       15.9918       39.7045       55.6962       1.744071       0.00000
   6     533.0       53.6629       17.3527       38.0543       55.4069       1.744071      -0.00000
   5     589.8       53.3615       18.7625       36.3431       55.1056       1.744071       0.00000
   4     651.6       53.0494       20.2139       34.5795       54.7935       1.744071       0.00000
   3     718.7       52.7274       21.7012       32.7702       54.4714       1.744071      -0.00000
   2     792.3       52.3969       23.2154       30.9256       54.1410       1.744071       0.00000
   1     891.5       51.9728       25.1391       28.5778       53.7169       1.744071       0.00000
   0    1013.0       51.4955       27.2731       25.9665       53.2396       1.744071       0.00000



 Wavenumbers: 29000. - 38000. cm-1, ATM      1
 LEVEL PRESSURE   UPWARD FLUX   DIFDOWN FLUX  DIRDOWN FLUX  DOWNWARD FLUX   NET FLUX    HEATING RATE
          mb          W/m2          W/m2          W/m2        W/m2          W/m2       degree/day
  51    .06700        8.5820        0.0000       20.8114       20.8114      12.229309       0.00000
  50    .07753        8.5819        0.0003       20.8070       20.8074      12.225502       3.05135
  49    .09103        8.5816        0.0007       20.8009       20.8016      12.219966       3.46062
  48    0.1069        8.5814        0.0012       20.7928       20.7939      12.212556       3.94403
  47    0.1255        8.5811        0.0017       20.7820       20.7837      12.202652       4.49004
  46    0.1487        8.5807        0.0024       20.7665       20.7688      12.188090       5.30808
  45    0.1794        8.5803        0.0033       20.7424       20.7457      12.165427       6.22161
  44    0.2165        8.5798        0.0043       20.7103       20.7147      12.134906       6.94291
  43    0.2613        8.5792        0.0056       20.6675       20.6731      12.093914       7.72676
  42    0.3336        8.5783        0.0077       20.5880       20.5956      12.017359       8.92557
  41    0.4307        8.5772        0.0103       20.4722       20.4826      11.905416       9.73324
  40    0.5894        8.5756        0.0147       20.2637       20.2783      11.702750      10.77753
  39     1.339        8.5720        0.0330       19.0984       19.1314      10.559406      12.87198
  38     1.782        8.5723        0.0425       18.4394       18.4819       9.909594      12.37137
  37     2.292        8.5748        0.0527       17.7714       17.8242       9.249409      10.93439
  36     2.964        8.5810        0.0654       17.0421       17.1075       8.526539       9.07420
  35     3.853        8.5933        0.0812       16.2678       16.3491       7.755758       7.31485
  34     5.035        8.6137        0.1013       15.4803       15.5816       6.967852       5.62847
  33     6.613        8.6435        0.1269       14.7157       14.8426       6.199083       4.10984
  32     8.786        8.6828        0.1604       13.9936       14.1540       5.471196       2.82685
  31     11.80        8.7341        0.2072       13.2835       13.4907       4.756630       2.00056
  30     15.07        8.7835        0.2556       12.7394       12.9950       4.211523       1.40736
  29     18.79        8.8344        0.3093       12.2666       12.5759       3.741503       1.06568
  28     23.16        8.8885        0.3704       11.8300       12.2004       3.311901       0.83071
  27     28.12        8.9438        0.4388       11.4279       11.8666       2.922812       0.66143
  26     33.73        8.9947        0.5141       11.0695       11.5836       2.588860       0.50211
  25     40.54        9.0427        0.6041       10.7209       11.3250       2.282280       0.38035
  24     48.69        9.0877        0.7108       10.3742       11.0850       1.997351       0.29486
  23     57.69        9.1242        0.8264       10.0549       10.8813       1.757090       0.22521
  22     68.43        9.1531        0.9618        9.7327       10.6946       1.541511       0.16947
  21     81.20        9.1655        1.1218        9.4134       10.5352       1.369695       0.11353
  20     96.49        9.1595        1.3098        9.0887       10.3985       1.238968       0.07215
  19     114.6        9.1430        1.5269        8.7388       10.2657       1.122661       0.05431
  18     136.5        9.1188        1.7750        8.3549       10.1299       1.011124       0.04289
  17     162.9        9.0868        2.0577        7.9311        9.9888       0.901984       0.03489
  16     196.4        9.0349        2.4076        7.4333        9.8409       0.805989       0.02416
  15     218.7        8.9979        2.6276        7.1295        9.7571       0.759200       0.01776
  14     243.0        8.9574        2.8574        6.8161        9.6735       0.716018       0.01498
  13     269.0        8.9133        3.0962        6.4943        9.5905       0.677265       0.01257
  12     297.5        8.8655        3.3429        6.1657        9.5087       0.643124       0.01013
  11     328.5        8.8155        3.5965        5.8295        9.4260       0.610456       0.00888
  10     361.9        8.7638        3.8545        5.4886        9.3432       0.579410       0.00786
   9     398.1        8.7103        4.1163        5.1440        9.2603       0.550009       0.00685
   8     437.6        8.6556        4.3804        4.7969        9.1773       0.521689       0.00606
   7     480.5        8.6001        4.6446        4.4504        9.0950       0.494829       0.00528
   6     533.0        8.5360        4.9453        4.0563        9.0016       0.465578       0.00471
   5     589.8        8.4721        5.2412        3.6682        8.9093       0.437289       0.00420
   4     651.6        8.4093        5.5284        3.2905        8.8189       0.409646       0.00378
   3     718.7        8.3481        5.8055        2.9252        8.7307       0.382608       0.00340
   2     792.3        8.2892        6.0689        2.5764        8.6453       0.356180       0.00303
   1     891.5        8.2194        6.3771        2.1659        8.5430       0.323608       0.00277
   0    1013.0        8.1492        6.6843        1.7526        8.4369       0.287722       0.00249



 Wavenumbers: 38000. - 50000. cm-1, ATM      1
 LEVEL PRESSURE   UPWARD FLUX   DIFDOWN FLUX  DIRDOWN FLUX  DOWNWARD FLUX   NET FLUX    HEATING RATE
          mb          W/m2          W/m2          W/m2        W/m2          W/m2       degree/day
  51    .06700        0.0061        0.0000        1.2836        1.2836       1.277518       0.00000
  50    .07753        0.0061        0.0001        1.2812        1.2812       1.275183       1.87150
  49    .09103        0.0060        0.0002        1.2777        1.2778       1.271851       2.08247
  48    0.1069        0.0059        0.0002        1.2731        1.2734       1.267473       2.33059
  47    0.1255        0.0058        0.0004        1.2672        1.2675       1.261717       2.60908
  46    0.1487        0.0057        0.0005        1.2586        1.2591       1.253391       3.03499
  45    0.1794        0.0055        0.0007        1.2455        1.2462       1.240623       3.50520
  44    0.2165        0.0054        0.0009        1.2282        1.2291       1.223697       3.85037
  43    0.2613        0.0052        0.0011        1.2054        1.2065       1.201348       4.21261
  42    0.3336        0.0049        0.0015        1.1639        1.1654       1.160524       4.75970
  41    0.4307        0.0045        0.0020        1.1051        1.1070       1.102565       5.03943
  40    0.5894        0.0039        0.0026        1.0039        1.0064       1.002524       5.32007
  39     1.339        0.0022        0.0035        0.5438        0.5473       0.545104       5.14971
  38     1.782        0.0016        0.0032        0.3635        0.3666       0.365006       3.42879
  37     2.292        0.0012        0.0027        0.2356        0.2383       0.237058       2.11916
  36     2.964        0.0009        0.0022        0.1455        0.1477       0.146786       1.13318
  35     3.853        0.0006        0.0017        0.0858        0.0875       0.086906       0.56828
  34     5.035        0.0004        0.0013        0.0488        0.0501       0.049701       0.26578
  33     6.613        0.0003        0.0010        0.0273        0.0282       0.027974       0.11615
  32     8.786        0.0002        0.0007        0.0144        0.0151       0.014928       0.05067
  31     11.80        0.0001        0.0004        0.0065        0.0070       0.006903       0.02247
  30     15.07        0.0000        0.0003        0.0031        0.0034       0.003329       0.00923
  29     18.79        0.0000        0.0002        0.0014        0.0016       0.001583       0.00396
  28     23.16        0.0000        0.0001        0.0006        0.0007       0.000720       0.00167
  27     28.12        0.0000        0.0001        0.0003        0.0003       0.000317       0.00069
  26     33.73        0.0000        0.0000        0.0001        0.0001       0.000140       0.00027
  25     40.54        0.0000        0.0000        0.0000        0.0001       0.000057       0.00010
  24     48.69        0.0000        0.0000        0.0000        0.0000       0.000021       0.00004
  23     57.69        0.0000        0.0000        0.0000        0.0000       0.000008       0.00001
  22     68.43        0.0000        0.0000        0.0000        0.0000       0.000003       0.00000
  21     81.20        0.0000        0.0000        0.0000        0.0000       0.000001       0.00000
  20     96.49        0.0000        0.0000        0.0000        0.0000       0.000000       0.00000
  19     114.6        0.0000        0.0000        0.0000        0.0000       0.000000       0.00000
  18     136.5        0.0000        0.0000        0.0000        0.0000       0.000000       0.00000
  17     162.9        0.0000        0.0000        0.0000        0.0000       0.000000       0.00000
  16     196.4        0.0000        0.0000        0.0000        0.0000       0.000000       0.00000
  15     218.7        0.0000        0.0000        0.0000        0.0000       0.000000       0.00000
  14     243.0        0.0000        0.0000        0.0000        0.0000       0.000000       0.00000
  13     269.0        0.0000        0.0000        0.0000        0.0000       0.000000       0.00000
  12     297.5        0.0000        0.0000        0.0000        0.0000       0.000000       0.00000
  11     328.5        0.0000        0.0000        0.0000        0.0000       0.000000       0.00000
  10     361.9        0.0000        0.0000        0.0000        0.0000       0.000000       0.00000
   9     398.1        0.0000        0.0000        0.0000        0.0000       0.000000       0.00000
   8     437.6        0.0000        0.0000        0.0000        0.0000       0.000000       0.00000
   7     480.5        0.0000        0.0000        0.0000        0.0000       0.000000       0.00000
   6     533.0        0.0000        0.0000        0.0000        0.0000       0.000000       0.00000
   5     589.8        0.0000        0.0000        0.0000        0.0000       0.000000       0.00000
   4     651.6        0.0000        0.0000        0.0000        0.0000       0.000000       0.00000
   3     718.7        0.0000        0.0000        0.0000        0.0000       0.000000       0.00000
   2     792.3        0.0000        0.0000        0.0000        0.0000       0.000000       0.00000
   1     891.5        0.0000        0.0000        0.0000        0.0000       0.000000       0.00000
   0    1013.0        0.0000        0.0000        0.0000        0.0000       0.000000       0.00000



 Wavenumbers:   820. -  2600. cm-1, ATM      1
 LEVEL PRESSURE   UPWARD FLUX   DIFDOWN FLUX  DIRDOWN FLUX  DOWNWARD FLUX   NET FLUX    HEATING RATE
          mb          W/m2          W/m2          W/m2        W/m2          W/m2       degree/day
  51    .06700        0.5941        0.0000        6.0047        6.0047       5.410552       0.00000
  50    .07753        0.5941        0.0000        6.0008        6.0008       5.406699       3.08820
  49    .09103        0.5941        0.0000        5.9999        5.9999       5.405813       0.55357
  48    0.1069        0.5941        0.0000        5.9989        5.9989       5.404824       0.52651
  47    0.1255        0.5941        0.0000        5.9978        5.9978       5.403707       0.50649
  46    0.1487        0.5941        0.0000        5.9964        5.9964       5.402350       0.49456
  45    0.1794        0.5941        0.0000        5.9947        5.9947       5.400631       0.47199
  44    0.2165        0.5941        0.0000        5.9929        5.9929       5.398789       0.41909
  43    0.2613        0.5941        0.0000        5.9909        5.9909       5.396829       0.36932
  42    0.3336        0.5941        0.0000        5.9880        5.9880       5.393951       0.33555
  41    0.4307        0.5941        0.0000        5.9846        5.9846       5.390482       0.30163
  40    0.5894        0.5941        0.0000        5.9791        5.9791       5.384977       0.29275
  39     1.339        0.5941        0.0000        5.9536        5.9536       5.359491       0.28693
  38     1.782        0.5941        0.0000        5.9395        5.9395       5.345353       0.26916
  37     2.292        0.5941        0.0000        5.9237        5.9237       5.329603       0.26087
  36     2.964        0.5941        0.0000        5.9039        5.9039       5.309830       0.24821
  35     3.853        0.5941        0.0000        5.8793        5.8793       5.285175       0.23398
  34     5.035        0.5941        0.0000        5.8487        5.8487       5.254613       0.21832
  33     6.613        0.5941        0.0000        5.8108        5.8108       5.216650       0.20295
  32     8.786        0.5941        0.0000        5.7631        5.7631       5.169029       0.18494
  31     11.80        0.5941        0.0000        5.7039        5.7039       5.109775       0.16589
  30     15.07        0.5941        0.0000        5.6539        5.6539       5.059739       0.12918
  29     18.79        0.5941        0.0000        5.6127        5.6127       5.018605       0.09326
  28     23.16        0.5941        0.0000        5.5794        5.5794       4.985230       0.06454
  27     28.12        0.5941        0.0000        5.5518        5.5518       4.957664       0.04686
  26     33.73        0.5942        0.0000        5.5268        5.5268       4.932610       0.03767
  25     40.54        0.5942        0.0000        5.4993        5.4993       4.905163       0.03405
  24     48.69        0.5942        0.0000        5.4678        5.4678       4.873616       0.03265
  23     57.69        0.5942        0.0000        5.4340        5.4340       4.839820       0.03168
  22     68.43        0.5942        0.0000        5.3947        5.3948       4.800536       0.03088
  21     81.20        0.5942        0.0000        5.3497        5.3497       4.755488       0.02977
  20     96.49        0.5943        0.0000        5.2982        5.2982       4.703955       0.02844
  19     114.6        0.5943        0.0000        5.2389        5.2389       4.644609       0.02771
  18     136.5        0.5943        0.0000        5.1716        5.1717       4.577322       0.02587
  17     162.9        0.5944        0.0000        5.0890        5.0890       4.494645       0.02643
  16     196.4        0.5945        0.0000        4.9668        4.9668       4.372327       0.03079
  15     218.7        0.5946        0.0000        4.8585        4.8585       4.263862       0.04118
  14     243.0        0.5948        0.0000        4.7078        4.7079       4.113076       0.05230
  13     269.0        0.5950        0.0000        4.5343        4.5343       3.939235       0.05639
  12     297.5        0.5955        0.0000        4.3419        4.3420       3.746489       0.05717
  11     328.5        0.5961        0.0000        4.1281        4.1281       3.532080       0.05830
  10     361.9        0.5969        0.0000        3.8786        3.8787       3.281818       0.06332
   9     398.1        0.5979        0.0000        3.6159        3.6159       3.018040       0.06145
   8     437.6        0.5993        0.0000        3.3759        3.3759       2.776597       0.05162
   7     480.5        0.6010        0.0000        3.1957        3.1958       2.594773       0.03571
   6     533.0        0.6037        0.0000        3.0467        3.0467       2.443017       0.02441
   5     589.8        0.6077        0.0000        2.9023        2.9023       2.294600       0.02203
   4     651.6        0.6150        0.0000        2.7183        2.7184       2.103350       0.02615
   3     718.7        0.6277        0.0000        2.5058        2.5059       1.878176       0.02830
   2     792.3        0.6510        0.0000        2.2756        2.2757       1.624679       0.02907
   1     891.5        0.7103        0.0000        1.9621        1.9622       1.251812       0.03173
   0    1013.0        0.8598        0.0000        1.5468        1.5469       0.687121       0.03921

  Modules and versions used in this calculation:

       rrtmg_sw.1col.f90:  $Revision$                    rrtmg_sw_init.f90:  $Revision$        
     rrtmgsw_cldprop.f90:  $Revision$                  rrtmgsw_cldprmc.f90:  NOT USED          
     rrtmg_sw_reftra.f90:  $Revision$                  rrtmg_sw_spcvrt.f90:  NOT USED          
     rrtmg_sw_spcvmc.f90:  NOT USED                    rrtmgsw_setcoef.f90:  NOT USED          
     rrtmg_sw_taumol.f90:  $Revision$                  rrtmg_sw_vrtqdr.f90:  NOT USED          
                rrtatm.f:  NOT USED                             util_xxx.f:  NOT USED          
                 extra.f:  NOT USED                       rrtmg_sw_k_g.f90:  $Revision$        

