

 Wavenumbers:   820. - 50000. cm-1, ATM      1
 LEVEL PRESSURE   UPWARD FLUX   DIFDOWN FLUX  DIRDOWN FLUX  DOWNWARD FLUX   NET FLUX    HEATING RATE
          mb          W/m2          W/m2          W/m2        W/m2          W/m2       degree/day
  51    .06700      369.2388        0.0000      617.8126      617.8126     248.573752       0.00000
  50    .07753      369.2384        0.0013      617.7947      617.7961     248.557616      12.93270
  49    .09103      369.2380        0.0030      617.7778      617.7808     248.542813       9.25226
  48    0.1069      369.2375        0.0049      617.7581      617.7630     248.525561       9.18364
  47    0.1255      369.2369        0.0072      617.7340      617.7411     248.504228       9.67139
  46    0.1487      369.2363        0.0100      617.7009      617.7108     248.474559      10.81460
  45    0.1794      369.2355        0.0138      617.6521      617.6659     248.430354      12.13531
  44    0.2165      369.2347        0.0183      617.5895      617.6078     248.373067      13.03167
  43    0.2613      369.2339        0.0236      617.5089      617.5325     248.298601      14.03652
  42    0.3336      369.2329        0.0324      617.3641      617.3965     248.163605      15.73932
  41    0.4307      369.2319        0.0439      617.1591      617.2030     247.971113      16.73671
  40    0.5894      369.2313        0.0625      616.8005      616.8630     247.631671      18.05107
  39     1.339      369.2460        0.1466      614.9443      615.0908     245.844876      20.11607
  38     1.782      369.2668        0.1939      613.9670      614.1609     244.894152      18.10025
  37     2.292      369.3018        0.2477      613.0059      613.2536     243.951754      15.60858
  36     2.964      369.3645        0.3176      611.9577      612.2753     242.910851      13.06647
  35     3.853      369.4703        0.4094      610.8024      611.2118     241.741498      11.09738
  34     5.035      369.6335        0.5304      609.5327      610.0631     240.429553       9.37199
  33     6.613      369.8637        0.6910      608.1464      608.8374     238.973676       7.78312
  32     8.786      370.1635        0.9064      606.6250      607.5315     237.367984       6.23593
  31     11.80      370.5510        1.2132      604.8486      606.0618     235.510827       5.19945
  30     15.07      370.9190        1.5405      603.2440      604.7844     233.865454       4.24803
  29     18.79      371.2917        1.9087      601.6511      603.5598     232.268156       3.62157
  28     23.16      371.6775        2.3365      599.9927      602.3293     230.651715       3.12567
  27     28.12      372.0608        2.8235      598.2881      601.1116     229.050739       2.72155
  26     33.73      372.4049        3.3663      596.5951      599.9614     227.556510       2.24661
  25     40.54      372.7218        4.0198      594.7727      598.7925     226.070768       1.84323
  24     48.69      373.0080        4.8039      592.7865      597.5904     224.582454       1.54017
  23     57.69      373.2294        5.6610      590.7959      596.4569     223.227469       1.27010
  22     68.43      373.3923        6.6763      588.6191      595.2954     221.903063       1.04116
  21     81.20      373.4461        7.8799      586.2690      594.1488     220.702710       0.79317
  20     96.49      373.3802        9.3047      583.6961      593.0008     219.620650       0.59722
  19     114.6      373.2501       10.9808      580.7708      591.7516     218.501591       0.52252
  18     136.5      373.0529       12.9431      577.4359      590.3790     217.326083       0.45201
  17     162.9      372.7814       15.2454      573.5624      588.8079     216.026439       0.41542
  16     196.4      372.3448       18.1808      568.5907      586.7715     214.426683       0.40268
  15     218.7      372.0299       20.0782      565.0572      585.1355     213.105536       0.50159
  14     243.0      371.6782       22.1130      560.7495      582.8625     211.184367       0.66633
  13     269.0      371.2886       24.2864      555.3947      579.6811     208.392446       0.90569
  12     297.5      370.8629       26.5989      548.9964      575.5953     204.732365       1.08554
  11     328.5      370.4083       29.0569      542.0895      571.1464     200.738178       1.08601
  10     361.9      369.9277       31.6564      534.6242      566.2806     196.352959       1.10950
   9     398.1      369.4244       34.4019      526.4204      560.8223     191.397911       1.15441
   8     437.6      368.9071       37.2918      517.3907      554.6824     185.775296       1.20215
   7     480.5      368.3836       40.3240      507.7216      548.0456     179.661968       1.20063
   6     533.0      367.7957       43.9681      495.9006      539.8688     172.073067       1.22081
   5     589.8      367.2610       47.7904      483.0788      530.8692     163.608236       1.25646
   4     651.6      366.8778       51.7782      468.6907      520.4688     153.591001       1.36988
   3     718.7      366.7540       55.9232      453.2257      509.1489     142.394941       1.40703
   2     792.3      367.1451       60.2040      436.4928      496.6968     129.551682       1.47298
   1     891.5      369.0101       65.7320      413.9344      479.6664     110.656334       1.60790
   0    1013.0      374.6129       72.0156      388.4125      460.4281      85.815238       1.72484



 Wavenumbers:  2600. -  3250. cm-1, ATM      1
 LEVEL PRESSURE   UPWARD FLUX   DIFDOWN FLUX  DIRDOWN FLUX  DOWNWARD FLUX   NET FLUX    HEATING RATE
          mb          W/m2          W/m2          W/m2        W/m2          W/m2       degree/day
  51    .06700        0.9443        0.0000        5.4450        5.4450       4.500782       0.00000
  50    .07753        0.9443        0.0000        5.4450        5.4450       4.500774       0.00640
  49    .09103        0.9443        0.0000        5.4450        5.4450       4.500764       0.00627
  48    0.1069        0.9443        0.0000        5.4450        5.4450       4.500753       0.00613
  47    0.1255        0.9443        0.0000        5.4450        5.4450       4.500740       0.00599
  46    0.1487        0.9443        0.0000        5.4450        5.4450       4.500723       0.00608
  45    0.1794        0.9443        0.0000        5.4450        5.4450       4.500700       0.00625
  44    0.2165        0.9443        0.0000        5.4449        5.4449       4.500673       0.00612
  43    0.2613        0.9443        0.0000        5.4449        5.4449       4.500641       0.00600
  42    0.3336        0.9443        0.0000        5.4448        5.4448       4.500588       0.00617
  41    0.4307        0.9443        0.0000        5.4448        5.4448       4.500517       0.00620
  40    0.5894        0.9443        0.0000        5.4446        5.4446       4.500397       0.00637
  39     1.339        0.9443        0.0000        5.4439        5.4439       4.499690       0.00797
  38     1.782        0.9443        0.0000        5.4434        5.4434       4.499147       0.01034
  37     2.292        0.9443        0.0000        5.4427        5.4427       4.498431       0.01186
  36     2.964        0.9443        0.0000        5.4416        5.4416       4.497392       0.01304
  35     3.853        0.9443        0.0000        5.4402        5.4402       4.495915       0.01402
  34     5.035        0.9443        0.0000        5.4381        5.4381       4.493859       0.01468
  33     6.613        0.9442        0.0000        5.4353        5.4353       4.491078       0.01487
  32     8.786        0.9442        0.0000        5.4317        5.4317       4.487446       0.01411
  31     11.80        0.9442        0.0000        5.4269        5.4269       4.482666       0.01338
  30     15.07        0.9442        0.0000        5.4224        5.4224       4.478139       0.01169
  29     18.79        0.9442        0.0000        5.4180        5.4180       4.473726       0.01000
  28     23.16        0.9442        0.0000        5.4135        5.4135       4.469239       0.00868
  27     28.12        0.9443        0.0000        5.4088        5.4088       4.464590       0.00790
  26     33.73        0.9443        0.0000        5.4036        5.4036       4.459348       0.00788
  25     40.54        0.9443        0.0000        5.3966        5.3967       4.452403       0.00862
  24     48.69        0.9443        0.0000        5.3872        5.3872       4.442921       0.00981
  23     57.69        0.9443        0.0000        5.3754        5.3754       4.431130       0.01105
  22     68.43        0.9443        0.0000        5.3599        5.3599       4.415631       0.01218
  21     81.20        0.9443        0.0000        5.3401        5.3401       4.395782       0.01312
  20     96.49        0.9443        0.0000        5.3155        5.3155       4.371194       0.01357
  19     114.6        0.9444        0.0000        5.2853        5.2854       4.340966       0.01411
  18     136.5        0.9445        0.0001        5.2504        5.2505       4.306014       0.01344
  17     162.9        0.9445        0.0001        5.2111        5.2112       4.266604       0.01260
  16     196.4        0.9447        0.0001        5.1640        5.1641       4.219395       0.01188
  15     218.7        0.9449        0.0001        5.1331        5.1332       4.188294       0.01181
  14     243.0        0.9452        0.0001        5.0962        5.0963       4.151095       0.01290
  13     269.0        0.9457        0.0001        5.0511        5.0512       4.105492       0.01479
  12     297.5        0.9464        0.0001        4.9956        4.9957       4.049280       0.01667
  11     328.5        0.9475        0.0001        4.9304        4.9305       3.983039       0.01801
  10     361.9        0.9488        0.0001        4.8511        4.8512       3.902394       0.02040
   9     398.1        0.9507        0.0001        4.7507        4.7508       3.800112       0.02383
   8     437.6        0.9533        0.0002        4.6220        4.6222       3.668929       0.02805
   7     480.5        0.9567        0.0002        4.4625        4.4626       3.505941       0.03201
   6     533.0        0.9622        0.0002        4.2460        4.2462       3.284052       0.03569
   5     589.8        0.9703        0.0002        3.9954        3.9956       3.025340       0.03840
   4     651.6        0.9830        0.0002        3.7089        3.7090       2.726028       0.04093
   3     718.7        1.0028        0.0002        3.4018        3.4020       2.399217       0.04107
   2     792.3        1.0352        0.0002        3.0564        3.0566       2.021473       0.04332
   1     891.5        1.1084        0.0002        2.5828        2.5830       1.474632       0.04653
   0    1013.0        1.2804        0.0002        2.0845        2.0847       0.804262       0.04655



 Wavenumbers:  3250. -  4000. cm-1, ATM      1
 LEVEL PRESSURE   UPWARD FLUX   DIFDOWN FLUX  DIRDOWN FLUX  DOWNWARD FLUX   NET FLUX    HEATING RATE
          mb          W/m2          W/m2          W/m2        W/m2          W/m2       degree/day
  51    .06700        0.0005        0.0000        9.1795        9.1795       9.179003       0.00000
  50    .07753        0.0005        0.0000        9.1747        9.1747       9.174161       3.88148
  49    .09103        0.0005        0.0000        9.1713        9.1713       9.170773       2.11747
  48    0.1069        0.0005        0.0000        9.1688        9.1688       9.168248       1.34402
  47    0.1255        0.0005        0.0000        9.1665        9.1665       9.165989       1.02422
  46    0.1487        0.0005        0.0000        9.1641        9.1641       9.163547       0.88991
  45    0.1794        0.0005        0.0000        9.1612        9.1612       9.160669       0.79008
  44    0.2165        0.0005        0.0000        9.1583        9.1583       9.157749       0.66430
  43    0.2613        0.0005        0.0000        9.1553        9.1553       9.154776       0.56041
  42    0.3336        0.0005        0.0000        9.1511        9.1511       9.150597       0.48723
  41    0.4307        0.0005        0.0000        9.1464        9.1464       9.145829       0.41459
  40    0.5894        0.0005        0.0000        9.1393        9.1394       9.138823       0.37255
  39     1.339        0.0005        0.0000        9.1127        9.1127       9.112209       0.29962
  38     1.782        0.0005        0.0000        9.1011        9.1011       9.100621       0.22062
  37     2.292        0.0005        0.0000        9.0901        9.0901       9.089555       0.18329
  36     2.964        0.0005        0.0000        9.0776        9.0776       9.077125       0.15603
  35     3.853        0.0005        0.0000        9.0629        9.0629       9.062335       0.14036
  34     5.035        0.0005        0.0000        9.0441        9.0441       9.043596       0.13386
  33     6.613        0.0005        0.0000        9.0191        9.0191       9.018594       0.13366
  32     8.786        0.0005        0.0000        8.9843        8.9843       8.983811       0.13509
  31     11.80        0.0005        0.0000        8.9327        8.9327       8.932194       0.14451
  30     15.07        0.0005        0.0000        8.8758        8.8759       8.875349       0.14676
  29     18.79        0.0005        0.0000        8.8110        8.8110       8.810522       0.14698
  28     23.16        0.0005        0.0000        8.7365        8.7366       8.736077       0.14395
  27     28.12        0.0005        0.0000        8.6554        8.6555       8.654964       0.13789
  26     33.73        0.0005        0.0000        8.5719        8.5719       8.571465       0.12554
  25     40.54        0.0005        0.0001        8.4812        8.4812       8.480741       0.11255
  24     48.69        0.0005        0.0001        8.3838        8.3839       8.383440       0.10069
  23     57.69        0.0005        0.0001        8.2861        8.2862       8.285704       0.09161
  22     68.43        0.0004        0.0001        8.1751        8.1751       8.174708       0.08726
  21     81.20        0.0004        0.0001        8.0457        8.0458       8.045350       0.08548
  20     96.49        0.0004        0.0001        7.8949        7.8950       7.894646       0.08318
  19     114.6        0.0004        0.0001        7.7162        7.7163       7.715937       0.08344
  18     136.5        0.0004        0.0002        7.5193        7.5194       7.519093       0.07569
  17     162.9        0.0003        0.0002        7.2913        7.2915       7.291202       0.07284
  16     196.4        0.0003        0.0002        6.9660        6.9662       6.965929       0.08187
  15     218.7        0.0003        0.0002        6.6648        6.6650       6.664741       0.11435
  14     243.0        0.0002        0.0002        6.2619        6.2622       6.261946       0.13970
  13     269.0        0.0002        0.0003        5.7576        5.7579       5.757647       0.16359
  12     297.5        0.0002        0.0003        5.1719        5.1722       5.171956       0.17371
  11     328.5        0.0002        0.0002        4.5757        4.5760       4.575797       0.16209
  10     361.9        0.0002        0.0002        3.9995        3.9998       3.999622       0.14578
   9     398.1        0.0001        0.0002        3.4655        3.4657       3.465566       0.12442
   8     437.6        0.0001        0.0002        2.9740        2.9742       2.974118       0.10507
   7     480.5        0.0001        0.0002        2.5307        2.5309       2.530746       0.08708
   6     533.0        0.0001        0.0002        2.0614        2.0616       2.061450       0.07549
   5     589.8        0.0001        0.0002        1.6150        1.6151       1.615021       0.06626
   4     651.6        0.0001        0.0001        1.1565        1.1566       1.156476       0.06271
   3     718.7        0.0001        0.0001        0.7390        0.7391       0.738975       0.05247
   2     792.3        0.0002        0.0001        0.3985        0.3985       0.398321       0.03907
   1     891.5        0.0006        0.0000        0.1139        0.1139       0.113351       0.02425
   0    1013.0        0.0058        0.0000        0.0094        0.0094       0.003620       0.00762



 Wavenumbers:  4000. -  4650. cm-1, ATM      1
 LEVEL PRESSURE   UPWARD FLUX   DIFDOWN FLUX  DIRDOWN FLUX  DOWNWARD FLUX   NET FLUX    HEATING RATE
          mb          W/m2          W/m2          W/m2        W/m2          W/m2       degree/day
  51    .06700        3.8138        0.0000       10.7795       10.7795       6.965774       0.00000
  50    .07753        3.8138        0.0000       10.7795       10.7795       6.965773       0.00080
  49    .09103        3.8138        0.0000       10.7795       10.7795       6.965772       0.00078
  48    0.1069        3.8138        0.0000       10.7795       10.7795       6.965771       0.00076
  47    0.1255        3.8138        0.0000       10.7795       10.7795       6.965769       0.00075
  46    0.1487        3.8138        0.0000       10.7795       10.7795       6.965767       0.00076
  45    0.1794        3.8138        0.0000       10.7795       10.7795       6.965764       0.00078
  44    0.2165        3.8138        0.0000       10.7795       10.7795       6.965761       0.00076
  43    0.2613        3.8138        0.0000       10.7795       10.7795       6.965757       0.00075
  42    0.3336        3.8138        0.0000       10.7795       10.7795       6.965750       0.00077
  41    0.4307        3.8138        0.0000       10.7795       10.7795       6.965741       0.00077
  40    0.5894        3.8138        0.0000       10.7795       10.7795       6.965726       0.00080
  39     1.339        3.8138        0.0000       10.7794       10.7794       6.965637       0.00101
  38     1.782        3.8138        0.0000       10.7793       10.7793       6.965567       0.00133
  37     2.292        3.8138        0.0000       10.7792       10.7792       6.965473       0.00156
  36     2.964        3.8138        0.0000       10.7791       10.7791       6.965333       0.00176
  35     3.853        3.8138        0.0000       10.7789       10.7789       6.965125       0.00197
  34     5.035        3.8138        0.0000       10.7786       10.7786       6.964818       0.00219
  33     6.613        3.8138        0.0000       10.7781       10.7781       6.964367       0.00241
  32     8.786        3.8137        0.0000       10.7774       10.7774       6.963700       0.00259
  31     11.80        3.8137        0.0001       10.7763       10.7764       6.962653       0.00293
  30     15.07        3.8137        0.0001       10.7751       10.7752       6.961425       0.00317
  29     18.79        3.8137        0.0001       10.7736       10.7737       6.959940       0.00337
  28     23.16        3.8137        0.0001       10.7717       10.7718       6.958097       0.00356
  27     28.12        3.8137        0.0001       10.7695       10.7696       6.955866       0.00379
  26     33.73        3.8137        0.0001       10.7667       10.7668       6.953115       0.00414
  25     40.54        3.8137        0.0002       10.7629       10.7631       6.949386       0.00463
  24     48.69        3.8137        0.0002       10.7579       10.7581       6.944418       0.00514
  23     57.69        3.8137        0.0003       10.7520       10.7523       6.938531       0.00552
  22     68.43        3.8137        0.0003       10.7446       10.7449       6.931156       0.00580
  21     81.20        3.8138        0.0004       10.7355       10.7359       6.922079       0.00600
  20     96.49        3.8139        0.0004       10.7245       10.7249       6.911041       0.00609
  19     114.6        3.8140        0.0005       10.7107       10.7112       6.897248       0.00644
  18     136.5        3.8141        0.0006       10.6942       10.6948       6.880642       0.00639
  17     162.9        3.8144        0.0007       10.6740       10.6747       6.860301       0.00650
  16     196.4        3.8149        0.0008       10.6464       10.6472       6.832273       0.00706
  15     218.7        3.8154        0.0009       10.6255       10.6264       6.810965       0.00809
  14     243.0        3.8162        0.0010       10.5980       10.5991       6.782890       0.00974
  13     269.0        3.8174        0.0012       10.5611       10.5622       6.744848       0.01234
  12     297.5        3.8192        0.0013       10.5119       10.5132       6.694027       0.01507
  11     328.5        3.8217        0.0014       10.4499       10.4513       6.629595       0.01752
  10     361.9        3.8250        0.0015       10.3702       10.3717       6.546757       0.02096
   9     398.1        3.8290        0.0017       10.2678       10.2695       6.440426       0.02477
   8     437.6        3.8341        0.0018       10.1390       10.1408       6.306692       0.02859
   7     480.5        3.8404        0.0020        9.9877        9.9897       6.149230       0.03092
   6     533.0        3.8498        0.0022        9.7937        9.7958       5.945987       0.03270
   5     589.8        3.8629        0.0023        9.5752        9.5775       5.714606       0.03434
   4     651.6        3.8827        0.0025        9.2958        9.2983       5.415638       0.04088
   3     718.7        3.9134        0.0027        8.9267        8.9294       5.016069       0.05021
   2     792.3        3.9639        0.0029        8.4542        8.4571       4.493222       0.05996
   1     891.5        4.0797        0.0030        7.7948        7.7978       3.718142       0.06596
   0    1013.0        4.3487        0.0032        7.0767        7.0798       2.731159       0.06853



 Wavenumbers:  4650. -  5150. cm-1, ATM      1
 LEVEL PRESSURE   UPWARD FLUX   DIFDOWN FLUX  DIRDOWN FLUX  DOWNWARD FLUX   NET FLUX    HEATING RATE
          mb          W/m2          W/m2          W/m2        W/m2          W/m2       degree/day
  51    .06700        2.6858        0.0000       10.2033       10.2033       7.517520       0.00000
  50    .07753        2.6858        0.0000       10.2031       10.2031       7.517284       0.18901
  49    .09103        2.6858        0.0000       10.2028       10.2028       7.516989       0.18428
  48    0.1069        2.6858        0.0000       10.2025       10.2025       7.516652       0.17931
  47    0.1255        2.6858        0.0000       10.2021       10.2021       7.516268       0.17426
  46    0.1487        2.6858        0.0000       10.2016       10.2016       7.515787       0.17536
  45    0.1794        2.6858        0.0000       10.2010       10.2010       7.515136       0.17850
  44    0.2165        2.6858        0.0000       10.2002       10.2002       7.514377       0.17277
  43    0.2613        2.6858        0.0000       10.1993       10.1993       7.513491       0.16690
  42    0.3336        2.6858        0.0000       10.1979       10.1979       7.512059       0.16702
  41    0.4307        2.6858        0.0000       10.1960       10.1960       7.510219       0.16002
  40    0.5894        2.6858        0.0000       10.1932       10.1932       7.507345       0.15283
  39     1.339        2.6858        0.0000       10.1816       10.1816       7.495753       0.13050
  38     1.782        2.6858        0.0000       10.1760       10.1760       7.490225       0.10526
  37     2.292        2.6858        0.0000       10.1706       10.1706       7.484768       0.09037
  36     2.964        2.6858        0.0000       10.1646       10.1647       7.478845       0.07435
  35     3.853        2.6858        0.0000       10.1584       10.1584       7.472631       0.05897
  34     5.035        2.6858        0.0000       10.1521       10.1521       7.466296       0.04526
  33     6.613        2.6858        0.0000       10.1456       10.1456       7.459840       0.03452
  32     8.786        2.6858        0.0001       10.1386       10.1386       7.452830       0.02722
  31     11.80        2.6858        0.0001       10.1295       10.1296       7.443791       0.02531
  30     15.07        2.6858        0.0001       10.1196       10.1197       7.433914       0.02550
  29     18.79        2.6858        0.0001       10.1076       10.1077       7.421908       0.02722
  28     23.16        2.6858        0.0001       10.0923       10.0924       7.406606       0.02959
  27     28.12        2.6858        0.0002       10.0731       10.0733       7.387513       0.03246
  26     33.73        2.6858        0.0002       10.0500       10.0503       7.364421       0.03472
  25     40.54        2.6859        0.0003       10.0201       10.0204       7.334519       0.03710
  24     48.69        2.6859        0.0003        9.9820        9.9823       7.296348       0.03950
  23     57.69        2.6860        0.0004        9.9384        9.9388       7.252808       0.04081
  22     68.43        2.6861        0.0004        9.8858        9.8862       7.200071       0.04146
  21     81.20        2.6863        0.0005        9.8234        9.8240       7.137671       0.04123
  20     96.49        2.6865        0.0006        9.7518        9.7524       7.065837       0.03965
  19     114.6        2.6869        0.0007        9.6719        9.6726       6.985757       0.03739
  18     136.5        2.6874        0.0008        9.5858        9.5866       6.899273       0.03326
  17     162.9        2.6881        0.0010        9.4940        9.4950       6.806970       0.02950
  16     196.4        2.6892        0.0012        9.3883        9.3895       6.700300       0.02685
  15     218.7        2.6901        0.0013        9.3229        9.3242       6.634178       0.02510
  14     243.0        2.6912        0.0014        9.2520        9.2534       6.562187       0.02497
  13     269.0        2.6929        0.0016        9.1717        9.1733       6.480374       0.02654
  12     297.5        2.6952        0.0017        9.0763        9.0780       6.382782       0.02894
  11     328.5        2.6984        0.0019        8.9650        8.9669       6.268518       0.03107
  10     361.9        2.7024        0.0021        8.8349        8.8370       6.134595       0.03388
   9     398.1        2.7077        0.0023        8.6820        8.6843       5.976610       0.03681
   8     437.6        2.7145        0.0024        8.5028        8.5052       5.790742       0.03974
   7     480.5        2.7233        0.0026        8.2948        8.2974       5.574090       0.04255
   6     533.0        2.7368        0.0028        8.0209        8.0237       5.286964       0.04619
   5     589.8        2.7552        0.0030        7.7063        7.7094       4.954141       0.04940
   4     651.6        2.7822        0.0032        7.3412        7.3445       4.562315       0.05358
   3     718.7        2.8217        0.0034        6.9387        6.9421       4.120337       0.05554
   2     792.3        2.8817        0.0036        6.5066        6.5102       3.628413       0.05642
   1     891.5        3.0067        0.0037        5.9361        5.9398       2.933092       0.05917
   0    1013.0        3.2595        0.0039        5.3025        5.3064       2.046896       0.06153



 Wavenumbers:  5150. -  6150. cm-1, ATM      1
 LEVEL PRESSURE   UPWARD FLUX   DIFDOWN FLUX  DIRDOWN FLUX  DOWNWARD FLUX   NET FLUX    HEATING RATE
          mb          W/m2          W/m2          W/m2        W/m2          W/m2       degree/day
  51    .06700        6.8615        0.0000       25.5798       25.5798      18.718310       0.00000
  50    .07753        6.8615        0.0000       25.5798       25.5798      18.718271       0.03158
  49    .09103        6.8615        0.0000       25.5797       25.5797      18.718220       0.03207
  48    0.1069        6.8615        0.0000       25.5797       25.5797      18.718158       0.03258
  47    0.1255        6.8615        0.0000       25.5796       25.5796      18.718085       0.03308
  46    0.1487        6.8615        0.0000       25.5795       25.5795      18.717990       0.03485
  45    0.1794        6.8615        0.0000       25.5794       25.5794      18.717855       0.03709
  44    0.2165        6.8615        0.0000       25.5792       25.5792      18.717689       0.03766
  43    0.2613        6.8615        0.0000       25.5790       25.5790      18.717486       0.03823
  42    0.3336        6.8615        0.0000       25.5786       25.5786      18.717140       0.04040
  41    0.4307        6.8615        0.0000       25.5782       25.5782      18.716669       0.04094
  40    0.5894        6.8615        0.0000       25.5774       25.5774      18.715880       0.04195
  39     1.339        6.8615        0.0000       25.5735       25.5736      18.712080       0.04278
  38     1.782        6.8615        0.0001       25.5713       25.5714      18.709868       0.04211
  37     2.292        6.8615        0.0001       25.5688       25.5688      18.707365       0.04146
  36     2.964        6.8615        0.0001       25.5656       25.5657      18.704184       0.03992
  35     3.853        6.8615        0.0001       25.5615       25.5616      18.700143       0.03836
  34     5.035        6.8614        0.0001       25.5562       25.5564      18.694938       0.03718
  33     6.613        6.8614        0.0002       25.5494       25.5496      18.688187       0.03609
  32     8.786        6.8614        0.0003       25.5406       25.5409      18.679440       0.03397
  31     11.80        6.8614        0.0003       25.5287       25.5290      18.667610       0.03312
  30     15.07        6.8614        0.0004       25.5167       25.5171      18.655750       0.03062
  29     18.79        6.8614        0.0006       25.5042       25.5047      18.643351       0.02811
  28     23.16        6.8614        0.0007       25.4907       25.4914      18.629998       0.02582
  27     28.12        6.8613        0.0008       25.4764       25.4773      18.615920       0.02393
  26     33.73        6.8613        0.0010       25.4620       25.4630      18.601657       0.02144
  25     40.54        6.8614        0.0012       25.4463       25.4474      18.586066       0.01934
  24     48.69        6.8614        0.0014       25.4294       25.4308      18.569376       0.01727
  23     57.69        6.8615        0.0017       25.4126       25.4143      18.552813       0.01553
  22     68.43        6.8616        0.0020       25.3944       25.3964      18.534835       0.01413
  21     81.20        6.8617        0.0024       25.3744       25.3768      18.515058       0.01307
  20     96.49        6.8619        0.0028       25.3519       25.3547      18.492839       0.01226
  19     114.6        6.8621        0.0033       25.3262       25.3295      18.467362       0.01190
  18     136.5        6.8624        0.0040       25.2962       25.3002      18.437710       0.01140
  17     162.9        6.8628        0.0047       25.2521       25.2568      18.393973       0.01398
  16     196.4        6.8634        0.0057       25.1593       25.1650      18.301576       0.02326
  15     218.7        6.8638        0.0063       25.0159       25.0222      18.158413       0.05435
  14     243.0        6.8643        0.0069       24.7089       24.7158      17.851509       0.10644
  13     269.0        6.8650        0.0075       24.1619       24.1694      17.304378       0.17749
  12     297.5        6.8659        0.0081       23.4544       23.4625      16.596573       0.20993
  11     328.5        6.8672        0.0087       22.7355       22.7442      15.877053       0.19564
  10     361.9        6.8687        0.0094       21.9224       21.9318      15.063053       0.20595
   9     398.1        6.8708        0.0099       20.9939       21.0039      14.133084       0.21666
   8     437.6        6.8735        0.0105       19.9833       19.9938      13.120339       0.21653
   7     480.5        6.8771        0.0110       18.9483       18.9593      12.082263       0.20387
   6     533.0        6.8828        0.0116       17.7796       17.7912      10.908438       0.18883
   5     589.8        6.8915        0.0122       16.6726       16.6848       9.793333       0.16552
   4     651.6        6.9063        0.0129       15.6343       15.6472       8.740898       0.14392
   3     718.7        6.9314        0.0136       14.7738       14.7873       7.855985       0.11121
   2     792.3        6.9764        0.0143       14.0291       14.0435       7.067036       0.09048
   1     891.5        7.0899        0.0153       13.0822       13.0975       6.007613       0.09015
   0    1013.0        7.4053        0.0163       12.0384       12.0547       4.649449       0.09430



 Wavenumbers:  6150. -  7700. cm-1, ATM      1
 LEVEL PRESSURE   UPWARD FLUX   DIFDOWN FLUX  DIRDOWN FLUX  DOWNWARD FLUX   NET FLUX    HEATING RATE
          mb          W/m2          W/m2          W/m2        W/m2          W/m2       degree/day
  51    .06700       10.1138        0.0000       47.3109       47.3109      37.197075       0.00000
  50    .07753       10.1138        0.0000       47.3108       47.3108      37.197018       0.04553
  49    .09103       10.1138        0.0000       47.3107       47.3107      37.196945       0.04583
  48    0.1069       10.1138        0.0000       47.3106       47.3106      37.196858       0.04614
  47    0.1255       10.1138        0.0000       47.3105       47.3105      37.196756       0.04645
  46    0.1487       10.1138        0.0000       47.3104       47.3104      37.196623       0.04852
  45    0.1794       10.1138        0.0000       47.3102       47.3102      37.196436       0.05127
  44    0.2165       10.1138        0.0000       47.3100       47.3100      37.196209       0.05167
  43    0.2613       10.1138        0.0000       47.3097       47.3097      37.195932       0.05210
  42    0.3336       10.1138        0.0000       47.3092       47.3092      37.195463       0.05471
  41    0.4307       10.1138        0.0000       47.3085       47.3086      37.194828       0.05521
  40    0.5894       10.1137        0.0001       47.3074       47.3075      37.193769       0.05633
  39     1.339       10.1137        0.0002       47.3022       47.3023      37.188677       0.05733
  38     1.782       10.1136        0.0002       47.2991       47.2993      37.185707       0.05655
  37     2.292       10.1136        0.0003       47.2956       47.2959      37.182331       0.05591
  36     2.964       10.1135        0.0004       47.2912       47.2915      37.178013       0.05421
  35     3.853       10.1134        0.0005       47.2855       47.2859      37.172478       0.05252
  34     5.035       10.1133        0.0006       47.2780       47.2786      37.165298       0.05129
  33     6.613       10.1132        0.0008       47.2683       47.2691      37.155910       0.05019
  32     8.786       10.1130        0.0010       47.2556       47.2566      37.143611       0.04777
  31     11.80       10.1127        0.0014       47.2380       47.2394      37.126708       0.04732
  30     15.07       10.1124        0.0018       47.2201       47.2219      37.109421       0.04463
  29     18.79       10.1121        0.0023       47.2008       47.2031      37.090942       0.04190
  28     23.16       10.1117        0.0028       47.1795       47.1823      37.070552       0.03943
  27     28.12       10.1113        0.0034       47.1565       47.1599      37.048560       0.03739
  26     33.73       10.1108        0.0040       47.1324       47.1364      37.025640       0.03446
  25     40.54       10.1102        0.0048       47.1054       47.1102      37.000006       0.03180
  24     48.69       10.1095        0.0058       47.0754       47.0812      36.971756       0.02923
  23     57.69       10.1087        0.0069       47.0449       47.0518      36.943138       0.02683
  22     68.43       10.1078        0.0082       47.0110       47.0192      36.911406       0.02495
  21     81.20       10.1066        0.0097       46.9729       46.9826      36.875920       0.02345
  20     96.49       10.1053        0.0115       46.9294       46.9409      36.835590       0.02226
  19     114.6       10.1037        0.0137       46.8790       46.8927      36.788972       0.02177
  18     136.5       10.1018        0.0162       46.8200       46.8362      36.734373       0.02099
  17     162.9       10.0996        0.0193       46.7361       46.7554      36.655794       0.02512
  16     196.4       10.0967        0.0232       46.5703       46.5934      36.496706       0.04004
  15     218.7       10.0949        0.0257       46.3473       46.3730      36.278086       0.08300
  14     243.0       10.0931        0.0283       45.9299       45.9582      35.865142       0.14322
  13     269.0       10.0913        0.0310       45.1708       45.2018      35.110459       0.24482
  12     297.5       10.0898        0.0336       44.0115       44.0450      33.955188       0.34264
  11     328.5       10.0887        0.0361       42.7242       42.7604      32.671628       0.34900
  10     361.9       10.0883        0.0388       41.3539       41.3927      31.304441       0.34591
   9     398.1       10.0888        0.0413       39.7953       39.8366      29.747818       0.36266
   8     437.6       10.0908        0.0437       37.9948       38.0384      27.947595       0.38490
   7     480.5       10.0952        0.0459       36.0647       36.1106      26.015394       0.37948
   6     533.0       10.1047        0.0482       33.7773       33.8255      23.720835       0.36912
   5     589.8       10.1225        0.0503       31.4082       31.4585      21.335940       0.35400
   4     651.6       10.1579        0.0519       28.8834       28.9353      18.777409       0.34989
   3     718.7       10.2229        0.0533       26.4104       26.4636      16.240738       0.31879
   2     792.3       10.3445        0.0543       24.0056       24.0600      13.715456       0.28962
   1     891.5       10.6531        0.0555       21.2348       21.2903      10.637221       0.26194
   0    1013.0       11.4727        0.0569       18.6150       18.6719       7.199238       0.23872



 Wavenumbers:  7700. -  8050. cm-1, ATM      1
 LEVEL PRESSURE   UPWARD FLUX   DIFDOWN FLUX  DIRDOWN FLUX  DOWNWARD FLUX   NET FLUX    HEATING RATE
          mb          W/m2          W/m2          W/m2        W/m2          W/m2       degree/day
  51    .06700        5.4087        0.0000       11.1810       11.1810       5.772278       0.00000
  50    .07753        5.4087        0.0000       11.1809       11.1809       5.772257       0.01707
  49    .09103        5.4087        0.0000       11.1809       11.1809       5.772230       0.01673
  48    0.1069        5.4087        0.0000       11.1809       11.1809       5.772199       0.01637
  47    0.1255        5.4087        0.0000       11.1809       11.1809       5.772164       0.01602
  46    0.1487        5.4087        0.0000       11.1808       11.1808       5.772119       0.01626
  45    0.1794        5.4087        0.0000       11.1808       11.1808       5.772058       0.01673
  44    0.2165        5.4087        0.0000       11.1807       11.1807       5.771986       0.01641
  43    0.2613        5.4087        0.0000       11.1806       11.1806       5.771901       0.01610
  42    0.3336        5.4088        0.0000       11.1805       11.1805       5.771759       0.01648
  41    0.4307        5.4088        0.0000       11.1803       11.1804       5.771572       0.01630
  40    0.5894        5.4088        0.0000       11.1801       11.1801       5.771266       0.01628
  39     1.339        5.4091        0.0001       11.1788       11.1789       5.769817       0.01631
  38     1.782        5.4092        0.0001       11.1781       11.1782       5.768967       0.01620
  37     2.292        5.4093        0.0001       11.1772       11.1773       5.767982       0.01631
  36     2.964        5.4095        0.0002       11.1761       11.1762       5.766689       0.01623
  35     3.853        5.4098        0.0002       11.1746       11.1748       5.764981       0.01621
  34     5.035        5.4102        0.0003       11.1726       11.1729       5.762712       0.01621
  33     6.613        5.4106        0.0004       11.1700       11.1703       5.759682       0.01620
  32     8.786        5.4113        0.0005       11.1664       11.1669       5.755600       0.01585
  31     11.80        5.4122        0.0006       11.1613       11.1619       5.749765       0.01634
  30     15.07        5.4131        0.0008       11.1558       11.1566       5.743506       0.01616
  29     18.79        5.4142        0.0010       11.1497       11.1507       5.736444       0.01601
  28     23.16        5.4155        0.0012       11.1425       11.1438       5.728206       0.01593
  27     28.12        5.4170        0.0015       11.1343       11.1358       5.718802       0.01599
  26     33.73        5.4187        0.0018       11.1252       11.1270       5.708300       0.01579
  25     40.54        5.4207        0.0022       11.1142       11.1164       5.695643       0.01570
  24     48.69        5.4232        0.0026       11.1010       11.1036       5.680432       0.01574
  23     57.69        5.4259        0.0031       11.0866       11.0897       5.663784       0.01560
  22     68.43        5.4292        0.0037       11.0695       11.0732       5.644041       0.01552
  21     81.20        5.4331        0.0043       11.0494       11.0537       5.620642       0.01546
  20     96.49        5.4378        0.0051       11.0255       11.0307       5.592931       0.01529
  19     114.6        5.4434        0.0061       10.9975       11.0036       5.560267       0.01525
  18     136.5        5.4501        0.0072       10.9648       10.9720       5.521879       0.01476
  17     162.9        5.4583        0.0086       10.9263       10.9349       5.476605       0.01447
  16     196.4        5.4690        0.0103       10.8773       10.8876       5.418565       0.01461
  15     218.7        5.4762        0.0115       10.8455       10.8570       5.380807       0.01434
  14     243.0        5.4842        0.0127       10.8114       10.8242       5.340026       0.01414
  13     269.0        5.4929        0.0141       10.7749       10.7890       5.296057       0.01426
  12     297.5        5.5026        0.0155       10.7357       10.7512       5.248674       0.01405
  11     328.5        5.5133        0.0171       10.6937       10.7108       5.197568       0.01390
  10     361.9        5.5251        0.0188       10.6489       10.6676       5.142509       0.01393
   9     398.1        5.5384        0.0206       10.6008       10.6214       5.083002       0.01386
   8     437.6        5.5532        0.0226       10.5491       10.5716       5.018433       0.01381
   7     480.5        5.5698        0.0246       10.4934       10.5181       4.948227       0.01379
   6     533.0        5.5916        0.0272       10.4243       10.4515       4.859917       0.01421
   5     589.8        5.6169        0.0299       10.3479       10.3778       4.760942       0.01469
   4     651.6        5.6473        0.0329       10.2613       10.2942       4.646928       0.01559
   3     718.7        5.6845        0.0360       10.1618       10.1978       4.513226       0.01680
   2     792.3        5.7317        0.0393       10.0439       10.0832       4.351476       0.01855
   1     891.5        5.8111        0.0437        9.8626        9.9063       4.095229       0.02181
   0    1013.0        5.9363        0.0487        9.6103        9.6590       3.722676       0.02587



 Wavenumbers:  8050. - 12850. cm-1, ATM      1
 LEVEL PRESSURE   UPWARD FLUX   DIFDOWN FLUX  DIRDOWN FLUX  DOWNWARD FLUX   NET FLUX    HEATING RATE
          mb          W/m2          W/m2          W/m2        W/m2          W/m2       degree/day
  51    .06700       66.0970        0.0000      156.5418      156.5418      90.444721       0.00000
  50    .07753       66.0970        0.0000      156.5417      156.5417      90.444721       0.00000
  49    .09103       66.0970        0.0001      156.5417      156.5417      90.444721      -0.00000
  48    0.1069       66.0970        0.0001      156.5416      156.5417      90.444721      -0.00000
  47    0.1255       66.0969        0.0002      156.5415      156.5417      90.444721      -0.00000
  46    0.1487       66.0969        0.0002      156.5414      156.5416      90.444721      -0.00000
  45    0.1794       66.0969        0.0003      156.5413      156.5416      90.444721       0.00000
  44    0.2165       66.0968        0.0004      156.5412      156.5415      90.444721      -0.00000
  43    0.2613       66.0968        0.0005      156.5410      156.5415      90.444721       0.00000
  42    0.3336       66.0967        0.0007      156.5407      156.5414      90.444721      -0.00000
  41    0.4307       66.0965        0.0009      156.5403      156.5413      90.444721      -0.00000
  40    0.5894       66.0963        0.0014      156.5397      156.5410      90.444721      -0.00000
  39     1.339       66.0953        0.0033      156.5367      156.5400      90.444721       0.00000
  38     1.782       66.0947        0.0044      156.5350      156.5394      90.444721      -0.00000
  37     2.292       66.0940        0.0057      156.5330      156.5387      90.444721       0.00000
  36     2.964       66.0931        0.0075      156.5303      156.5378      90.444721       0.00000
  35     3.853       66.0919        0.0098      156.5268      156.5366      90.444721      -0.00000
  34     5.035       66.0903        0.0128      156.5222      156.5350      90.444721       0.00000
  33     6.613       66.0881        0.0169      156.5160      156.5329      90.444721      -0.00000
  32     8.786       66.0853        0.0223      156.5076      156.5300      90.444721       0.00000
  31     11.80       66.0811        0.0302      156.4957      156.5258      90.444721       0.00000
  30     15.07       66.0767        0.0386      156.4828      156.5214      90.444721      -0.00000
  29     18.79       66.0717        0.0482      156.4682      156.5164      90.444721      -0.00000
  28     23.16       66.0658        0.0593      156.4512      156.5105      90.444721      -0.00000
  27     28.12       66.0591        0.0721      156.4317      156.5038      90.444721       0.00000
  26     33.73       66.0515        0.0864      156.4099      156.4962      90.444721       0.00000
  25     40.54       66.0424        0.1037      156.3834      156.4871      90.444721       0.00000
  24     48.69       66.0314        0.1246      156.3515      156.4761      90.444721      -0.00000
  23     57.69       66.0193        0.1476      156.3164      156.4640      90.444721       0.00000
  22     68.43       66.0048        0.1750      156.2746      156.4495      90.444721      -0.00000
  21     81.20       65.9876        0.2077      156.2246      156.4323      90.444721      -0.00000
  20     96.49       65.9669        0.2467      156.1649      156.4117      90.444721       0.00000
  19     114.6       65.9426        0.2932      156.0879      156.3811      90.438563       0.00288
  18     136.5       65.9136        0.3483      155.9962      156.3445      90.430918       0.00294
  17     162.9       65.8790        0.4142      155.8831      156.2972      90.418214       0.00406
  16     196.4       65.8341        0.4998      155.7199      156.2197      90.385575       0.00822
  15     218.7       65.8047        0.5560      155.5733      156.1293      90.324634       0.02314
  14     243.0       65.7730        0.6172      155.3367      155.9538      90.180835       0.04987
  13     269.0       65.7394        0.6833      154.9514      155.6347      89.895224       0.09265
  12     297.5       65.7048        0.7544      154.3896      155.1440      89.439204       0.13525
  11     328.5       65.6693        0.8310      153.7151      154.5461      88.876751       0.15293
  10     361.9       65.6342        0.9132      152.9087      153.8219      88.187755       0.17432
   9     398.1       65.6009        1.0010      151.8986      152.8996      87.298705       0.20713
   8     437.6       65.5725        1.0942      150.6031      151.6974      86.124914       0.25096
   7     480.5       65.5525        1.1927      149.0014      150.1940      84.641591       0.29132
   6     533.0       65.5475        1.3115      146.7375      148.0490      82.501511       0.34427
   5     589.8       65.5780        1.4355      143.8730      145.3085      79.730476       0.41131
   4     651.6       65.6857        1.5622      140.0955      141.6577      75.972031       0.51398
   3     718.7       65.9241        1.6902      135.5278      137.2179      71.293861       0.58792
   2     792.3       66.4113        1.8162      130.0690      131.8852      65.473981       0.66747
   1     891.5       67.6851        1.9675      122.1273      124.0948      56.409771       0.77132
   0    1013.0       70.8466        2.1286      112.9512      115.0799      44.233263       0.84548



 Wavenumbers: 12850. - 16000. cm-1, ATM      1
 LEVEL PRESSURE   UPWARD FLUX   DIFDOWN FLUX  DIRDOWN FLUX  DOWNWARD FLUX   NET FLUX    HEATING RATE
          mb          W/m2          W/m2          W/m2        W/m2          W/m2       degree/day
  51    .06700       67.5258        0.0000       98.0872       98.0872      30.561431       0.00000
  50    .07753       67.5258        0.0001       98.0864       98.0864      30.560642       0.63236
  49    .09103       67.5258        0.0002       98.0853       98.0854      30.559651       0.61900
  48    0.1069       67.5258        0.0002       98.0841       98.0843      30.558514       0.60533
  47    0.1255       67.5258        0.0004       98.0826       98.0830      30.557209       0.59191
  46    0.1487       67.5258        0.0005       98.0809       98.0814      30.555562       0.60012
  45    0.1794       67.5258        0.0007       98.0784       98.0791      30.553325       0.61430
  44    0.2165       67.5258        0.0009       98.0756       98.0765      30.550695       0.59816
  43    0.2613       67.5259        0.0012       98.0723       98.0735      30.547607       0.58217
  42    0.3336       67.5261        0.0016       98.0670       98.0686      30.542573       0.58684
  41    0.4307       67.5263        0.0022       98.0602       98.0624      30.536076       0.56493
  40    0.5894       67.5269        0.0032       98.0496       98.0528      30.525864       0.54303
  39     1.339       67.5320        0.0077       98.0043       98.0121      30.480043       0.51587
  38     1.782       67.5369        0.0104       97.9793       97.9897      30.452826       0.51817
  37     2.292       67.5442        0.0135       97.9498       97.9633      30.419127       0.55813
  36     2.964       67.5563        0.0176       97.9088       97.9264      30.370065       0.61588
  35     3.853       67.5761        0.0229       97.8503       97.8733      30.297231       0.69121
  34     5.035       67.6058        0.0301       97.7680       97.7981      30.192211       0.75021
  33     6.613       67.6475        0.0396       97.6562       97.6958      30.048287       0.76942
  32     8.786       67.7017        0.0524       97.5107       97.5631      29.861408       0.72577
  31     11.80       67.7720        0.0707       97.3179       97.3885      29.616521       0.68561
  30     15.07       67.8393        0.0903       97.1283       97.2186      29.379361       0.61230
  29     18.79       67.9078        0.1125       96.9300       97.0425      29.134695       0.55473
  28     23.16       67.9792        0.1383       96.7166       96.8549      28.875682       0.50085
  27     28.12       68.0508        0.1678       96.4935       96.6613      28.610535       0.45073
  26     33.73       68.1165        0.2009       96.2731       96.4740      28.357445       0.38053
  25     40.54       68.1793        0.2408       96.0408       96.2816      28.102284       0.31656
  24     48.69       68.2388        0.2889       95.7946       96.0835      27.844728       0.26653
  23     57.69       68.2884        0.3418       95.5573       95.8991      27.610663       0.21940
  22     68.43       68.3305        0.4048       95.3106       95.7154      27.384886       0.17749
  21     81.20       68.3573        0.4799       95.0643       95.5442      27.186905       0.13082
  20     96.49       68.3677        0.5695       94.8153       95.3848      27.017038       0.09375
  19     114.6       68.3813        0.6770       94.5411       95.2180      26.836738       0.08419
  18     136.5       68.3874        0.8043       94.2320       95.0363      26.648921       0.07222
  17     162.9       68.3856        0.9559       93.8753       94.8312      26.445617       0.06498
  16     196.4       68.3640        1.1525       93.4347       94.5871      26.223171       0.05599
  15     218.7       68.3428        1.2816       93.1513       94.4328      26.090033       0.05055
  14     243.0       68.3167        1.4218       92.8439       94.2657      25.949012       0.04891
  13     269.0       68.2856        1.5738       92.5111       94.0849      25.799261       0.04858
  12     297.5       68.2498        1.7379       92.1495       93.8874      25.637642       0.04793
  11     328.5       68.2107        1.9153       91.7554       93.6707      25.459956       0.04831
  10     361.9       68.1691        2.1062       91.3262       93.4324      25.263326       0.04975
   9     398.1       68.1257        2.3115       90.8575       93.1691      25.043356       0.05125
   8     437.6       68.0828        2.5319       90.3418       92.8737      24.790910       0.05397
   7     480.5       68.0423        2.7679       89.7728       92.5407      24.498400       0.05745
   6     533.0       68.0034        3.0579       89.0428       92.1007      24.097291       0.06453
   5     589.8       67.9827        3.3695       88.2038       91.5733      23.590615       0.07521
   4     651.6       68.0042        3.7023       87.1979       90.9002      22.895991       0.09499
   3     718.7       68.0838        4.0546       86.0161       90.0708      21.986962       0.11424
   2     792.3       68.2729        4.4229       84.5970       89.0199      20.747043       0.14220
   1     891.5       68.7742        4.9015       82.4374       87.3389      18.564709       0.18571
   0    1013.0       69.8688        5.4499       79.6182       85.0681      15.199280       0.23368



 Wavenumbers: 16000. - 22650. cm-1, ATM      1
 LEVEL PRESSURE   UPWARD FLUX   DIFDOWN FLUX  DIRDOWN FLUX  DOWNWARD FLUX   NET FLUX    HEATING RATE
          mb          W/m2          W/m2          W/m2        W/m2          W/m2       degree/day
  51    .06700      138.7078        0.0000      156.3892      156.3892      17.681413       0.00000
  50    .07753      138.7078        0.0004      156.3887      156.3891      17.681267       0.11734
  49    .09103      138.7078        0.0009      156.3879      156.3888      17.681054       0.13309
  48    0.1069      138.7078        0.0015      156.3871      156.3885      17.680769       0.15177
  47    0.1255      138.7078        0.0021      156.3861      156.3882      17.680387       0.17299
  46    0.1487      138.7078        0.0029      156.3847      156.3877      17.679825       0.20499
  45    0.1794      138.7079        0.0041      156.3828      156.3869      17.678946       0.24136
  44    0.2165      138.7081        0.0054      156.3805      156.3859      17.677753       0.27127
  43    0.2613      138.7085        0.0070      156.3776      156.3846      17.676135       0.30497
  42    0.3336      138.7092        0.0096      156.3726      156.3822      17.673059       0.35864
  41    0.4307      138.7104        0.0131      156.3657      156.3788      17.668422       0.40315
  40    0.5894      138.7128        0.0187      156.3537      156.3724      17.659580       0.47025
  39     1.339      138.7347        0.0456      156.2834      156.3290      17.594247       0.73552
  38     1.782      138.7551        0.0613      156.2324      156.2937      17.538593       1.05958
  37     2.292      138.7856        0.0796      156.1641      156.2436      17.458032       1.33429
  36     2.964      138.8364        0.1035      156.0605      156.1640      17.327524       1.63827
  35     3.853      138.9187        0.1351      155.9041      156.0391      17.120441       1.96525
  34     5.035      139.0429        0.1770      155.6774      155.8543      16.811496       2.20698
  33     6.613      139.2164        0.2329      155.3656      155.5985      16.382160       2.29523
  32     8.786      139.4424        0.3082      154.9577      155.2659      15.823515       2.16958
  31     11.80      139.7363        0.4157      154.4153      154.8310      15.094655       2.04058
  30     15.07      140.0179        0.5310      153.8804      154.4114      14.393548       1.81012
  29     18.79      140.3051        0.6611      153.3191      153.9802      13.675010       1.62915
  28     23.16      140.6052        0.8127      152.7126      153.5253      12.920048       1.45985
  27     28.12      140.9069        0.9859      152.0755      153.0614      12.154429       1.30150
  26     33.73      141.1851        1.1795      151.4409      152.6204      11.435320       1.08120
  25     40.54      141.4522        1.4131      150.7637      152.1768      10.724617       0.88171
  24     48.69      141.7073        1.6945      150.0338      151.7284      10.021048       0.72808
  23     57.69      141.9229        2.0033      149.3151      151.3184       9.395536       0.58632
  22     68.43      142.1098        2.3705      148.5476      150.9181       8.808377       0.46159
  21     81.20      142.2368        2.8078      147.7517      150.5595       8.322684       0.32094
  20     96.49      142.2994        3.3283      146.9127      150.2410       7.941556       0.21036
  19     114.6      142.3283        3.9446      145.9763      149.9208       7.592538       0.16297
  18     136.5      142.3317        4.6722      144.9088      149.5809       7.249212       0.13202
  17     162.9      142.3077        5.5345      143.6785      149.2130       6.905319       0.10992
  16     196.4      142.2161        6.6471      142.1651      148.8121       6.596042       0.07785
  15     218.7      142.1337        7.3741      141.2033      148.5774       6.443689       0.05784
  14     243.0      142.0340        8.1609      140.1753      148.3362       6.302197       0.04907
  13     269.0      141.9154        9.0097      139.0797      148.0894       6.173972       0.04160
  12     297.5      141.7772        9.9225      137.9141      147.8366       6.059398       0.03398
  11     328.5      141.6232       10.9036      136.6676      147.5711       5.947932       0.03031
  10     361.9      141.4532       11.9538      135.3392      147.2929       5.839720       0.02738
   9     398.1      141.2667       13.0771      133.9235      147.0006       5.733894       0.02466
   8     437.6      141.0645       14.2756      132.4163      146.6918       5.627359       0.02278
   7     480.5      140.8462       15.5513      130.8147      146.3660       5.519848       0.02111
   6     533.0      140.5774       17.1093      128.8599      145.9692       5.391860       0.02059
   5     589.8      140.2913       18.7737      126.7679      145.5417       5.250388       0.02100
   4     651.6      139.9939       20.5462      124.5274      145.0737       5.079718       0.02334
   3     718.7      139.6911       22.4284      122.1285      144.5569       4.865758       0.02689
   2     792.3      139.3989       24.4181      119.5548      143.9730       4.574048       0.03346
   1     891.5      139.0821       27.0588      116.0566      143.1154       4.033335       0.04601
   0    1013.0      138.8286       30.1610      111.8404      142.0014       3.172794       0.05975



 Wavenumbers: 22650. - 29000. cm-1, ATM      1
 LEVEL PRESSURE   UPWARD FLUX   DIFDOWN FLUX  DIRDOWN FLUX  DOWNWARD FLUX   NET FLUX    HEATING RATE
          mb          W/m2          W/m2          W/m2        W/m2          W/m2       degree/day
  51    .06700       57.7666        0.0000       59.0156       59.0156       1.249022       0.00000
  50    .07753       57.7665        0.0005       59.0151       59.0155       1.249022       0.00000
  49    .09103       57.7664        0.0010       59.0144       59.0154       1.249022      -0.00000
  48    0.1069       57.7662        0.0017       59.0136       59.0153       1.249022       0.00000
  47    0.1255       57.7661        0.0025       59.0127       59.0151       1.249022       0.00000
  46    0.1487       57.7659        0.0034       59.0115       59.0149       1.249022      -0.00000
  45    0.1794       57.7656        0.0047       59.0099       59.0147       1.249022      -0.00000
  44    0.2165       57.7653        0.0063       59.0080       59.0143       1.249022       0.00000
  43    0.2613       57.7650        0.0082       59.0058       59.0140       1.249022       0.00000
  42    0.3336       57.7643        0.0112       59.0022       59.0134       1.249022      -0.00000
  41    0.4307       57.7635        0.0153       58.9973       59.0126       1.249022       0.00000
  40    0.5894       57.7622        0.0219       58.9894       59.0112       1.249022      -0.00000
  39     1.339       57.7559        0.0532       58.9518       59.0050       1.249022      -0.00000
  38     1.782       57.7523        0.0716       58.9297       59.0013       1.249022       0.00000
  37     2.292       57.7480        0.0929       58.9042       58.9970       1.249022       0.00000
  36     2.964       57.7424        0.1208       58.8706       58.9914       1.249022      -0.00000
  35     3.853       57.7350        0.1577       58.8264       58.9841       1.249022       0.00000
  34     5.035       57.7252        0.2067       58.7676       58.9743       1.249022      -0.00000
  33     6.613       57.7121        0.2721       58.6891       58.9612       1.249022       0.00000
  32     8.786       57.6945        0.3601       58.5834       58.9435       1.249022      -0.00000
  31     11.80       57.6693        0.4859       58.4324       58.9184       1.249022      -0.00000
  30     15.07       57.6424        0.6207       58.2706       58.8914       1.249022      -0.00000
  29     18.79       57.6119        0.7727       58.0882       58.8610       1.249022       0.00000
  28     23.16       57.5765        0.9498       57.8757       58.8255       1.249022       0.00000
  27     28.12       57.5360        1.1517       57.6333       58.7851       1.249022       0.00000
  26     33.73       57.4909        1.3769       57.3631       58.7399       1.249022       0.00000
  25     40.54       57.4366        1.6478       57.0379       58.6856       1.249022      -0.00000
  24     48.69       57.3715        1.9726       56.6479       58.6205       1.249022       0.00000
  23     57.69       57.3004        2.3273       56.2221       58.5494       1.249022       0.00000
  22     68.43       57.2162        2.7467       55.7186       58.4652       1.249022      -0.00000
  21     81.20       57.1168        3.2419       55.1239       58.3658       1.249022       0.00000
  20     96.49       56.9995        3.8257       54.4228       58.2485       1.249022       0.00000
  19     114.6       56.8619        4.5099       53.6010       58.1109       1.249022      -0.00000
  18     136.5       56.7011        5.3084       52.6418       57.9501       1.249022       0.00000
  17     162.9       56.5130        6.2417       51.5203       57.7620       1.249022      -0.00000
  16     196.4       56.2743        7.4239       50.0994       57.5233       1.249022       0.00000
  15     218.7       56.1207        8.1835       49.1863       57.3698       1.249022       0.00000
  14     243.0       55.9566        8.9943       48.2113       57.2056       1.249022       0.00000
  13     269.0       55.7819        9.8560       47.1749       57.0309       1.249022      -0.00000
  12     297.5       55.5967       10.7675       46.0783       56.8458       1.249022       0.00000
  11     328.5       55.4008       11.7303       44.9195       56.6499       1.249022      -0.00000
  10     361.9       55.1946       12.7418       43.7018       56.4437       1.249022       0.00000
   9     398.1       54.9780       13.8020       42.4250       56.2271       1.249022      -0.00000
   8     437.6       54.7514       14.9088       41.0916       56.0004       1.249022      -0.00000
   7     480.5       54.5150       16.0596       39.7045       55.7641       1.249022       0.00000
   6     533.0       54.2331       17.4279       38.0543       55.4821       1.249022       0.00000
   5     589.8       53.9398       18.8458       36.3431       55.1889       1.249022       0.00000
   4     651.6       53.6365       20.3059       34.5795       54.8855       1.249022       0.00000
   3     718.7       53.3239       21.8027       32.7702       54.5729       1.249022      -0.00000
   2     792.3       53.0037       23.3272       30.9256       54.2527       1.249022       0.00000
   1     891.5       52.5937       25.2649       28.5778       53.8427       1.249022       0.00000
   0    1013.0       52.1336       27.4162       25.9665       53.3827       1.249022      -0.00000



 Wavenumbers: 29000. - 38000. cm-1, ATM      1
 LEVEL PRESSURE   UPWARD FLUX   DIFDOWN FLUX  DIRDOWN FLUX  DOWNWARD FLUX   NET FLUX    HEATING RATE
          mb          W/m2          W/m2          W/m2        W/m2          W/m2       degree/day
  51    .06700        8.6506        0.0000       20.8114       20.8114      12.160769       0.00000
  50    .07753        8.6504        0.0003       20.8070       20.8074      12.156962       3.05143
  49    .09103        8.6502        0.0007       20.8009       20.8016      12.151426       3.46071
  48    0.1069        8.6499        0.0012       20.7928       20.7939      12.144016       3.94413
  47    0.1255        8.6496        0.0017       20.7820       20.7837      12.134112       4.49015
  46    0.1487        8.6493        0.0024       20.7665       20.7688      12.119549       5.30821
  45    0.1794        8.6488        0.0033       20.7424       20.7457      12.096885       6.22177
  44    0.2165        8.6483        0.0043       20.7103       20.7147      12.066364       6.94309
  43    0.2613        8.6477        0.0056       20.6675       20.6731      12.025371       7.72697
  42    0.3336        8.6468        0.0077       20.5880       20.5956      11.948814       8.92582
  41    0.4307        8.6457        0.0104       20.4722       20.4826      11.836867       9.73353
  40    0.5894        8.6441        0.0147       20.2637       20.2783      11.634194      10.77787
  39     1.339        8.6406        0.0331       19.0984       19.1314      10.490801      12.87253
  38     1.782        8.6410        0.0426       18.4394       18.4820       9.840948      12.37216
  37     2.292        8.6435        0.0528       17.7714       17.8242       9.180704      10.93536
  36     2.964        8.6499        0.0655       17.0421       17.1076       8.457740       9.07538
  35     3.853        8.6624        0.0814       16.2678       16.3492       7.686813       7.31625
  34     5.035        8.6831        0.1015       15.4803       15.5818       6.898689       5.63002
  33     6.613        8.7132        0.1271       14.7157       14.8428       6.129621       4.11144
  32     8.786        8.7530        0.1608       13.9936       14.1543       5.401342       2.82837
  31     11.80        8.8049        0.2076       13.2835       13.4912       4.686262       2.00200
  30     15.07        8.8549        0.2562       12.7394       12.9956       4.140651       1.40866
  29     18.79        8.9066        0.3101       12.2666       12.5767       3.670106       1.06687
  28     23.16        8.9614        0.3713       11.8300       12.2013       3.239937       0.83181
  27     28.12        9.0175        0.4399       11.4279       11.8678       2.850257       0.66243
  26     33.73        9.0692        0.5155       11.0695       11.5849       2.515731       0.50297
  25     40.54        9.1181        0.6057       10.7209       11.3266       2.208565       0.38108
  24     48.69        9.1640        0.7128       10.3742       11.0870       1.923034       0.29548
  23     57.69        9.2014        0.8287       10.0549       10.8836       1.682219       0.22573
  22     68.43        9.2313        0.9647        9.7327       10.6974       1.466099       0.16990
  21     81.20        9.2448        1.1252        9.4134       10.5386       1.293820       0.11384
  20     96.49        9.2398        1.3138        9.0887       10.4025       1.162716       0.07236
  19     114.6        9.2245        1.5317        8.7388       10.2705       1.046052       0.05447
  18     136.5        9.2015        1.7808        8.3549       10.1357       0.934148       0.04303
  17     162.9        9.1711        2.0646        7.9311        9.9958       0.824624       0.03501
  16     196.4        9.1211        2.4161        7.4333        9.8494       0.728265       0.02425
  15     218.7        9.0853        2.6370        7.1295        9.7666       0.681287       0.01784
  14     243.0        9.0461        2.8680        6.8161        9.6840       0.637922       0.01504
  13     269.0        9.0033        3.1080        6.4943        9.6023       0.598997       0.01263
  12     297.5        8.9570        3.3560        6.1657        9.5217       0.564695       0.01017
  11     328.5        8.9086        3.6110        5.8295        9.4405       0.531867       0.00893
  10     361.9        8.8585        3.8706        5.4886        9.3592       0.500659       0.00790
   9     398.1        8.8069        4.1340        5.1440        9.2780       0.471098       0.00689
   8     437.6        8.7542        4.3999        4.7969        9.1968       0.442614       0.00609
   7     480.5        8.7008        4.6660        4.4504        9.1164       0.415591       0.00531
   6     533.0        8.6393        4.9692        4.0563        9.0254       0.386151       0.00474
   5     589.8        8.5782        5.2677        3.6682        8.9359       0.357665       0.00423
   4     651.6        8.5185        5.5578        3.2905        8.8483       0.329818       0.00381
   3     718.7        8.4606        5.8380        2.9252        8.7632       0.302565       0.00342
   2     792.3        8.4054        6.1048        2.5764        8.6813       0.275913       0.00306
   1     891.5        8.3406        6.4177        2.1659        8.5836       0.243042       0.00280
   0    1013.0        8.2764        6.7307        1.7526        8.4832       0.206795       0.00252



 Wavenumbers: 38000. - 50000. cm-1, ATM      1
 LEVEL PRESSURE   UPWARD FLUX   DIFDOWN FLUX  DIRDOWN FLUX  DOWNWARD FLUX   NET FLUX    HEATING RATE
          mb          W/m2          W/m2          W/m2        W/m2          W/m2       degree/day
  51    .06700        0.0061        0.0000        1.2836        1.2836       1.277518       0.00000
  50    .07753        0.0061        0.0001        1.2812        1.2812       1.275183       1.87150
  49    .09103        0.0060        0.0002        1.2777        1.2778       1.271851       2.08247
  48    0.1069        0.0059        0.0002        1.2731        1.2734       1.267473       2.33059
  47    0.1255        0.0058        0.0004        1.2672        1.2675       1.261717       2.60908
  46    0.1487        0.0057        0.0005        1.2586        1.2591       1.253391       3.03499
  45    0.1794        0.0055        0.0007        1.2455        1.2462       1.240623       3.50520
  44    0.2165        0.0054        0.0009        1.2282        1.2291       1.223697       3.85037
  43    0.2613        0.0052        0.0011        1.2054        1.2065       1.201348       4.21261
  42    0.3336        0.0049        0.0015        1.1639        1.1654       1.160524       4.75970
  41    0.4307        0.0045        0.0020        1.1051        1.1070       1.102565       5.03943
  40    0.5894        0.0039        0.0026        1.0039        1.0064       1.002524       5.32007
  39     1.339        0.0022        0.0035        0.5438        0.5473       0.545104       5.14971
  38     1.782        0.0016        0.0032        0.3635        0.3666       0.365006       3.42879
  37     2.292        0.0012        0.0027        0.2356        0.2383       0.237058       2.11916
  36     2.964        0.0009        0.0022        0.1455        0.1477       0.146786       1.13318
  35     3.853        0.0006        0.0017        0.0858        0.0875       0.086906       0.56828
  34     5.035        0.0004        0.0013        0.0488        0.0501       0.049701       0.26578
  33     6.613        0.0003        0.0010        0.0273        0.0282       0.027974       0.11615
  32     8.786        0.0002        0.0007        0.0144        0.0151       0.014928       0.05067
  31     11.80        0.0001        0.0004        0.0065        0.0070       0.006903       0.02247
  30     15.07        0.0000        0.0003        0.0031        0.0034       0.003329       0.00923
  29     18.79        0.0000        0.0002        0.0014        0.0016       0.001583       0.00396
  28     23.16        0.0000        0.0001        0.0006        0.0007       0.000720       0.00167
  27     28.12        0.0000        0.0001        0.0003        0.0003       0.000317       0.00069
  26     33.73        0.0000        0.0000        0.0001        0.0001       0.000140       0.00027
  25     40.54        0.0000        0.0000        0.0000        0.0001       0.000057       0.00010
  24     48.69        0.0000        0.0000        0.0000        0.0000       0.000021       0.00004
  23     57.69        0.0000        0.0000        0.0000        0.0000       0.000008       0.00001
  22     68.43        0.0000        0.0000        0.0000        0.0000       0.000003       0.00000
  21     81.20        0.0000        0.0000        0.0000        0.0000       0.000001       0.00000
  20     96.49        0.0000        0.0000        0.0000        0.0000       0.000000       0.00000
  19     114.6        0.0000        0.0000        0.0000        0.0000       0.000000       0.00000
  18     136.5        0.0000        0.0000        0.0000        0.0000       0.000000       0.00000
  17     162.9        0.0000        0.0000        0.0000        0.0000       0.000000       0.00000
  16     196.4        0.0000        0.0000        0.0000        0.0000       0.000000       0.00000
  15     218.7        0.0000        0.0000        0.0000        0.0000       0.000000       0.00000
  14     243.0        0.0000        0.0000        0.0000        0.0000       0.000000       0.00000
  13     269.0        0.0000        0.0000        0.0000        0.0000       0.000000       0.00000
  12     297.5        0.0000        0.0000        0.0000        0.0000       0.000000       0.00000
  11     328.5        0.0000        0.0000        0.0000        0.0000       0.000000       0.00000
  10     361.9        0.0000        0.0000        0.0000        0.0000       0.000000       0.00000
   9     398.1        0.0000        0.0000        0.0000        0.0000       0.000000       0.00000
   8     437.6        0.0000        0.0000        0.0000        0.0000       0.000000       0.00000
   7     480.5        0.0000        0.0000        0.0000        0.0000       0.000000       0.00000
   6     533.0        0.0000        0.0000        0.0000        0.0000       0.000000       0.00000
   5     589.8        0.0000        0.0000        0.0000        0.0000       0.000000       0.00000
   4     651.6        0.0000        0.0000        0.0000        0.0000       0.000000       0.00000
   3     718.7        0.0000        0.0000        0.0000        0.0000       0.000000       0.00000
   2     792.3        0.0000        0.0000        0.0000        0.0000       0.000000       0.00000
   1     891.5        0.0000        0.0000        0.0000        0.0000       0.000000       0.00000
   0    1013.0        0.0000        0.0000        0.0000        0.0000       0.000000       0.00000



 Wavenumbers:   820. -  2600. cm-1, ATM      1
 LEVEL PRESSURE   UPWARD FLUX   DIFDOWN FLUX  DIRDOWN FLUX  DOWNWARD FLUX   NET FLUX    HEATING RATE
          mb          W/m2          W/m2          W/m2        W/m2          W/m2       degree/day
  51    .06700        0.6565        0.0000        6.0047        6.0047       5.348135       0.00000
  50    .07753        0.6565        0.0000        6.0008        6.0008       5.344282       3.08820
  49    .09103        0.6565        0.0000        5.9999        5.9999       5.343396       0.55357
  48    0.1069        0.6565        0.0000        5.9989        5.9989       5.342407       0.52651
  47    0.1255        0.6565        0.0000        5.9978        5.9978       5.341290       0.50649
  46    0.1487        0.6565        0.0000        5.9964        5.9964       5.339933       0.49456
  45    0.1794        0.6565        0.0000        5.9947        5.9947       5.338214       0.47199
  44    0.2165        0.6565        0.0000        5.9929        5.9929       5.336371       0.41909
  43    0.2613        0.6565        0.0000        5.9909        5.9909       5.334412       0.36932
  42    0.3336        0.6565        0.0000        5.9880        5.9880       5.331534       0.33555
  41    0.4307        0.6565        0.0000        5.9846        5.9846       5.328065       0.30164
  40    0.5894        0.6565        0.0000        5.9791        5.9791       5.322560       0.29275
  39     1.339        0.6565        0.0000        5.9536        5.9536       5.297074       0.28693
  38     1.782        0.6565        0.0000        5.9395        5.9395       5.282936       0.26916
  37     2.292        0.6565        0.0000        5.9237        5.9237       5.267185       0.26087
  36     2.964        0.6565        0.0000        5.9039        5.9039       5.247412       0.24821
  35     3.853        0.6565        0.0000        5.8793        5.8793       5.222757       0.23398
  34     5.035        0.6565        0.0000        5.8487        5.8487       5.192195       0.21832
  33     6.613        0.6565        0.0000        5.8108        5.8108       5.154232       0.20295
  32     8.786        0.6565        0.0000        5.7631        5.7631       5.106610       0.18495
  31     11.80        0.6565        0.0000        5.7039        5.7039       5.047356       0.16589
  30     15.07        0.6565        0.0000        5.6539        5.6539       4.997318       0.12919
  29     18.79        0.6566        0.0000        5.6127        5.6127       4.956184       0.09326
  28     23.16        0.6566        0.0000        5.5794        5.5794       4.922808       0.06454
  27     28.12        0.6566        0.0000        5.5518        5.5518       4.895241       0.04686
  26     33.73        0.6566        0.0000        5.5268        5.5268       4.870186       0.03767
  25     40.54        0.6566        0.0000        5.4993        5.4993       4.842738       0.03405
  24     48.69        0.6566        0.0000        5.4678        5.4678       4.811190       0.03265
  23     57.69        0.6566        0.0000        5.4340        5.4340       4.777392       0.03168
  22     68.43        0.6566        0.0000        5.3947        5.3948       4.738105       0.03088
  21     81.20        0.6567        0.0000        5.3497        5.3497       4.693055       0.02977
  20     96.49        0.6567        0.0000        5.2982        5.2982       4.641519       0.02844
  19     114.6        0.6567        0.0000        5.2389        5.2389       4.582169       0.02771
  18     136.5        0.6568        0.0000        5.1716        5.1717       4.514878       0.02588
  17     162.9        0.6569        0.0000        5.0890        5.0890       4.432194       0.02643
  16     196.4        0.6570        0.0000        4.9668        4.9668       4.309864       0.03079
  15     218.7        0.6571        0.0000        4.8585        4.8585       4.201388       0.04118
  14     243.0        0.6573        0.0000        4.7078        4.7079       4.050584       0.05230
  13     269.0        0.6576        0.0000        4.5343        4.5343       3.876715       0.05640
  12     297.5        0.6580        0.0000        4.3419        4.3420       3.683924       0.05718
  11     328.5        0.6587        0.0000        4.1281        4.1281       3.469453       0.05831
  10     361.9        0.6596        0.0000        3.8786        3.8787       3.219107       0.06334
   9     398.1        0.6607        0.0000        3.6159        3.6159       2.955218       0.06148
   8     437.6        0.6623        0.0000        3.3759        3.3759       2.713630       0.05165
   7     480.5        0.6642        0.0000        3.1957        3.1958       2.531625       0.03575
   6     533.0        0.6671        0.0000        3.0467        3.0467       2.379588       0.02446
   5     589.8        0.6716        0.0000        2.9023        2.9023       2.230747       0.02209
   4     651.6        0.6796        0.0000        2.7183        2.7184       2.038730       0.02626
   3     718.7        0.6936        0.0000        2.5058        2.5059       1.812224       0.02847
   2     792.3        0.7194        0.0000        2.2756        2.2757       1.556278       0.02935
   1     891.5        0.7850        0.0000        1.9621        1.9622       1.177174       0.03226
   0    1013.0        0.9501        0.0000        1.5468        1.5469       0.596783       0.04030

  Modules and versions used in this calculation:

       rrtmg_sw.1col.f90:  $Revision$                    rrtmg_sw_init.f90:  $Revision$        
     rrtmgsw_cldprop.f90:  $Revision$                  rrtmgsw_cldprmc.f90:  NOT USED          
     rrtmg_sw_reftra.f90:  $Revision$                  rrtmg_sw_spcvrt.f90:  NOT USED          
     rrtmg_sw_spcvmc.f90:  NOT USED                    rrtmgsw_setcoef.f90:  NOT USED          
     rrtmg_sw_taumol.f90:  $Revision$                  rrtmg_sw_vrtqdr.f90:  NOT USED          
                rrtatm.f:  NOT USED                             util_xxx.f:  NOT USED          
                 extra.f:  NOT USED                       rrtmg_sw_k_g.f90:  $Revision$        

