

 Wavenumbers:   820. - 50000. cm-1, ATM      1
 LEVEL PRESSURE   UPWARD FLUX   DIFDOWN FLUX  DIRDOWN FLUX  DOWNWARD FLUX   NET FLUX    HEATING RATE
          mb          W/m2          W/m2          W/m2        W/m2          W/m2       degree/day
  51    .06700      374.2667        0.0000      617.8126      617.8126     243.545857       0.00000
  50    .07753      374.2663        0.0013      617.7947      617.7961     243.529721      12.93314
  49    .09103      374.2659        0.0030      617.7778      617.7808     243.514917       9.25274
  48    0.1069      374.2654        0.0050      617.7581      617.7630     243.497663       9.18418
  47    0.1255      374.2648        0.0072      617.7340      617.7412     243.476329       9.67199
  46    0.1487      374.2642        0.0100      617.7009      617.7109     243.446658      10.81529
  45    0.1794      374.2634        0.0138      617.6521      617.6659     243.402451      12.13611
  44    0.2165      374.2626        0.0183      617.5895      617.6078     243.345160      13.03255
  43    0.2613      374.2618        0.0236      617.5089      617.5325     243.270689      14.03750
  42    0.3336      374.2608        0.0324      617.3641      617.3965     243.135682      15.74045
  41    0.4307      374.2599        0.0439      617.1591      617.2031     242.943176      16.73797
  40    0.5894      374.2593        0.0626      616.8005      616.8631     242.603707      18.05253
  39     1.339      374.2743        0.1468      614.9443      615.0910     240.816714      20.11830
  38     1.782      374.2953        0.1941      613.9670      614.1612     239.865824      18.10342
  37     2.292      374.3307        0.2480      613.0059      613.2539     238.923186      15.61254
  36     2.964      374.3938        0.3181      611.9577      612.2757     237.881899      13.07130
  35     3.853      374.5004        0.4099      610.8024      611.2123     236.711937      11.10315
  34     5.035      374.6647        0.5311      609.5327      610.0638     235.399086       9.37846
  33     6.613      374.8964        0.6919      608.1464      608.8384     233.941948       7.78986
  32     8.786      375.1981        0.9077      606.6250      607.5327     232.334610       6.24232
  31     11.80      375.5883        1.2149      604.8486      606.0635     230.475292       5.20550
  30     15.07      375.9588        1.5427      603.2440      604.7866     228.827824       4.25344
  29     18.79      376.3342        1.9115      601.6511      603.5626     227.228362       3.62647
  28     23.16      376.7230        2.3400      599.9927      602.3327     225.609627       3.13011
  27     28.12      377.1094        2.8277      598.2881      601.1157     224.006299       2.72555
  26     33.73      377.4566        3.3713      596.5951      599.9664     222.509832       2.24998
  25     40.54      377.7767        4.0258      594.7727      598.7985     221.021842       1.84602
  24     48.69      378.0664        4.8111      592.7865      597.5976     219.531263       1.54252
  23     57.69      378.2912        5.6695      590.7959      596.4654     218.174221       1.27202
  22     68.43      378.4576        6.6864      588.6191      595.3055     216.847836       1.04272
  21     81.20      378.5151        7.8919      586.2690      594.1608     215.645774       0.79430
  20     96.49      378.4529        9.3190      583.6961      593.0151     214.562282       0.59801
  19     114.6      378.3270       10.9979      580.7708      591.7687     213.441662       0.52325
  18     136.5      378.1347       12.9634      577.4359      590.3993     212.264543       0.45263
  17     162.9      377.8688       15.2696      573.5624      588.8320     210.963193       0.41596
  16     196.4      377.4391       18.2101      568.5907      586.8008     209.361690       0.40312
  15     218.7      377.1285       20.1108      565.0572      585.1681     208.039548       0.50197
  14     243.0      376.7815       22.1493      560.7495      582.8988     206.117336       0.66669
  13     269.0      376.3970       24.3266      555.3947      579.7213     203.324289       0.90605
  12     297.5      375.9769       26.6434      548.9964      575.6398     199.662930       1.08592
  11     328.5      375.5284       29.1061      542.0895      571.1957     195.667231       1.08642
  10     361.9      375.0547       31.7107      534.6242      566.3349     191.280186       1.10997
   9     398.1      374.5592       34.4616      526.4204      560.8820     186.322874       1.15494
   8     437.6      374.0508       37.3574      517.3907      554.7481     180.697336       1.20278
   7     480.5      373.5374       40.3961      507.7216      548.1176     174.580192       1.20138
   6     533.0      372.9635       44.0481      495.9006      539.9487     166.985284       1.22178
   5     589.8      372.4463       47.8790      483.0788      530.9578     158.511557       1.25778
   4     651.6      372.0870       51.8761      468.6907      520.5668     148.479733       1.37188
   3     718.7      371.9970       56.0313      453.2257      509.2570     137.259977       1.41001
   2     792.3      372.4396       60.3229      436.4928      496.8158     124.376213       1.47762
   1     891.5      374.4141       65.8657      413.9344      479.8002     105.386028       1.61597
   0    1013.0      380.2564       72.1672      388.4125      460.5797      80.323317       1.74023



 Wavenumbers:  2600. -  3250. cm-1, ATM      1
 LEVEL PRESSURE   UPWARD FLUX   DIFDOWN FLUX  DIRDOWN FLUX  DOWNWARD FLUX   NET FLUX    HEATING RATE
          mb          W/m2          W/m2          W/m2        W/m2          W/m2       degree/day
  51    .06700        0.9793        0.0000        5.4450        5.4450       4.465739       0.00000
  50    .07753        0.9793        0.0000        5.4450        5.4450       4.465731       0.00640
  49    .09103        0.9793        0.0000        5.4450        5.4450       4.465721       0.00627
  48    0.1069        0.9793        0.0000        5.4450        5.4450       4.465710       0.00613
  47    0.1255        0.9793        0.0000        5.4450        5.4450       4.465697       0.00599
  46    0.1487        0.9793        0.0000        5.4450        5.4450       4.465680       0.00608
  45    0.1794        0.9793        0.0000        5.4450        5.4450       4.465657       0.00625
  44    0.2165        0.9793        0.0000        5.4449        5.4449       4.465630       0.00612
  43    0.2613        0.9793        0.0000        5.4449        5.4449       4.465598       0.00600
  42    0.3336        0.9793        0.0000        5.4448        5.4448       4.465546       0.00617
  41    0.4307        0.9793        0.0000        5.4448        5.4448       4.465474       0.00620
  40    0.5894        0.9793        0.0000        5.4446        5.4446       4.465355       0.00637
  39     1.339        0.9793        0.0000        5.4439        5.4439       4.464647       0.00797
  38     1.782        0.9793        0.0000        5.4434        5.4434       4.464104       0.01034
  37     2.292        0.9793        0.0000        5.4427        5.4427       4.463388       0.01186
  36     2.964        0.9793        0.0000        5.4416        5.4416       4.462349       0.01304
  35     3.853        0.9793        0.0000        5.4402        5.4402       4.460872       0.01402
  34     5.035        0.9793        0.0000        5.4381        5.4381       4.458817       0.01468
  33     6.613        0.9793        0.0000        5.4353        5.4353       4.456035       0.01487
  32     8.786        0.9793        0.0000        5.4317        5.4317       4.452403       0.01411
  31     11.80        0.9793        0.0000        5.4269        5.4269       4.447623       0.01338
  30     15.07        0.9793        0.0000        5.4224        5.4224       4.443096       0.01169
  29     18.79        0.9793        0.0000        5.4180        5.4180       4.438683       0.01000
  28     23.16        0.9793        0.0000        5.4135        5.4135       4.434196       0.00868
  27     28.12        0.9793        0.0000        5.4088        5.4088       4.429547       0.00790
  26     33.73        0.9793        0.0000        5.4036        5.4036       4.424304       0.00788
  25     40.54        0.9793        0.0000        5.3966        5.3967       4.417359       0.00862
  24     48.69        0.9793        0.0000        5.3872        5.3872       4.407877       0.00981
  23     57.69        0.9793        0.0000        5.3754        5.3754       4.396085       0.01105
  22     68.43        0.9793        0.0000        5.3599        5.3599       4.380586       0.01218
  21     81.20        0.9794        0.0000        5.3401        5.3401       4.360736       0.01312
  20     96.49        0.9794        0.0000        5.3155        5.3155       4.336146       0.01357
  19     114.6        0.9794        0.0000        5.2853        5.2854       4.305917       0.01412
  18     136.5        0.9795        0.0001        5.2504        5.2505       4.270962       0.01344
  17     162.9        0.9796        0.0001        5.2111        5.2112       4.231548       0.01260
  16     196.4        0.9798        0.0001        5.1640        5.1641       4.184332       0.01188
  15     218.7        0.9800        0.0001        5.1331        5.1332       4.153224       0.01181
  14     243.0        0.9803        0.0001        5.0962        5.0963       4.116014       0.01291
  13     269.0        0.9808        0.0001        5.0511        5.0512       4.070393       0.01480
  12     297.5        0.9816        0.0001        4.9956        4.9957       4.014152       0.01668
  11     328.5        0.9826        0.0001        4.9304        4.9305       3.947873       0.01802
  10     361.9        0.9841        0.0001        4.8511        4.8512       3.867176       0.02042
   9     398.1        0.9860        0.0001        4.7507        4.7508       3.764825       0.02385
   8     437.6        0.9887        0.0002        4.6220        4.6222       3.633546       0.02807
   7     480.5        0.9922        0.0002        4.4625        4.4626       3.470431       0.03204
   6     533.0        0.9979        0.0002        4.2460        4.2462       3.248338       0.03573
   5     589.8        1.0063        0.0002        3.9954        3.9956       2.989326       0.03845
   4     651.6        1.0195        0.0002        3.7089        3.7090       2.689539       0.04100
   3     718.7        1.0400        0.0002        3.4018        3.4020       2.361994       0.04116
   2     792.3        1.0736        0.0002        3.0564        3.0566       1.983048       0.04346
   1     891.5        1.1495        0.0002        2.5828        2.5830       1.433488       0.04676
   0    1013.0        1.3280        0.0002        2.0845        2.0847       0.756731       0.04699



 Wavenumbers:  3250. -  4000. cm-1, ATM      1
 LEVEL PRESSURE   UPWARD FLUX   DIFDOWN FLUX  DIRDOWN FLUX  DOWNWARD FLUX   NET FLUX    HEATING RATE
          mb          W/m2          W/m2          W/m2        W/m2          W/m2       degree/day
  51    .06700        0.0005        0.0000        9.1795        9.1795       9.179001       0.00000
  50    .07753        0.0005        0.0000        9.1747        9.1747       9.174158       3.88148
  49    .09103        0.0005        0.0000        9.1713        9.1713       9.170770       2.11747
  48    0.1069        0.0005        0.0000        9.1688        9.1688       9.168246       1.34402
  47    0.1255        0.0005        0.0000        9.1665        9.1665       9.165986       1.02422
  46    0.1487        0.0005        0.0000        9.1641        9.1641       9.163545       0.88991
  45    0.1794        0.0005        0.0000        9.1612        9.1612       9.160667       0.79008
  44    0.2165        0.0005        0.0000        9.1583        9.1583       9.157747       0.66430
  43    0.2613        0.0005        0.0000        9.1553        9.1553       9.154774       0.56041
  42    0.3336        0.0005        0.0000        9.1511        9.1511       9.150595       0.48723
  41    0.4307        0.0005        0.0000        9.1464        9.1464       9.145826       0.41459
  40    0.5894        0.0005        0.0000        9.1393        9.1394       9.138821       0.37255
  39     1.339        0.0005        0.0000        9.1127        9.1127       9.112207       0.29962
  38     1.782        0.0005        0.0000        9.1011        9.1011       9.100619       0.22062
  37     2.292        0.0005        0.0000        9.0901        9.0901       9.089552       0.18329
  36     2.964        0.0005        0.0000        9.0776        9.0776       9.077123       0.15603
  35     3.853        0.0005        0.0000        9.0629        9.0629       9.062332       0.14036
  34     5.035        0.0005        0.0000        9.0441        9.0441       9.043594       0.13386
  33     6.613        0.0005        0.0000        9.0191        9.0191       9.018592       0.13366
  32     8.786        0.0005        0.0000        8.9843        8.9843       8.983808       0.13509
  31     11.80        0.0005        0.0000        8.9327        8.9327       8.932192       0.14451
  30     15.07        0.0005        0.0000        8.8758        8.8759       8.875347       0.14676
  29     18.79        0.0005        0.0000        8.8110        8.8110       8.810520       0.14698
  28     23.16        0.0005        0.0000        8.7365        8.7366       8.736075       0.14395
  27     28.12        0.0005        0.0000        8.6554        8.6555       8.654962       0.13789
  26     33.73        0.0005        0.0000        8.5719        8.5719       8.571462       0.12554
  25     40.54        0.0005        0.0001        8.4812        8.4812       8.480739       0.11255
  24     48.69        0.0005        0.0001        8.3838        8.3839       8.383437       0.10069
  23     57.69        0.0005        0.0001        8.2861        8.2862       8.285702       0.09161
  22     68.43        0.0004        0.0001        8.1751        8.1751       8.174706       0.08726
  21     81.20        0.0004        0.0001        8.0457        8.0458       8.045347       0.08548
  20     96.49        0.0004        0.0001        7.8949        7.8950       7.894644       0.08318
  19     114.6        0.0004        0.0001        7.7162        7.7163       7.715935       0.08344
  18     136.5        0.0004        0.0002        7.5193        7.5194       7.519091       0.07569
  17     162.9        0.0003        0.0002        7.2913        7.2915       7.291200       0.07284
  16     196.4        0.0003        0.0002        6.9660        6.9662       6.965927       0.08187
  15     218.7        0.0003        0.0002        6.6648        6.6650       6.664738       0.11435
  14     243.0        0.0002        0.0002        6.2619        6.2622       6.261944       0.13970
  13     269.0        0.0002        0.0003        5.7576        5.7579       5.757645       0.16359
  12     297.5        0.0002        0.0003        5.1719        5.1722       5.171954       0.17371
  11     328.5        0.0002        0.0002        4.5757        4.5760       4.575795       0.16209
  10     361.9        0.0002        0.0002        3.9995        3.9998       3.999619       0.14578
   9     398.1        0.0001        0.0002        3.4655        3.4657       3.465563       0.12442
   8     437.6        0.0001        0.0002        2.9740        2.9742       2.974116       0.10507
   7     480.5        0.0001        0.0002        2.5307        2.5309       2.530743       0.08708
   6     533.0        0.0001        0.0002        2.0614        2.0616       2.061447       0.07549
   5     589.8        0.0001        0.0002        1.6150        1.6151       1.615018       0.06626
   4     651.6        0.0001        0.0001        1.1565        1.1566       1.156473       0.06271
   3     718.7        0.0001        0.0001        0.7390        0.7391       0.738971       0.05247
   2     792.3        0.0002        0.0001        0.3985        0.3985       0.398314       0.03907
   1     891.5        0.0006        0.0000        0.1139        0.1139       0.113329       0.02425
   0    1013.0        0.0060        0.0000        0.0094        0.0094       0.003406       0.00763



 Wavenumbers:  4000. -  4650. cm-1, ATM      1
 LEVEL PRESSURE   UPWARD FLUX   DIFDOWN FLUX  DIRDOWN FLUX  DOWNWARD FLUX   NET FLUX    HEATING RATE
          mb          W/m2          W/m2          W/m2        W/m2          W/m2       degree/day
  51    .06700        3.9552        0.0000       10.7795       10.7795       6.824298       0.00000
  50    .07753        3.9552        0.0000       10.7795       10.7795       6.824297       0.00080
  49    .09103        3.9552        0.0000       10.7795       10.7795       6.824296       0.00078
  48    0.1069        3.9552        0.0000       10.7795       10.7795       6.824295       0.00076
  47    0.1255        3.9552        0.0000       10.7795       10.7795       6.824293       0.00075
  46    0.1487        3.9552        0.0000       10.7795       10.7795       6.824291       0.00076
  45    0.1794        3.9552        0.0000       10.7795       10.7795       6.824288       0.00078
  44    0.2165        3.9552        0.0000       10.7795       10.7795       6.824285       0.00076
  43    0.2613        3.9552        0.0000       10.7795       10.7795       6.824281       0.00075
  42    0.3336        3.9552        0.0000       10.7795       10.7795       6.824274       0.00077
  41    0.4307        3.9552        0.0000       10.7795       10.7795       6.824265       0.00077
  40    0.5894        3.9552        0.0000       10.7795       10.7795       6.824250       0.00080
  39     1.339        3.9552        0.0000       10.7794       10.7794       6.824161       0.00101
  38     1.782        3.9552        0.0000       10.7793       10.7793       6.824091       0.00133
  37     2.292        3.9552        0.0000       10.7792       10.7792       6.823997       0.00156
  36     2.964        3.9552        0.0000       10.7791       10.7791       6.823857       0.00176
  35     3.853        3.9552        0.0000       10.7789       10.7789       6.823649       0.00197
  34     5.035        3.9552        0.0000       10.7786       10.7786       6.823342       0.00219
  33     6.613        3.9552        0.0000       10.7781       10.7781       6.822891       0.00241
  32     8.786        3.9552        0.0000       10.7774       10.7774       6.822224       0.00259
  31     11.80        3.9552        0.0001       10.7763       10.7764       6.821177       0.00293
  30     15.07        3.9552        0.0001       10.7751       10.7752       6.819949       0.00317
  29     18.79        3.9552        0.0001       10.7736       10.7737       6.818464       0.00337
  28     23.16        3.9552        0.0001       10.7717       10.7718       6.816620       0.00356
  27     28.12        3.9552        0.0001       10.7695       10.7696       6.814389       0.00379
  26     33.73        3.9552        0.0001       10.7667       10.7668       6.811638       0.00414
  25     40.54        3.9552        0.0002       10.7629       10.7631       6.807908       0.00463
  24     48.69        3.9552        0.0002       10.7579       10.7581       6.802939       0.00514
  23     57.69        3.9552        0.0003       10.7520       10.7523       6.797051       0.00552
  22     68.43        3.9552        0.0003       10.7446       10.7449       6.789674       0.00580
  21     81.20        3.9553        0.0004       10.7355       10.7359       6.780595       0.00600
  20     96.49        3.9553        0.0004       10.7245       10.7249       6.769553       0.00609
  19     114.6        3.9555        0.0005       10.7107       10.7112       6.755753       0.00644
  18     136.5        3.9556        0.0006       10.6942       10.6948       6.739139       0.00639
  17     162.9        3.9559        0.0007       10.6740       10.6747       6.718785       0.00651
  16     196.4        3.9565        0.0009       10.6464       10.6472       6.690734       0.00706
  15     218.7        3.9570        0.0009       10.6255       10.6264       6.669406       0.00810
  14     243.0        3.9578        0.0011       10.5980       10.5991       6.641300       0.00975
  13     269.0        3.9590        0.0012       10.5611       10.5622       6.603211       0.01236
  12     297.5        3.9609        0.0013       10.5119       10.5132       6.552321       0.01509
  11     328.5        3.9635        0.0014       10.4499       10.4513       6.487794       0.01754
  10     361.9        3.9669        0.0015       10.3702       10.3717       6.404831       0.02099
   9     398.1        3.9711        0.0017       10.2678       10.2695       6.298346       0.02481
   8     437.6        3.9764        0.0018       10.1390       10.1408       6.164419       0.02863
   7     480.5        3.9830        0.0020        9.9877        9.9897       6.006719       0.03097
   6     533.0        3.9927        0.0022        9.7937        9.7959       5.803123       0.03275
   5     589.8        4.0063        0.0024        9.5752        9.5775       5.571252       0.03442
   4     651.6        4.0268        0.0026        9.2958        9.2983       5.271545       0.04099
   3     718.7        4.0586        0.0027        8.9267        8.9295       4.870833       0.05036
   2     792.3        4.1110        0.0029        8.4542        8.4571       4.346106       0.06018
   1     891.5        4.2312        0.0030        7.7948        7.7979       3.566720       0.06632
   0    1013.0        4.5101        0.0032        7.0767        7.0799       2.569743       0.06923



 Wavenumbers:  4650. -  5150. cm-1, ATM      1
 LEVEL PRESSURE   UPWARD FLUX   DIFDOWN FLUX  DIRDOWN FLUX  DOWNWARD FLUX   NET FLUX    HEATING RATE
          mb          W/m2          W/m2          W/m2        W/m2          W/m2       degree/day
  51    .06700        2.7854        0.0000       10.2033       10.2033       7.417949       0.00000
  50    .07753        2.7854        0.0000       10.2031       10.2031       7.417713       0.18901
  49    .09103        2.7854        0.0000       10.2028       10.2028       7.417418       0.18428
  48    0.1069        2.7854        0.0000       10.2025       10.2025       7.417082       0.17931
  47    0.1255        2.7854        0.0000       10.2021       10.2021       7.416697       0.17426
  46    0.1487        2.7854        0.0000       10.2016       10.2016       7.416216       0.17536
  45    0.1794        2.7854        0.0000       10.2010       10.2010       7.415566       0.17850
  44    0.2165        2.7854        0.0000       10.2002       10.2002       7.414806       0.17277
  43    0.2613        2.7854        0.0000       10.1993       10.1993       7.413921       0.16690
  42    0.3336        2.7854        0.0000       10.1979       10.1979       7.412488       0.16702
  41    0.4307        2.7854        0.0000       10.1960       10.1960       7.410648       0.16002
  40    0.5894        2.7854        0.0000       10.1932       10.1932       7.407774       0.15283
  39     1.339        2.7854        0.0000       10.1816       10.1816       7.396183       0.13050
  38     1.782        2.7854        0.0000       10.1760       10.1760       7.390654       0.10526
  37     2.292        2.7854        0.0000       10.1706       10.1706       7.385198       0.09037
  36     2.964        2.7854        0.0000       10.1646       10.1647       7.379275       0.07435
  35     3.853        2.7854        0.0000       10.1584       10.1584       7.373061       0.05897
  34     5.035        2.7854        0.0000       10.1521       10.1521       7.366725       0.04526
  33     6.613        2.7854        0.0000       10.1456       10.1456       7.360269       0.03452
  32     8.786        2.7854        0.0001       10.1386       10.1386       7.353259       0.02722
  31     11.80        2.7854        0.0001       10.1295       10.1296       7.344220       0.02531
  30     15.07        2.7854        0.0001       10.1196       10.1197       7.334342       0.02550
  29     18.79        2.7854        0.0001       10.1076       10.1077       7.322336       0.02722
  28     23.16        2.7854        0.0001       10.0923       10.0924       7.307032       0.02959
  27     28.12        2.7854        0.0002       10.0731       10.0733       7.287939       0.03246
  26     33.73        2.7854        0.0002       10.0500       10.0503       7.264845       0.03472
  25     40.54        2.7854        0.0003       10.0201       10.0204       7.234941       0.03710
  24     48.69        2.7855        0.0003        9.9820        9.9823       7.196766       0.03950
  23     57.69        2.7856        0.0004        9.9384        9.9388       7.153222       0.04082
  22     68.43        2.7857        0.0004        9.8858        9.8862       7.100479       0.04146
  21     81.20        2.7859        0.0005        9.8234        9.8240       7.038070       0.04124
  20     96.49        2.7861        0.0006        9.7518        9.7524       6.966225       0.03965
  19     114.6        2.7865        0.0007        9.6719        9.6726       6.886130       0.03740
  18     136.5        2.7870        0.0008        9.5858        9.5866       6.799624       0.03326
  17     162.9        2.7878        0.0010        9.4940        9.4950       6.707292       0.02951
  16     196.4        2.7889        0.0012        9.3883        9.3895       6.600577       0.02686
  15     218.7        2.7898        0.0013        9.3229        9.3242       6.534418       0.02512
  14     243.0        2.7911        0.0015        9.2520        9.2534       6.462380       0.02499
  13     269.0        2.7928        0.0016        9.1717        9.1733       6.380502       0.02656
  12     297.5        2.7952        0.0018        9.0763        9.0780       6.282819       0.02897
  11     328.5        2.7985        0.0019        8.9650        8.9669       6.168435       0.03110
  10     361.9        2.8027        0.0021        8.8349        8.8370       6.034357       0.03392
   9     398.1        2.8081        0.0023        8.6820        8.6843       5.876173       0.03685
   8     437.6        2.8152        0.0025        8.5028        8.5053       5.690047       0.03979
   7     480.5        2.8244        0.0026        8.2948        8.2975       5.473061       0.04262
   6     533.0        2.8383        0.0029        8.0209        8.0237       5.185432       0.04627
   5     589.8        2.8575        0.0031        7.7063        7.7094       4.851917       0.04950
   4     651.6        2.8854        0.0033        7.3412        7.3445       4.459085       0.05372
   3     718.7        2.9265        0.0034        6.9387        6.9421       4.015632       0.05573
   2     792.3        2.9887        0.0036        6.5066        6.5102       3.521473       0.05667
   1     891.5        3.1183        0.0038        5.9361        5.9398       2.821505       0.05956
   0    1013.0        3.3805        0.0039        5.3025        5.3064       1.925916       0.06219



 Wavenumbers:  5150. -  6150. cm-1, ATM      1
 LEVEL PRESSURE   UPWARD FLUX   DIFDOWN FLUX  DIRDOWN FLUX  DOWNWARD FLUX   NET FLUX    HEATING RATE
          mb          W/m2          W/m2          W/m2        W/m2          W/m2       degree/day
  51    .06700        7.1156        0.0000       25.5798       25.5798      18.464171       0.00000
  50    .07753        7.1156        0.0000       25.5798       25.5798      18.464132       0.03159
  49    .09103        7.1156        0.0000       25.5797       25.5797      18.464080       0.03207
  48    0.1069        7.1156        0.0000       25.5797       25.5797      18.464019       0.03258
  47    0.1255        7.1156        0.0000       25.5796       25.5796      18.463946       0.03308
  46    0.1487        7.1156        0.0000       25.5795       25.5795      18.463851       0.03485
  45    0.1794        7.1156        0.0000       25.5794       25.5794      18.463715       0.03710
  44    0.2165        7.1156        0.0000       25.5792       25.5792      18.463550       0.03766
  43    0.2613        7.1156        0.0000       25.5790       25.5790      18.463347       0.03824
  42    0.3336        7.1156        0.0000       25.5786       25.5786      18.463001       0.04040
  41    0.4307        7.1156        0.0000       25.5782       25.5782      18.462530       0.04094
  40    0.5894        7.1156        0.0000       25.5774       25.5774      18.461741       0.04195
  39     1.339        7.1156        0.0000       25.5735       25.5736      18.457941       0.04278
  38     1.782        7.1156        0.0001       25.5713       25.5714      18.455729       0.04212
  37     2.292        7.1156        0.0001       25.5688       25.5688      18.453225       0.04147
  36     2.964        7.1156        0.0001       25.5656       25.5657      18.450044       0.03993
  35     3.853        7.1156        0.0001       25.5615       25.5616      18.446002       0.03836
  34     5.035        7.1156        0.0001       25.5562       25.5564      18.440798       0.03718
  33     6.613        7.1156        0.0002       25.5494       25.5496      18.434046       0.03609
  32     8.786        7.1156        0.0003       25.5406       25.5409      18.425297       0.03398
  31     11.80        7.1155        0.0003       25.5287       25.5290      18.413467       0.03312
  30     15.07        7.1155        0.0004       25.5167       25.5171      18.401604       0.03063
  29     18.79        7.1155        0.0006       25.5042       25.5047      18.389204       0.02812
  28     23.16        7.1155        0.0007       25.4907       25.4914      18.375848       0.02583
  27     28.12        7.1155        0.0008       25.4764       25.4773      18.361766       0.02394
  26     33.73        7.1155        0.0010       25.4620       25.4630      18.347499       0.02145
  25     40.54        7.1155        0.0012       25.4463       25.4474      18.331902       0.01935
  24     48.69        7.1156        0.0014       25.4294       25.4308      18.315205       0.01728
  23     57.69        7.1157        0.0017       25.4126       25.4143      18.298632       0.01553
  22     68.43        7.1158        0.0020       25.3944       25.3964      18.280642       0.01414
  21     81.20        7.1159        0.0024       25.3744       25.3768      18.260851       0.01308
  20     96.49        7.1162        0.0028       25.3519       25.3548      18.238613       0.01227
  19     114.6        7.1164        0.0034       25.3262       25.3295      18.213114       0.01191
  18     136.5        7.1167        0.0040       25.2962       25.3002      18.183436       0.01141
  17     162.9        7.1172        0.0047       25.2521       25.2568      18.139665       0.01399
  16     196.4        7.1178        0.0057       25.1593       25.1650      18.047223       0.02327
  15     218.7        7.1182        0.0063       25.0159       25.0222      17.904029       0.05437
  14     243.0        7.1188        0.0069       24.7089       24.7159      17.597088       0.10646
  13     269.0        7.1195        0.0076       24.1619       24.1694      17.049915       0.17750
  12     297.5        7.1205        0.0082       23.4544       23.4626      16.342056       0.20994
  11     328.5        7.1218        0.0088       22.7355       22.7443      15.622473       0.19565
  10     361.9        7.1234        0.0094       21.9224       21.9318      14.808394       0.20597
   9     398.1        7.1256        0.0100       20.9939       21.0039      13.878330       0.21668
   8     437.6        7.1284        0.0106       19.9833       19.9939      12.865464       0.21656
   7     480.5        7.1322        0.0111       18.9483       18.9594      11.827235       0.20390
   6     533.0        7.1381        0.0117       17.7796       17.7913      10.653174       0.18887
   5     589.8        7.1472        0.0123       16.6726       16.6849       9.537723       0.16557
   4     651.6        7.1626        0.0130       15.6343       15.6473       8.484716       0.14400
   3     718.7        7.1886        0.0137       14.7738       14.7875       7.598848       0.11133
   2     792.3        7.2354        0.0145       14.0291       14.0436       6.808203       0.09068
   1     891.5        7.3531        0.0155       13.0822       13.0977       5.744535       0.09051
   0    1013.0        7.6803        0.0165       12.0384       12.0549       4.374629       0.09512



 Wavenumbers:  6150. -  7700. cm-1, ATM      1
 LEVEL PRESSURE   UPWARD FLUX   DIFDOWN FLUX  DIRDOWN FLUX  DOWNWARD FLUX   NET FLUX    HEATING RATE
          mb          W/m2          W/m2          W/m2        W/m2          W/m2       degree/day
  51    .06700       10.4868        0.0000       47.3109       47.3109      36.824070       0.00000
  50    .07753       10.4868        0.0000       47.3108       47.3108      36.824013       0.04553
  49    .09103       10.4868        0.0000       47.3107       47.3107      36.823939       0.04583
  48    0.1069       10.4868        0.0000       47.3106       47.3106      36.823853       0.04614
  47    0.1255       10.4868        0.0000       47.3105       47.3105      36.823750       0.04645
  46    0.1487       10.4868        0.0000       47.3104       47.3104      36.823617       0.04852
  45    0.1794       10.4868        0.0000       47.3102       47.3102      36.823430       0.05127
  44    0.2165       10.4868        0.0000       47.3100       47.3100      36.823203       0.05167
  43    0.2613       10.4868        0.0000       47.3097       47.3097      36.822927       0.05210
  42    0.3336       10.4868        0.0000       47.3092       47.3092      36.822458       0.05471
  41    0.4307       10.4868        0.0000       47.3085       47.3086      36.821823       0.05521
  40    0.5894       10.4867        0.0001       47.3074       47.3075      36.820763       0.05633
  39     1.339       10.4867        0.0002       47.3022       47.3023      36.815671       0.05733
  38     1.782       10.4866        0.0002       47.2991       47.2993      36.812701       0.05655
  37     2.292       10.4866        0.0003       47.2956       47.2959      36.809325       0.05591
  36     2.964       10.4865        0.0004       47.2912       47.2915      36.805007       0.05421
  35     3.853       10.4865        0.0005       47.2855       47.2859      36.799473       0.05252
  34     5.035       10.4864        0.0006       47.2780       47.2786      36.792292       0.05129
  33     6.613       10.4862        0.0008       47.2683       47.2691      36.782904       0.05019
  32     8.786       10.4860        0.0011       47.2556       47.2566      36.770605       0.04777
  31     11.80       10.4858        0.0014       47.2380       47.2395      36.753702       0.04732
  30     15.07       10.4855        0.0018       47.2201       47.2219      36.736415       0.04463
  29     18.79       10.4851        0.0023       47.2008       47.2031      36.717936       0.04190
  28     23.16       10.4848        0.0028       47.1795       47.1823      36.697547       0.03943
  27     28.12       10.4843        0.0034       47.1565       47.1599      36.675554       0.03739
  26     33.73       10.4838        0.0041       47.1324       47.1365      36.652635       0.03446
  25     40.54       10.4832        0.0049       47.1054       47.1102      36.627000       0.03180
  24     48.69       10.4825        0.0058       47.0754       47.0813      36.598750       0.02923
  23     57.69       10.4817        0.0069       47.0449       47.0519      36.570132       0.02683
  22     68.43       10.4808        0.0082       47.0110       47.0192      36.538400       0.02495
  21     81.20       10.4797        0.0097       46.9729       46.9826      36.502914       0.02345
  20     96.49       10.4784        0.0116       46.9294       46.9409      36.462583       0.02226
  19     114.6       10.4768        0.0137       46.8790       46.8927      36.415965       0.02177
  18     136.5       10.4749        0.0163       46.8200       46.8363      36.361365       0.02100
  17     162.9       10.4727        0.0194       46.7361       46.7555      36.282785       0.02512
  16     196.4       10.4699        0.0233       46.5703       46.5935      36.123693       0.04005
  15     218.7       10.4681        0.0258       46.3473       46.3731      35.905070       0.08300
  14     243.0       10.4662        0.0285       45.9299       45.9584      35.492119       0.14323
  13     269.0       10.4645        0.0311       45.1708       45.2019      34.737421       0.24482
  12     297.5       10.4631        0.0337       44.0115       44.0452      33.582122       0.34265
  11     328.5       10.4620        0.0363       42.7242       42.7606      32.298516       0.34901
  10     361.9       10.4617        0.0390       41.3539       41.3929      30.931259       0.34593
   9     398.1       10.4623        0.0415       39.7953       39.8368      29.374526       0.36268
   8     437.6       10.4646        0.0439       37.9948       38.0387      27.574133       0.38494
   7     480.5       10.4692        0.0462       36.0647       36.1109      25.641678       0.37953
   6     533.0       10.4791        0.0485       33.7773       33.8258      23.346660       0.36920
   5     589.8       10.4978        0.0506       31.4082       31.4588      20.960995       0.35411
   4     651.6       10.5346        0.0522       28.8834       28.9356      18.401049       0.35008
   3     718.7       10.6022        0.0537       26.4104       26.4640      15.861863       0.31911
   2     792.3       10.7284        0.0548       24.0056       24.0604      13.331967       0.29015
   1     891.5       11.0487        0.0560       21.2348       21.2908      10.242153       0.26293
   0    1013.0       11.8989        0.0574       18.6150       18.6725       6.773602       0.24084



 Wavenumbers:  7700. -  8050. cm-1, ATM      1
 LEVEL PRESSURE   UPWARD FLUX   DIFDOWN FLUX  DIRDOWN FLUX  DOWNWARD FLUX   NET FLUX    HEATING RATE
          mb          W/m2          W/m2          W/m2        W/m2          W/m2       degree/day
  51    .06700        5.6084        0.0000       11.1810       11.1810       5.572609       0.00000
  50    .07753        5.6084        0.0000       11.1809       11.1809       5.572588       0.01717
  49    .09103        5.6084        0.0000       11.1809       11.1809       5.572561       0.01683
  48    0.1069        5.6084        0.0000       11.1809       11.1809       5.572530       0.01648
  47    0.1255        5.6084        0.0000       11.1809       11.1809       5.572495       0.01612
  46    0.1487        5.6084        0.0000       11.1808       11.1808       5.572450       0.01636
  45    0.1794        5.6084        0.0000       11.1808       11.1808       5.572388       0.01683
  44    0.2165        5.6084        0.0000       11.1807       11.1807       5.572316       0.01651
  43    0.2613        5.6084        0.0000       11.1806       11.1806       5.572230       0.01620
  42    0.3336        5.6084        0.0000       11.1805       11.1805       5.572088       0.01658
  41    0.4307        5.6085        0.0000       11.1803       11.1804       5.571899       0.01640
  40    0.5894        5.6085        0.0000       11.1801       11.1801       5.571591       0.01638
  39     1.339        5.6087        0.0001       11.1788       11.1789       5.570134       0.01641
  38     1.782        5.6089        0.0001       11.1781       11.1782       5.569278       0.01630
  37     2.292        5.6090        0.0001       11.1772       11.1773       5.568287       0.01641
  36     2.964        5.6092        0.0002       11.1761       11.1762       5.566986       0.01633
  35     3.853        5.6095        0.0002       11.1746       11.1748       5.565267       0.01631
  34     5.035        5.6099        0.0003       11.1726       11.1729       5.562984       0.01631
  33     6.613        5.6104        0.0004       11.1700       11.1703       5.559935       0.01630
  32     8.786        5.6110        0.0005       11.1664       11.1669       5.555828       0.01595
  31     11.80        5.6120        0.0006       11.1613       11.1619       5.549957       0.01644
  30     15.07        5.6130        0.0008       11.1558       11.1567       5.543659       0.01626
  29     18.79        5.6142        0.0010       11.1497       11.1507       5.536552       0.01611
  28     23.16        5.6155        0.0013       11.1425       11.1438       5.528262       0.01603
  27     28.12        5.6170        0.0015       11.1343       11.1358       5.518798       0.01609
  26     33.73        5.6188        0.0018       11.1252       11.1270       5.508229       0.01589
  25     40.54        5.6209        0.0022       11.1142       11.1164       5.495491       0.01580
  24     48.69        5.6235        0.0026       11.1010       11.1036       5.480181       0.01584
  23     57.69        5.6263        0.0031       11.0866       11.0897       5.463424       0.01571
  22     68.43        5.6297        0.0037       11.0695       11.0732       5.443551       0.01562
  21     81.20        5.6337        0.0044       11.0494       11.0537       5.419995       0.01557
  20     96.49        5.6386        0.0052       11.0255       11.0307       5.392096       0.01540
  19     114.6        5.6445        0.0062       10.9975       11.0037       5.359207       0.01536
  18     136.5        5.6515        0.0073       10.9648       10.9721       5.320549       0.01487
  17     162.9        5.6600        0.0087       10.9263       10.9350       5.274949       0.01458
  16     196.4        5.6712        0.0104       10.8773       10.8877       5.216480       0.01472
  15     218.7        5.6787        0.0116       10.8455       10.8571       5.178435       0.01444
  14     243.0        5.6870        0.0129       10.8114       10.8243       5.137339       0.01425
  13     269.0        5.6961        0.0142       10.7749       10.7891       5.093021       0.01438
  12     297.5        5.7061        0.0157       10.7357       10.7514       5.045254       0.01417
  11     328.5        5.7173        0.0173       10.6937       10.7110       4.993723       0.01401
  10     361.9        5.7296        0.0190       10.6489       10.6678       4.938194       0.01405
   9     398.1        5.7434        0.0208       10.6008       10.6216       4.878165       0.01399
   8     437.6        5.7588        0.0228       10.5491       10.5718       4.813010       0.01393
   7     480.5        5.7762        0.0249       10.4934       10.5183       4.742150       0.01392
   6     533.0        5.7988        0.0275       10.4243       10.4517       4.652988       0.01434
   5     589.8        5.8251        0.0302       10.3479       10.3781       4.553023       0.01484
   4     651.6        5.8567        0.0332       10.2613       10.2946       4.437826       0.01575
   3     718.7        5.8954        0.0364       10.1618       10.1981       4.302684       0.01698
   2     792.3        5.9445        0.0397       10.0439       10.0836       4.139119       0.01876
   1     891.5        6.0269        0.0441        9.8626        9.9067       3.879842       0.02206
   0    1013.0        6.1570        0.0492        9.6103        9.6595       3.502532       0.02620



 Wavenumbers:  8050. - 12850. cm-1, ATM      1
 LEVEL PRESSURE   UPWARD FLUX   DIFDOWN FLUX  DIRDOWN FLUX  DOWNWARD FLUX   NET FLUX    HEATING RATE
          mb          W/m2          W/m2          W/m2        W/m2          W/m2       degree/day
  51    .06700       68.4954        0.0000      156.5418      156.5418      88.046387       0.00000
  50    .07753       68.4953        0.0000      156.5417      156.5417      88.046387       0.00000
  49    .09103       68.4953        0.0001      156.5417      156.5417      88.046387      -0.00000
  48    0.1069       68.4953        0.0001      156.5416      156.5417      88.046387       0.00000
  47    0.1255       68.4953        0.0002      156.5415      156.5417      88.046387      -0.00000
  46    0.1487       68.4953        0.0002      156.5414      156.5416      88.046387       0.00000
  45    0.1794       68.4952        0.0003      156.5413      156.5416      88.046387       0.00000
  44    0.2165       68.4952        0.0004      156.5412      156.5415      88.046387      -0.00000
  43    0.2613       68.4951        0.0005      156.5410      156.5415      88.046387       0.00000
  42    0.3336       68.4950        0.0007      156.5407      156.5414      88.046387       0.00000
  41    0.4307       68.4949        0.0010      156.5403      156.5413      88.046387      -0.00000
  40    0.5894       68.4947        0.0014      156.5397      156.5410      88.046387       0.00000
  39     1.339       68.4937        0.0033      156.5367      156.5400      88.046387       0.00000
  38     1.782       68.4931        0.0045      156.5350      156.5395      88.046387      -0.00000
  37     2.292       68.4924        0.0058      156.5330      156.5388      88.046387       0.00000
  36     2.964       68.4915        0.0075      156.5303      156.5379      88.046387       0.00000
  35     3.853       68.4903        0.0098      156.5268      156.5367      88.046387      -0.00000
  34     5.035       68.4887        0.0129      156.5222      156.5351      88.046387       0.00000
  33     6.613       68.4866        0.0170      156.5160      156.5330      88.046387       0.00000
  32     8.786       68.4838        0.0225      156.5076      156.5302      88.046387      -0.00000
  31     11.80       68.4797        0.0304      156.4957      156.5261      88.046387       0.00000
  30     15.07       68.4754        0.0390      156.4828      156.5217      88.046387       0.00000
  29     18.79       68.4704        0.0486      156.4682      156.5168      88.046387      -0.00000
  28     23.16       68.4646        0.0598      156.4512      156.5110      88.046387      -0.00000
  27     28.12       68.4580        0.0727      156.4317      156.5044      88.046387       0.00000
  26     33.73       68.4506        0.0871      156.4099      156.4970      88.046387       0.00000
  25     40.54       68.4416        0.1046      156.3834      156.4880      88.046387       0.00000
  24     48.69       68.4308        0.1257      156.3515      156.4772      88.046387       0.00000
  23     57.69       68.4189        0.1488      156.3164      156.4653      88.046387       0.00000
  22     68.43       68.4046        0.1765      156.2746      156.4510      88.046387      -0.00000
  21     81.20       68.3877        0.2095      156.2246      156.4341      88.046387       0.00000
  20     96.49       68.3674        0.2489      156.1649      156.4138      88.046387       0.00000
  19     114.6       68.3434        0.2957      156.0879      156.3837      88.040224       0.00288
  18     136.5       68.3149        0.3513      155.9962      156.3475      88.032575       0.00294
  17     162.9       68.2809        0.4177      155.8831      156.3008      88.019863       0.00406
  16     196.4       68.2368        0.5041      155.7199      156.2240      87.987213       0.00822
  15     218.7       68.2079        0.5608      155.5733      156.1341      87.926259       0.02314
  14     243.0       68.1767        0.6225      155.3367      155.9592      87.782436       0.04988
  13     269.0       68.1438        0.6892      154.9514      155.6406      87.496772       0.09267
  12     297.5       68.1099        0.7609      154.3896      155.1505      87.040640       0.13528
  11     328.5       68.0753        0.8382      153.7151      154.5533      86.477997       0.15298
  10     361.9       68.0412        0.9211      152.9087      153.8299      85.788692       0.17440
   9     398.1       68.0092        1.0097      151.8986      152.9083      84.899148       0.20724
   8     437.6       67.9824        1.1038      150.6031      151.7070      83.724567       0.25113
   7     480.5       67.9646        1.2032      149.0014      150.2046      82.240026       0.29156
   6     533.0       67.9629        1.3231      146.7375      148.0607      80.097743       0.34463
   5     589.8       67.9984        1.4484      143.8730      145.3214      77.323033       0.41186
   4     651.6       68.1140        1.5764      140.0955      141.6719      73.557912       0.51489
   3     718.7       68.3656        1.7058      135.5278      137.2336      68.868070       0.58938
   2     792.3       68.8753        1.8334      130.0690      131.9024      63.027141       0.66989
   1     891.5       70.2023        1.9867      122.1273      124.1140      53.911688       0.77568
   0    1013.0       73.4883        2.1501      112.9512      115.1013      41.613000       0.85396



 Wavenumbers: 12850. - 16000. cm-1, ATM      1
 LEVEL PRESSURE   UPWARD FLUX   DIFDOWN FLUX  DIRDOWN FLUX  DOWNWARD FLUX   NET FLUX    HEATING RATE
          mb          W/m2          W/m2          W/m2        W/m2          W/m2       degree/day
  51    .06700       68.4504        0.0000       98.0872       98.0872      29.636880       0.00000
  50    .07753       68.4504        0.0001       98.0864       98.0864      29.636091       0.63252
  49    .09103       68.4503        0.0002       98.0853       98.0854      29.635100       0.61919
  48    0.1069       68.4503        0.0002       98.0841       98.0843      29.633962       0.60555
  47    0.1255       68.4503        0.0004       98.0826       98.0830      29.632656       0.59216
  46    0.1487       68.4503        0.0005       98.0809       98.0814      29.631009       0.60041
  45    0.1794       68.4504        0.0007       98.0784       98.0791      29.628770       0.61464
  44    0.2165       68.4504        0.0009       98.0756       98.0765      29.626139       0.59855
  43    0.2613       68.4505        0.0012       98.0723       98.0735      29.623048       0.58261
  42    0.3336       68.4506        0.0016       98.0670       98.0687      29.618010       0.58735
  41    0.4307       68.4509        0.0022       98.0602       98.0624      29.611506       0.56551
  40    0.5894       68.4515        0.0032       98.0496       98.0528      29.601283       0.54370
  39     1.339       68.4568        0.0078       98.0043       98.0121      29.555368       0.51692
  38     1.782       68.4617        0.0105       97.9793       97.9897      29.528072       0.51967
  37     2.292       68.4691        0.0136       97.9498       97.9633      29.494259       0.56003
  36     2.964       68.4815        0.0177       97.9088       97.9265      29.445011       0.61821
  35     3.853       68.5015        0.0230       97.8503       97.8734      29.371882       0.69400
  34     5.035       68.5318        0.0302       97.7680       97.7982      29.266423       0.75336
  33     6.613       68.5741        0.0397       97.6562       97.6959      29.121886       0.77269
  32     8.786       68.6291        0.0526       97.5107       97.5633      28.934208       0.72888
  31     11.80       68.7006        0.0710       97.3179       97.3888      28.688274       0.68854
  30     15.07       68.7689        0.0907       97.1283       97.2190      28.450102       0.61491
  29     18.79       68.8386        0.1129       96.9300       97.0430      28.204395       0.55709
  28     23.16       68.9112        0.1389       96.7166       96.8555      27.944282       0.50297
  27     28.12       68.9840        0.1686       96.4935       96.6620      27.678014       0.45264
  26     33.73       69.0510        0.2017       96.2731       96.4748      27.423865       0.38212
  25     40.54       69.1150        0.2418       96.0408       96.2826      27.167652       0.31786
  24     48.69       69.1757        0.2902       95.7946       96.0847      26.909046       0.26762
  23     57.69       69.2265        0.3433       95.5573       95.9005      26.674044       0.22028
  22     68.43       69.2698        0.4065       95.3106       95.7171      26.447382       0.17819
  21     81.20       69.2977        0.4820       95.0643       95.5463      26.248665       0.13131
  20     96.49       69.3090        0.5720       94.8153       95.3873      26.078216       0.09408
  19     114.6       69.3238        0.6799       94.5411       95.2210      25.897214       0.08452
  18     136.5       69.3312        0.8079       94.2320       95.0399      25.708703       0.07249
  17     162.9       69.3308        0.9602       93.8753       94.8355      25.504699       0.06521
  16     196.4       69.3107        1.1576       93.4347       94.5923      25.281614       0.05615
  15     218.7       69.2904        1.2873       93.1513       94.4386      25.148153       0.05067
  14     243.0       69.2653        1.4282       92.8439       94.2721      25.006824       0.04902
  13     269.0       69.2352        1.5809       92.5111       94.0920      24.856780       0.04867
  12     297.5       69.2004        1.7458       92.1495       93.8953      24.694877       0.04802
  11     328.5       69.1625        1.9240       91.7554       93.6794      24.516888       0.04839
  10     361.9       69.1221        2.1158       91.3262       93.4420      24.319927       0.04983
   9     398.1       69.0801        2.3221       90.8575       93.1797      24.099581       0.05134
   8     437.6       69.0387        2.5435       90.3418       92.8853      23.846682       0.05407
   7     480.5       68.9998        2.7807       89.7728       92.5535      23.553609       0.05756
   6     533.0       68.9633        3.0721       89.0428       92.1149      23.151652       0.06466
   5     589.8       68.9453        3.3852       88.2038       91.5891      22.643762       0.07539
   4     651.6       68.9704        3.7197       87.1979       90.9177      21.947210       0.09526
   3     718.7       69.0547        4.0739       86.0161       90.0900      21.035298       0.11460
   2     792.3       69.2503        4.4441       84.5970       89.0411      19.790791       0.14273
   1     891.5       69.7640        4.9253       82.4374       87.3627      17.598694       0.18654
   0    1013.0       70.8806        5.4768       79.6182       85.0950      14.214392       0.23499



 Wavenumbers: 16000. - 22650. cm-1, ATM      1
 LEVEL PRESSURE   UPWARD FLUX   DIFDOWN FLUX  DIRDOWN FLUX  DOWNWARD FLUX   NET FLUX    HEATING RATE
          mb          W/m2          W/m2          W/m2        W/m2          W/m2       degree/day
  51    .06700      139.1007        0.0000      156.3892      156.3892      17.288513       0.00000
  50    .07753      139.1007        0.0004      156.3887      156.3891      17.288367       0.11748
  49    .09103      139.1007        0.0009      156.3879      156.3888      17.288153       0.13325
  48    0.1069      139.1007        0.0015      156.3871      156.3885      17.287868       0.15195
  47    0.1255      139.1007        0.0021      156.3861      156.3882      17.287486       0.17320
  46    0.1487      139.1007        0.0029      156.3847      156.3877      17.286923       0.20524
  45    0.1794      139.1008        0.0041      156.3828      156.3869      17.286043       0.24166
  44    0.2165      139.1011        0.0054      156.3805      156.3859      17.284849       0.27160
  43    0.2613      139.1014        0.0070      156.3776      156.3846      17.283229       0.30534
  42    0.3336      139.1021        0.0096      156.3726      156.3822      17.280149       0.35908
  41    0.4307      139.1033        0.0131      156.3657      156.3788      17.275507       0.40364
  40    0.5894      139.1058        0.0188      156.3537      156.3724      17.266653       0.47083
  39     1.339      139.1278        0.0456      156.2834      156.3290      17.201241       0.73642
  38     1.782      139.1482        0.0614      156.2324      156.2937      17.145518       1.06088
  37     2.292      139.1789        0.0796      156.1641      156.2437      17.064859       1.33593
  36     2.964      139.2299        0.1036      156.0605      156.1641      16.934191       1.64028
  35     3.853      139.3124        0.1352      155.9041      156.0393      16.726854       1.96766
  34     5.035      139.4370        0.1772      155.6774      155.8545      16.417529       2.20969
  33     6.613      139.6111        0.2332      155.3656      155.5988      15.987664       2.29805
  32     8.786      139.8379        0.3085      154.9577      155.2662      15.428328       2.17226
  31     11.80      140.1329        0.4162      154.4153      154.8315      14.698564       2.04311
  30     15.07      140.4154        0.5316      153.8804      154.4120      13.996582       1.81238
  29     18.79      140.7037        0.6618      153.3191      153.9809      13.277144       1.63119
  28     23.16      141.0049        0.8136      152.7126      153.5262      12.521231       1.46169
  27     28.12      141.3078        0.9870      152.0755      153.0624      11.754642       1.30315
  26     33.73      141.5871        1.1807      151.4409      152.6217      11.034617       1.08258
  25     40.54      141.8554        1.4147      150.7637      152.1784      10.323005       0.88284
  24     48.69      142.1117        1.6964      150.0338      151.7302       9.618530       0.72902
  23     57.69      142.3284        2.0055      149.3151      151.3206       8.992209       0.58708
  22     68.43      142.5165        2.3732      148.5476      150.9208       8.404286       0.46219
  21     81.20      142.6447        2.8110      147.7517      150.5626       7.917957       0.32136
  20     96.49      142.7084        3.3321      146.9127      150.2447       7.536328       0.21063
  19     114.6      142.7385        3.9490      145.9763      149.9253       7.186847       0.16318
  18     136.5      142.7432        4.6775      144.9088      149.5862       6.843062       0.13219
  17     162.9      142.7207        5.5408      143.6785      149.2194       6.498707       0.11007
  16     196.4      142.6307        6.6547      142.1651      148.8198       6.189011       0.07795
  15     218.7      142.5495        7.3826      141.2033      148.5859       6.036450       0.05792
  14     243.0      142.4509        8.1704      140.1753      148.3457       5.894765       0.04914
  13     269.0      142.3335        9.0202      139.0797      148.0999       5.766364       0.04165
  12     297.5      142.1966        9.9341      137.9141      147.8482       5.651631       0.03403
  11     328.5      142.0440       10.9164      136.6676      147.5840       5.540012       0.03035
  10     361.9      141.8754       11.9679      135.3392      147.3071       5.431651       0.02742
   9     398.1      141.6905       13.0927      133.9235      147.0162       5.325678       0.02469
   8     437.6      141.4900       14.2927      132.4163      146.7090       5.218996       0.02281
   7     480.5      141.2734       15.5701      130.8147      146.3848       5.111337       0.02114
   6     533.0      141.0069       17.1301      128.8599      145.9901       4.983174       0.02062
   5     589.8      140.7233       18.7968      126.7679      145.5648       4.841511       0.02103
   4     651.6      140.4286       20.5717      124.5274      145.0992       4.670613       0.02337
   3     718.7      140.1287       22.4566      122.1285      144.5850       4.456368       0.02692
   2     792.3      139.8397       24.4492      119.5548      144.0040       4.164265       0.03350
   1     891.5      139.5276       27.0938      116.0566      143.1504       3.622796       0.04608
   0    1013.0      139.2802       30.2007      111.8404      142.0411       2.760975       0.05984



 Wavenumbers: 22650. - 29000. cm-1, ATM      1
 LEVEL PRESSURE   UPWARD FLUX   DIFDOWN FLUX  DIRDOWN FLUX  DOWNWARD FLUX   NET FLUX    HEATING RATE
          mb          W/m2          W/m2          W/m2        W/m2          W/m2       degree/day
  51    .06700       57.9287        0.0000       59.0156       59.0156       1.086865       0.00000
  50    .07753       57.9287        0.0005       59.0151       59.0155       1.086865       0.00000
  49    .09103       57.9285        0.0010       59.0144       59.0154       1.086865      -0.00000
  48    0.1069       57.9284        0.0017       59.0136       59.0153       1.086865       0.00000
  47    0.1255       57.9283        0.0025       59.0127       59.0151       1.086865      -0.00000
  46    0.1487       57.9281        0.0034       59.0115       59.0149       1.086865      -0.00000
  45    0.1794       57.9278        0.0048       59.0099       59.0147       1.086865       0.00000
  44    0.2165       57.9275        0.0063       59.0080       59.0144       1.086865       0.00000
  43    0.2613       57.9271        0.0082       59.0058       59.0140       1.086865       0.00000
  42    0.3336       57.9265        0.0112       59.0022       59.0134       1.086865      -0.00000
  41    0.4307       57.9257        0.0153       58.9973       59.0126       1.086865       0.00000
  40    0.5894       57.9244        0.0219       58.9894       59.0113       1.086865      -0.00000
  39     1.339       57.9182        0.0532       58.9518       59.0050       1.086865       0.00000
  38     1.782       57.9145        0.0717       58.9297       59.0014       1.086865       0.00000
  37     2.292       57.9103        0.0930       58.9042       58.9971       1.086865      -0.00000
  36     2.964       57.9047        0.1209       58.8706       58.9916       1.086865       0.00000
  35     3.853       57.8974        0.1579       58.8264       58.9842       1.086865       0.00000
  34     5.035       57.8876        0.2069       58.7676       58.9745       1.086865      -0.00000
  33     6.613       57.8746        0.2724       58.6891       58.9615       1.086865       0.00000
  32     8.786       57.8571        0.3605       58.5834       58.9440       1.086865       0.00000
  31     11.80       57.8321        0.4865       58.4324       58.9189       1.086865       0.00000
  30     15.07       57.8052        0.6214       58.2706       58.8921       1.086865      -0.00000
  29     18.79       57.7750        0.7736       58.0882       58.8618       1.086865       0.00000
  28     23.16       57.7397        0.9509       57.8757       58.8266       1.086865       0.00000
  27     28.12       57.6995        1.1530       57.6333       58.7864       1.086865       0.00000
  26     33.73       57.6546        1.3784       57.3631       58.7415       1.086865       0.00000
  25     40.54       57.6007        1.6496       57.0379       58.6875       1.086865      -0.00000
  24     48.69       57.5359        1.9749       56.6479       58.6228       1.086865       0.00000
  23     57.69       57.4652        2.3300       56.2221       58.5521       1.086865      -0.00000
  22     68.43       57.3815        2.7498       55.7186       58.4684       1.086865       0.00000
  21     81.20       57.2827        3.2457       55.1239       58.3696       1.086865      -0.00000
  20     96.49       57.1661        3.8302       54.4228       58.2530       1.086865      -0.00000
  19     114.6       57.0294        4.5152       53.6010       58.1162       1.086865       0.00000
  18     136.5       56.8696        5.3147       52.6418       57.9565       1.086865       0.00000
  17     162.9       56.6827        6.2492       51.5203       57.7696       1.086865       0.00000
  16     196.4       56.4456        7.4330       50.0994       57.5324       1.086865       0.00000
  15     218.7       56.2930        8.1936       49.1863       57.3799       1.086865       0.00000
  14     243.0       56.1300        9.0056       48.2113       57.2168       1.086865       0.00000
  13     269.0       55.9565        9.8684       47.1749       57.0434       1.086865      -0.00000
  12     297.5       55.7727       10.7813       46.0783       56.8595       1.086865       0.00000
  11     328.5       55.5782       11.7456       44.9195       56.6651       1.086865       0.00000
  10     361.9       55.3736       12.7586       43.7018       56.4604       1.086865       0.00000
   9     398.1       55.1587       13.8205       42.4250       56.2455       1.086865       0.00000
   8     437.6       54.9338       14.9290       41.0916       56.0207       1.086865      -0.00000
   7     480.5       54.6994       16.0818       39.7045       55.7863       1.086865       0.00000
   6     533.0       54.4199       17.4525       38.0543       55.5068       1.086865      -0.00000
   5     589.8       54.1293       18.8731       36.3431       55.2162       1.086865      -0.00000
   4     651.6       53.8288       20.3361       34.5795       54.9157       1.086865       0.00000
   3     718.7       53.5193       21.8360       32.7702       54.6062       1.086865      -0.00000
   2     792.3       53.2025       23.3638       30.9256       54.2894       1.086865       0.00000
   1     891.5       52.7971       25.3062       28.5778       53.8840       1.086865       0.00000
   0    1013.0       52.3427       27.4631       25.9665       53.4296       1.086865       0.00000



 Wavenumbers: 29000. - 38000. cm-1, ATM      1
 LEVEL PRESSURE   UPWARD FLUX   DIFDOWN FLUX  DIRDOWN FLUX  DOWNWARD FLUX   NET FLUX    HEATING RATE
          mb          W/m2          W/m2          W/m2        W/m2          W/m2       degree/day
  51    .06700        8.6733        0.0000       20.8114       20.8114      12.138089       0.00000
  50    .07753        8.6731        0.0003       20.8070       20.8074      12.134282       3.05145
  49    .09103        8.6729        0.0007       20.8009       20.8016      12.128745       3.46073
  48    0.1069        8.6726        0.0012       20.7928       20.7939      12.121336       3.94416
  47    0.1255        8.6723        0.0017       20.7820       20.7837      12.111431       4.49019
  46    0.1487        8.6720        0.0024       20.7665       20.7688      12.096869       5.30825
  45    0.1794        8.6715        0.0033       20.7424       20.7457      12.074205       6.22182
  44    0.2165        8.6710        0.0043       20.7103       20.7147      12.043683       6.94315
  43    0.2613        8.6704        0.0056       20.6675       20.6731      12.002690       7.72703
  42    0.3336        8.6695        0.0077       20.5880       20.5956      11.926132       8.92590
  41    0.4307        8.6684        0.0104       20.4722       20.4826      11.814184       9.73363
  40    0.5894        8.6668        0.0147       20.2637       20.2784      11.611509      10.77799
  39     1.339        8.6633        0.0331       19.0984       19.1314      10.468100      12.87271
  38     1.782        8.6637        0.0426       18.4394       18.4820       9.818233      12.37242
  37     2.292        8.6663        0.0529       17.7714       17.8243       9.157969      10.93569
  36     2.964        8.6727        0.0655       17.0421       17.1077       8.434974       9.07577
  35     3.853        8.6853        0.0814       16.2678       16.3493       7.663998       7.31671
  34     5.035        8.7060        0.1015       15.4803       15.5818       6.875803       5.63054
  33     6.613        8.7363        0.1272       14.7157       14.8429       6.106635       4.11198
  32     8.786        8.7762        0.1609       13.9936       14.1545       5.378227       2.82887
  31     11.80        8.8284        0.2078       13.2835       13.4913       4.662976       2.00248
  30     15.07        8.8786        0.2564       12.7394       12.9958       4.117199       1.40909
  29     18.79        8.9305        0.3103       12.2666       12.5769       3.646479       1.06726
  28     23.16        8.9855        0.3716       11.8300       12.2016       3.216123       0.83217
  27     28.12        9.0419        0.4403       11.4279       11.8681       2.826246       0.66276
  26     33.73        9.0938        0.5159       11.0695       11.5854       2.491531       0.50325
  25     40.54        9.1430        0.6063       10.7209       11.3272       2.184170       0.38132
  24     48.69        9.1892        0.7135       10.3742       11.0877       1.898440       0.29569
  23     57.69        9.2270        0.8295       10.0549       10.8844       1.657441       0.22590
  22     68.43        9.2572        0.9656        9.7327       10.6983       1.441143       0.17004
  21     81.20        9.2710        1.1263        9.4134       10.5397       1.268710       0.11394
  20     96.49        9.2664        1.3152        9.0887       10.4039       1.137481       0.07243
  19     114.6        9.2514        1.5333        8.7388       10.2721       1.020699       0.05453
  18     136.5        9.2289        1.7827        8.3549       10.1376       0.908674       0.04308
  17     162.9        9.1991        2.0669        7.9311        9.9981       0.799022       0.03505
  16     196.4        9.1496        2.4189        7.4333        9.8522       0.702542       0.02429
  15     218.7        9.1142        2.6402        7.1295        9.7697       0.655502       0.01786
  14     243.0        9.0755        2.8715        6.8161        9.6875       0.612076       0.01506
  13     269.0        9.0331        3.1119        6.4943        9.6062       0.573093       0.01265
  12     297.5        8.9873        3.3603        6.1657        9.5260       0.538739       0.01019
  11     328.5        8.9394        3.6158        5.8295        9.4453       0.505858       0.00894
  10     361.9        8.8899        3.8759        5.4886        9.3645       0.474597       0.00791
   9     398.1        8.8389        4.1399        5.1440        9.2838       0.444982       0.00690
   8     437.6        8.7868        4.4063        4.7969        9.2033       0.416444       0.00610
   7     480.5        8.7341        4.6731        4.4504        9.1235       0.389367       0.00532
   6     533.0        8.6735        4.9771        4.0563        9.0333       0.359863       0.00475
   5     589.8        8.6133        5.2764        3.6682        8.9446       0.331313       0.00424
   4     651.6        8.5547        5.5675        3.2905        8.8581       0.303398       0.00382
   3     718.7        8.4979        5.8488        2.9252        8.7740       0.276075       0.00343
   2     792.3        8.4438        6.1167        2.5764        8.6932       0.249348       0.00307
   1     891.5        8.3807        6.4311        2.1659        8.5971       0.216378       0.00281
   0    1013.0        8.3186        6.7460        1.7526        8.4986       0.180011       0.00253



 Wavenumbers: 38000. - 50000. cm-1, ATM      1
 LEVEL PRESSURE   UPWARD FLUX   DIFDOWN FLUX  DIRDOWN FLUX  DOWNWARD FLUX   NET FLUX    HEATING RATE
          mb          W/m2          W/m2          W/m2        W/m2          W/m2       degree/day
  51    .06700        0.0061        0.0000        1.2836        1.2836       1.277518       0.00000
  50    .07753        0.0061        0.0001        1.2812        1.2812       1.275183       1.87150
  49    .09103        0.0060        0.0002        1.2777        1.2778       1.271851       2.08247
  48    0.1069        0.0059        0.0002        1.2731        1.2734       1.267473       2.33059
  47    0.1255        0.0058        0.0004        1.2672        1.2675       1.261717       2.60908
  46    0.1487        0.0057        0.0005        1.2586        1.2591       1.253391       3.03499
  45    0.1794        0.0055        0.0007        1.2455        1.2462       1.240623       3.50520
  44    0.2165        0.0054        0.0009        1.2282        1.2291       1.223697       3.85037
  43    0.2613        0.0052        0.0011        1.2054        1.2065       1.201348       4.21261
  42    0.3336        0.0049        0.0015        1.1639        1.1654       1.160524       4.75970
  41    0.4307        0.0045        0.0020        1.1051        1.1070       1.102565       5.03943
  40    0.5894        0.0039        0.0026        1.0039        1.0064       1.002524       5.32007
  39     1.339        0.0022        0.0035        0.5438        0.5473       0.545104       5.14971
  38     1.782        0.0016        0.0032        0.3635        0.3666       0.365006       3.42879
  37     2.292        0.0012        0.0027        0.2356        0.2383       0.237058       2.11916
  36     2.964        0.0009        0.0022        0.1455        0.1477       0.146786       1.13318
  35     3.853        0.0006        0.0017        0.0858        0.0875       0.086906       0.56828
  34     5.035        0.0004        0.0013        0.0488        0.0501       0.049701       0.26578
  33     6.613        0.0003        0.0010        0.0273        0.0282       0.027974       0.11615
  32     8.786        0.0002        0.0007        0.0144        0.0151       0.014928       0.05067
  31     11.80        0.0001        0.0004        0.0065        0.0070       0.006903       0.02247
  30     15.07        0.0000        0.0003        0.0031        0.0034       0.003329       0.00923
  29     18.79        0.0000        0.0002        0.0014        0.0016       0.001583       0.00396
  28     23.16        0.0000        0.0001        0.0006        0.0007       0.000720       0.00167
  27     28.12        0.0000        0.0001        0.0003        0.0003       0.000317       0.00069
  26     33.73        0.0000        0.0000        0.0001        0.0001       0.000140       0.00027
  25     40.54        0.0000        0.0000        0.0000        0.0001       0.000057       0.00010
  24     48.69        0.0000        0.0000        0.0000        0.0000       0.000021       0.00004
  23     57.69        0.0000        0.0000        0.0000        0.0000       0.000008       0.00001
  22     68.43        0.0000        0.0000        0.0000        0.0000       0.000003       0.00000
  21     81.20        0.0000        0.0000        0.0000        0.0000       0.000001       0.00000
  20     96.49        0.0000        0.0000        0.0000        0.0000       0.000000       0.00000
  19     114.6        0.0000        0.0000        0.0000        0.0000       0.000000       0.00000
  18     136.5        0.0000        0.0000        0.0000        0.0000       0.000000       0.00000
  17     162.9        0.0000        0.0000        0.0000        0.0000       0.000000       0.00000
  16     196.4        0.0000        0.0000        0.0000        0.0000       0.000000       0.00000
  15     218.7        0.0000        0.0000        0.0000        0.0000       0.000000       0.00000
  14     243.0        0.0000        0.0000        0.0000        0.0000       0.000000       0.00000
  13     269.0        0.0000        0.0000        0.0000        0.0000       0.000000       0.00000
  12     297.5        0.0000        0.0000        0.0000        0.0000       0.000000       0.00000
  11     328.5        0.0000        0.0000        0.0000        0.0000       0.000000       0.00000
  10     361.9        0.0000        0.0000        0.0000        0.0000       0.000000       0.00000
   9     398.1        0.0000        0.0000        0.0000        0.0000       0.000000       0.00000
   8     437.6        0.0000        0.0000        0.0000        0.0000       0.000000       0.00000
   7     480.5        0.0000        0.0000        0.0000        0.0000       0.000000       0.00000
   6     533.0        0.0000        0.0000        0.0000        0.0000       0.000000       0.00000
   5     589.8        0.0000        0.0000        0.0000        0.0000       0.000000       0.00000
   4     651.6        0.0000        0.0000        0.0000        0.0000       0.000000       0.00000
   3     718.7        0.0000        0.0000        0.0000        0.0000       0.000000       0.00000
   2     792.3        0.0000        0.0000        0.0000        0.0000       0.000000       0.00000
   1     891.5        0.0000        0.0000        0.0000        0.0000       0.000000       0.00000
   0    1013.0        0.0000        0.0000        0.0000        0.0000       0.000000       0.00000



 Wavenumbers:   820. -  2600. cm-1, ATM      1
 LEVEL PRESSURE   UPWARD FLUX   DIFDOWN FLUX  DIRDOWN FLUX  DOWNWARD FLUX   NET FLUX    HEATING RATE
          mb          W/m2          W/m2          W/m2        W/m2          W/m2       degree/day
  51    .06700        0.6809        0.0000        6.0047        6.0047       5.323766       0.00000
  50    .07753        0.6809        0.0000        6.0008        6.0008       5.319913       3.08820
  49    .09103        0.6809        0.0000        5.9999        5.9999       5.319028       0.55357
  48    0.1069        0.6809        0.0000        5.9989        5.9989       5.318039       0.52651
  47    0.1255        0.6809        0.0000        5.9978        5.9978       5.316921       0.50649
  46    0.1487        0.6809        0.0000        5.9964        5.9964       5.315565       0.49456
  45    0.1794        0.6809        0.0000        5.9947        5.9947       5.313845       0.47199
  44    0.2165        0.6809        0.0000        5.9929        5.9929       5.312003       0.41909
  43    0.2613        0.6809        0.0000        5.9909        5.9909       5.310044       0.36932
  42    0.3336        0.6809        0.0000        5.9880        5.9880       5.307166       0.33555
  41    0.4307        0.6809        0.0000        5.9846        5.9846       5.303696       0.30164
  40    0.5894        0.6809        0.0000        5.9791        5.9791       5.298191       0.29275
  39     1.339        0.6809        0.0000        5.9536        5.9536       5.272705       0.28693
  38     1.782        0.6809        0.0000        5.9395        5.9395       5.258567       0.26916
  37     2.292        0.6809        0.0000        5.9237        5.9237       5.242817       0.26087
  36     2.964        0.6809        0.0000        5.9039        5.9039       5.223044       0.24821
  35     3.853        0.6809        0.0000        5.8793        5.8793       5.198388       0.23398
  34     5.035        0.6809        0.0000        5.8487        5.8487       5.167826       0.21832
  33     6.613        0.6809        0.0000        5.8108        5.8108       5.129863       0.20295
  32     8.786        0.6809        0.0000        5.7631        5.7631       5.082241       0.18495
  31     11.80        0.6809        0.0000        5.7039        5.7039       5.022986       0.16590
  30     15.07        0.6809        0.0000        5.6539        5.6539       4.972949       0.12919
  29     18.79        0.6809        0.0000        5.6127        5.6127       4.931814       0.09326
  28     23.16        0.6809        0.0000        5.5794        5.5794       4.898438       0.06454
  27     28.12        0.6809        0.0000        5.5518        5.5518       4.870871       0.04686
  26     33.73        0.6810        0.0000        5.5268        5.5268       4.845815       0.03767
  25     40.54        0.6810        0.0000        5.4993        5.4993       4.818367       0.03405
  24     48.69        0.6810        0.0000        5.4678        5.4678       4.786817       0.03265
  23     57.69        0.6810        0.0000        5.4340        5.4340       4.753019       0.03168
  22     68.43        0.6810        0.0000        5.3947        5.3948       4.713732       0.03089
  21     81.20        0.6810        0.0000        5.3497        5.3497       4.668680       0.02977
  20     96.49        0.6811        0.0000        5.2982        5.2982       4.617144       0.02844
  19     114.6        0.6811        0.0000        5.2389        5.2389       4.557792       0.02771
  18     136.5        0.6812        0.0000        5.1716        5.1717       4.490499       0.02588
  17     162.9        0.6812        0.0000        5.0890        5.0890       4.407812       0.02643
  16     196.4        0.6814        0.0000        4.9668        4.9668       4.285478       0.03079
  15     218.7        0.6815        0.0000        4.8585        4.8585       4.176998       0.04119
  14     243.0        0.6817        0.0000        4.7078        4.7079       4.026187       0.05231
  13     269.0        0.6820        0.0000        4.5343        4.5343       3.852307       0.05641
  12     297.5        0.6825        0.0000        4.3419        4.3420       3.659498       0.05719
  11     328.5        0.6831        0.0000        4.1281        4.1281       3.445002       0.05832
  10     361.9        0.6841        0.0000        3.8786        3.8787       3.194624       0.06335
   9     398.1        0.6853        0.0000        3.6159        3.6159       2.930692       0.06149
   8     437.6        0.6868        0.0000        3.3759        3.3759       2.689047       0.05167
   7     480.5        0.6888        0.0000        3.1957        3.1958       2.506971       0.03576
   6     533.0        0.6919        0.0000        3.0467        3.0467       2.354824       0.02448
   5     589.8        0.6965        0.0000        2.9023        2.9023       2.205818       0.02212
   4     651.6        0.7049        0.0000        2.7183        2.7184       2.013502       0.02630
   3     718.7        0.7194        0.0000        2.5058        2.5059       1.786476       0.02853
   2     792.3        0.7461        0.0000        2.2756        2.2757       1.529573       0.02946
   1     891.5        0.8141        0.0000        1.9621        1.9622       1.148034       0.03247
   0    1013.0        0.9854        0.0000        1.5468        1.5469       0.561514       0.04073

  Modules and versions used in this calculation:

       rrtmg_sw.1col.f90:  $Revision$                    rrtmg_sw_init.f90:  $Revision$        
     rrtmgsw_cldprop.f90:  $Revision$                  rrtmgsw_cldprmc.f90:  NOT USED          
     rrtmg_sw_reftra.f90:  $Revision$                  rrtmg_sw_spcvrt.f90:  NOT USED          
     rrtmg_sw_spcvmc.f90:  NOT USED                    rrtmgsw_setcoef.f90:  NOT USED          
     rrtmg_sw_taumol.f90:  $Revision$                  rrtmg_sw_vrtqdr.f90:  NOT USED          
                rrtatm.f:  NOT USED                             util_xxx.f:  NOT USED          
                 extra.f:  NOT USED                       rrtmg_sw_k_g.f90:  $Revision$        

