

 Wavenumbers:   820. - 50000. cm-1, ATM      1
 LEVEL PRESSURE   UPWARD FLUX   DIFDOWN FLUX  DIRDOWN FLUX  DOWNWARD FLUX   NET FLUX    HEATING RATE
          mb          W/m2          W/m2          W/m2        W/m2          W/m2       degree/day
  51    .06700      363.4986        0.0000      617.8126      617.8126     254.313980       0.00000
  50    .07753      363.4982        0.0013      617.7947      617.7961     254.297844      12.93293
  49    .09103      363.4978        0.0030      617.7778      617.7808     254.283041       9.25273
  48    0.1069      363.4973        0.0050      617.7581      617.7630     254.265787       9.18439
  47    0.1255      363.4967        0.0072      617.7340      617.7412     254.244451       9.67245
  46    0.1487      363.4961        0.0100      617.7009      617.7109     254.214778      10.81607
  45    0.1794      363.4954        0.0138      617.6521      617.6659     254.170566      12.13722
  44    0.2165      363.4946        0.0184      617.5895      617.6078     254.113270      13.03401
  43    0.2613      363.4938        0.0237      617.5089      617.5326     254.038789      14.03933
  42    0.3336      363.4928        0.0325      617.3641      617.3966     253.903762      15.74281
  41    0.4307      363.4920        0.0441      617.1591      617.2032     253.711223      16.74082
  40    0.5894      363.4915        0.0627      616.8005      616.8632     253.371687      18.05608
  39     1.339      363.5073        0.1472      614.9443      615.0914     251.584132      20.12462
  38     1.782      363.5290        0.1947      613.9670      614.1617     250.632731      18.11314
  37     2.292      363.5653        0.2487      613.0059      613.2546     249.689334      15.62512
  36     2.964      363.6298        0.3190      611.9577      612.2766     248.646791      13.08706
  35     3.853      363.7387        0.4111      610.8024      611.2135     247.474807      11.12235
  34     5.035      363.9064        0.5326      609.5327      610.0653     246.158912       9.40020
  33     6.613      364.1428        0.6939      608.1464      608.8404     244.697528       7.81256
  32     8.786      364.4507        0.9103      606.6250      607.5354     243.084666       6.26377
  31     11.80      364.8489        1.2185      604.8486      606.0671     241.218167       5.22561
  30     15.07      365.2274        1.5472      603.2440      604.7912     239.563826       4.27118
  29     18.79      365.6109        1.9171      601.6511      603.5683     237.957356       3.64236
  28     23.16      366.0083        2.3469      599.9927      602.3396     236.331309       3.14425
  27     28.12      366.4036        2.8361      598.2881      601.1242     234.720640       2.73803
  26     33.73      366.7592        3.3815      596.5951      599.9766     233.217422       2.26013
  25     40.54      367.0878        4.0380      594.7727      598.8107     231.722980       1.85402
  24     48.69      367.3860        4.8258      592.7865      597.6123     230.226296       1.54883
  23     57.69      367.6187        5.6870      590.7959      596.4829     228.864182       1.27678
  22     68.43      367.7926        6.7071      588.6191      595.3262     227.533534       1.04607
  21     81.20      367.8566        7.9165      586.2690      594.1854     226.328830       0.79605
  20     96.49      367.7999        9.3483      583.6961      593.0444     225.244476       0.59849
  19     114.6      367.6809       11.0328      580.7708      591.8036     224.122715       0.52378
  18     136.5      367.4954       13.0050      577.4359      590.4409     222.945485       0.45267
  17     162.9      367.2364       15.3192      573.5624      588.8817     221.645274       0.41560
  16     196.4      366.8130       18.2702      568.5907      586.8609     220.047882       0.40208
  15     218.7      366.5053       20.1778      565.0572      585.2351     218.729748       0.50045
  14     243.0      366.1603       22.2238      560.7495      582.9733     216.813008       0.66479
  13     269.0      365.7766       24.4093      555.3947      579.8040     214.027388       0.90364
  12     297.5      365.3553       26.7351      548.9964      575.7314     210.376151       1.08292
  11     328.5      364.9036       29.2074      542.0895      571.2969     206.393334       1.08292
  10     361.9      364.4242       31.8224      534.6242      566.4466     202.022434       1.10588
   9     398.1      363.9199       34.5847      526.4204      561.0051     197.085174       1.15027
   8     437.6      363.3987       37.4927      517.3907      554.8834     191.484646       1.19743
   7     480.5      362.8676       40.5445      507.7216      548.2661     185.398534       1.19529
   6     533.0      362.2641       44.2130      495.9006      540.1136     177.849505       1.21440
   5     589.8      361.7017       48.0617      483.0788      531.1406     169.438825       1.24842
   4     651.6      361.2672       52.0783      468.6907      520.7689     159.501702       1.35893
   3     718.7      361.0514       56.2544      453.2257      509.4801     148.428657       1.39158
   2     792.3      361.2754       60.5684      436.4928      497.0613     135.785914       1.44998
   1     891.5      362.7200       66.1413      413.9344      480.0758     117.355759       1.56832
   0    1013.0      367.1884       72.4787      388.4125      460.8912      93.702769       1.64235



 Wavenumbers:  2600. -  3250. cm-1, ATM      1
 LEVEL PRESSURE   UPWARD FLUX   DIFDOWN FLUX  DIRDOWN FLUX  DOWNWARD FLUX   NET FLUX    HEATING RATE
          mb          W/m2          W/m2          W/m2        W/m2          W/m2       degree/day
  51    .06700        0.0225        0.0000        5.4450        5.4450       5.422489       0.00000
  50    .07753        0.0225        0.0000        5.4450        5.4450       5.422481       0.00640
  49    .09103        0.0225        0.0000        5.4450        5.4450       5.422471       0.00627
  48    0.1069        0.0225        0.0000        5.4450        5.4450       5.422460       0.00613
  47    0.1255        0.0225        0.0000        5.4450        5.4450       5.422446       0.00599
  46    0.1487        0.0225        0.0000        5.4450        5.4450       5.422430       0.00608
  45    0.1794        0.0225        0.0000        5.4450        5.4450       5.422407       0.00625
  44    0.2165        0.0225        0.0000        5.4449        5.4449       5.422380       0.00612
  43    0.2613        0.0225        0.0000        5.4449        5.4449       5.422348       0.00600
  42    0.3336        0.0225        0.0000        5.4448        5.4448       5.422295       0.00617
  41    0.4307        0.0225        0.0000        5.4448        5.4448       5.422224       0.00620
  40    0.5894        0.0225        0.0000        5.4446        5.4446       5.422104       0.00637
  39     1.339        0.0225        0.0000        5.4439        5.4439       5.421397       0.00797
  38     1.782        0.0225        0.0000        5.4434        5.4434       5.420854       0.01034
  37     2.292        0.0225        0.0000        5.4427        5.4427       5.420138       0.01186
  36     2.964        0.0225        0.0000        5.4416        5.4416       5.419099       0.01304
  35     3.853        0.0225        0.0000        5.4402        5.4402       5.417622       0.01402
  34     5.035        0.0225        0.0000        5.4381        5.4381       5.415567       0.01468
  33     6.613        0.0225        0.0000        5.4353        5.4353       5.412786       0.01487
  32     8.786        0.0225        0.0000        5.4317        5.4317       5.409154       0.01411
  31     11.80        0.0225        0.0000        5.4269        5.4269       5.404374       0.01338
  30     15.07        0.0225        0.0000        5.4224        5.4224       5.399848       0.01169
  29     18.79        0.0225        0.0000        5.4180        5.4180       5.395436       0.01000
  28     23.16        0.0225        0.0000        5.4135        5.4135       5.390951       0.00867
  27     28.12        0.0225        0.0000        5.4088        5.4088       5.386304       0.00790
  26     33.73        0.0225        0.0000        5.4036        5.4036       5.381066       0.00788
  25     40.54        0.0225        0.0000        5.3966        5.3967       5.374126       0.00861
  24     48.69        0.0225        0.0000        5.3872        5.3872       5.364653       0.00980
  23     57.69        0.0225        0.0000        5.3754        5.3754       5.352874       0.01104
  22     68.43        0.0225        0.0000        5.3599        5.3599       5.337393       0.01217
  21     81.20        0.0225        0.0000        5.3401        5.3401       5.317570       0.01310
  20     96.49        0.0225        0.0000        5.3155        5.3155       5.293017       0.01355
  19     114.6        0.0225        0.0000        5.2853        5.2853       5.262838       0.01409
  18     136.5        0.0225        0.0000        5.2504        5.2505       5.227956       0.01341
  17     162.9        0.0225        0.0001        5.2111        5.2111       5.188649       0.01256
  16     196.4        0.0225        0.0001        5.1640        5.1641       5.141616       0.01184
  15     218.7        0.0225        0.0001        5.1331        5.1332       5.110698       0.01174
  14     243.0        0.0225        0.0001        5.0962        5.0963       5.073815       0.01279
  13     269.0        0.0225        0.0001        5.0511        5.0512       5.028697       0.01464
  12     297.5        0.0225        0.0001        4.9956        4.9957       4.973210       0.01646
  11     328.5        0.0225        0.0001        4.9304        4.9305       4.907973       0.01774
  10     361.9        0.0225        0.0001        4.8511        4.8512       4.828687       0.02006
   9     398.1        0.0226        0.0001        4.7507        4.7508       4.728248       0.02340
   8     437.6        0.0226        0.0001        4.6220        4.6222       4.599561       0.02751
   7     480.5        0.0227        0.0001        4.4625        4.4626       4.439941       0.03135
   6     533.0        0.0228        0.0002        4.2460        4.2462       4.223395       0.03484
   5     589.8        0.0230        0.0002        3.9954        3.9956       3.972588       0.03723
   4     651.6        0.0233        0.0002        3.7089        3.7090       3.685754       0.03923
   3     718.7        0.0237        0.0002        3.4018        3.4020       3.378264       0.03864
   2     792.3        0.0245        0.0002        3.0564        3.0566       3.032124       0.03970
   1     891.5        0.0262        0.0002        2.5828        2.5830       2.556791       0.04045
   0    1013.0        0.0302        0.0001        2.0845        2.0847       2.054434       0.03488



 Wavenumbers:  3250. -  4000. cm-1, ATM      1
 LEVEL PRESSURE   UPWARD FLUX   DIFDOWN FLUX  DIRDOWN FLUX  DOWNWARD FLUX   NET FLUX    HEATING RATE
          mb          W/m2          W/m2          W/m2        W/m2          W/m2       degree/day
  51    .06700        0.0005        0.0000        9.1795        9.1795       9.179065       0.00000
  50    .07753        0.0005        0.0000        9.1747        9.1747       9.174222       3.88148
  49    .09103        0.0005        0.0000        9.1713        9.1713       9.170834       2.11747
  48    0.1069        0.0005        0.0000        9.1688        9.1688       9.168309       1.34402
  47    0.1255        0.0005        0.0000        9.1665        9.1665       9.166050       1.02422
  46    0.1487        0.0005        0.0000        9.1641        9.1641       9.163609       0.88991
  45    0.1794        0.0005        0.0000        9.1612        9.1612       9.160731       0.79008
  44    0.2165        0.0005        0.0000        9.1583        9.1583       9.157810       0.66430
  43    0.2613        0.0005        0.0000        9.1553        9.1553       9.154837       0.56041
  42    0.3336        0.0005        0.0000        9.1511        9.1511       9.150658       0.48723
  41    0.4307        0.0005        0.0000        9.1464        9.1464       9.145890       0.41459
  40    0.5894        0.0005        0.0000        9.1393        9.1394       9.138884       0.37255
  39     1.339        0.0005        0.0000        9.1127        9.1127       9.112271       0.29962
  38     1.782        0.0005        0.0000        9.1011        9.1011       9.100683       0.22062
  37     2.292        0.0005        0.0000        9.0901        9.0901       9.089616       0.18329
  36     2.964        0.0005        0.0000        9.0776        9.0776       9.077186       0.15603
  35     3.853        0.0005        0.0000        9.0629        9.0629       9.062396       0.14036
  34     5.035        0.0005        0.0000        9.0441        9.0441       9.043657       0.13386
  33     6.613        0.0005        0.0000        9.0191        9.0191       9.018656       0.13366
  32     8.786        0.0005        0.0000        8.9843        8.9843       8.983872       0.13509
  31     11.80        0.0004        0.0000        8.9327        8.9327       8.932255       0.14451
  30     15.07        0.0004        0.0000        8.8758        8.8759       8.875411       0.14676
  29     18.79        0.0004        0.0000        8.8110        8.8110       8.810583       0.14698
  28     23.16        0.0004        0.0000        8.7365        8.7366       8.736139       0.14395
  27     28.12        0.0004        0.0000        8.6554        8.6555       8.655026       0.13789
  26     33.73        0.0004        0.0000        8.5719        8.5719       8.571526       0.12554
  25     40.54        0.0004        0.0001        8.4812        8.4812       8.480802       0.11255
  24     48.69        0.0004        0.0001        8.3838        8.3839       8.383501       0.10069
  23     57.69        0.0004        0.0001        8.2861        8.2862       8.285766       0.09161
  22     68.43        0.0004        0.0001        8.1751        8.1751       8.174769       0.08726
  21     81.20        0.0004        0.0001        8.0457        8.0458       8.045411       0.08548
  20     96.49        0.0003        0.0001        7.8949        7.8950       7.894708       0.08318
  19     114.6        0.0003        0.0001        7.7162        7.7163       7.715998       0.08344
  18     136.5        0.0003        0.0002        7.5193        7.5194       7.519155       0.07569
  17     162.9        0.0003        0.0002        7.2913        7.2915       7.291263       0.07284
  16     196.4        0.0002        0.0002        6.9660        6.9662       6.965991       0.08187
  15     218.7        0.0002        0.0002        6.6648        6.6650       6.664802       0.11435
  14     243.0        0.0002        0.0002        6.2619        6.2622       6.262008       0.13970
  13     269.0        0.0002        0.0003        5.7576        5.7579       5.757709       0.16359
  12     297.5        0.0001        0.0003        5.1719        5.1722       5.172018       0.17371
  11     328.5        0.0001        0.0002        4.5757        4.5760       4.575859       0.16209
  10     361.9        0.0001        0.0002        3.9995        3.9998       3.999684       0.14578
   9     398.1        0.0001        0.0002        3.4655        3.4657       3.465629       0.12442
   8     437.6        0.0001        0.0002        2.9740        2.9742       2.974182       0.10507
   7     480.5        0.0001        0.0002        2.5307        2.5309       2.530811       0.08708
   6     533.0        0.0000        0.0002        2.0614        2.0616       2.061519       0.07549
   5     589.8        0.0000        0.0002        1.6150        1.6151       1.615096       0.06626
   4     651.6        0.0000        0.0001        1.1565        1.1566       1.156564       0.06271
   3     718.7        0.0000        0.0001        0.7390        0.7391       0.739090       0.05246
   2     792.3        0.0000        0.0001        0.3985        0.3985       0.398509       0.03906
   1     891.5        0.0000        0.0000        0.1139        0.1139       0.113929       0.02422
   0    1013.0        0.0002        0.0000        0.0094        0.0094       0.009193       0.00727



 Wavenumbers:  4000. -  4650. cm-1, ATM      1
 LEVEL PRESSURE   UPWARD FLUX   DIFDOWN FLUX  DIRDOWN FLUX  DOWNWARD FLUX   NET FLUX    HEATING RATE
          mb          W/m2          W/m2          W/m2        W/m2          W/m2       degree/day
  51    .06700        0.2034        0.0000       10.7795       10.7795      10.576184       0.00000
  50    .07753        0.2034        0.0000       10.7795       10.7795      10.576183       0.00080
  49    .09103        0.2034        0.0000       10.7795       10.7795      10.576181       0.00078
  48    0.1069        0.2034        0.0000       10.7795       10.7795      10.576180       0.00076
  47    0.1255        0.2034        0.0000       10.7795       10.7795      10.576178       0.00075
  46    0.1487        0.2034        0.0000       10.7795       10.7795      10.576176       0.00076
  45    0.1794        0.2034        0.0000       10.7795       10.7795      10.576173       0.00078
  44    0.2165        0.2034        0.0000       10.7795       10.7795      10.576170       0.00076
  43    0.2613        0.2034        0.0000       10.7795       10.7795      10.576166       0.00075
  42    0.3336        0.2034        0.0000       10.7795       10.7795      10.576160       0.00077
  41    0.4307        0.2034        0.0000       10.7795       10.7795      10.576151       0.00077
  40    0.5894        0.2034        0.0000       10.7795       10.7795      10.576136       0.00080
  39     1.339        0.2034        0.0000       10.7794       10.7794      10.576046       0.00101
  38     1.782        0.2034        0.0000       10.7793       10.7793      10.575977       0.00133
  37     2.292        0.2034        0.0000       10.7792       10.7792      10.575883       0.00156
  36     2.964        0.2033        0.0000       10.7791       10.7791      10.575742       0.00176
  35     3.853        0.2033        0.0000       10.7789       10.7789      10.575534       0.00197
  34     5.035        0.2033        0.0000       10.7786       10.7786      10.575228       0.00219
  33     6.613        0.2033        0.0000       10.7781       10.7781      10.574777       0.00241
  32     8.786        0.2033        0.0000       10.7774       10.7774      10.574111       0.00259
  31     11.80        0.2033        0.0000       10.7763       10.7764      10.573065       0.00293
  30     15.07        0.2033        0.0001       10.7751       10.7751      10.571839       0.00317
  29     18.79        0.2033        0.0001       10.7736       10.7737      10.570357       0.00336
  28     23.16        0.2033        0.0001       10.7717       10.7718      10.568518       0.00356
  27     28.12        0.2033        0.0001       10.7695       10.7696      10.566293       0.00378
  26     33.73        0.2032        0.0001       10.7667       10.7668      10.563552       0.00412
  25     40.54        0.2032        0.0001       10.7629       10.7631      10.559837       0.00461
  24     48.69        0.2032        0.0002       10.7579       10.7581      10.554892       0.00512
  23     57.69        0.2032        0.0002       10.7520       10.7522      10.549038       0.00549
  22     68.43        0.2031        0.0002       10.7446       10.7448      10.541711       0.00576
  21     81.20        0.2031        0.0003       10.7355       10.7358      10.532705       0.00595
  20     96.49        0.2030        0.0003       10.7245       10.7248      10.521770       0.00604
  19     114.6        0.2030        0.0004       10.7107       10.7111      10.508130       0.00637
  18     136.5        0.2029        0.0005       10.6942       10.6947      10.491743       0.00630
  17     162.9        0.2029        0.0006       10.6740       10.6746      10.471727       0.00640
  16     196.4        0.2028        0.0007       10.6464       10.6470      10.444267       0.00691
  15     218.7        0.2027        0.0008       10.6255       10.6262      10.423484       0.00789
  14     243.0        0.2027        0.0009       10.5980       10.5989      10.396199       0.00946
  13     269.0        0.2027        0.0009       10.5611       10.5620      10.359348       0.01195
  12     297.5        0.2027        0.0010       10.5119       10.5130      10.310292       0.01455
  11     328.5        0.2027        0.0011       10.4499       10.4510      10.248292       0.01686
  10     361.9        0.2028        0.0012       10.3702       10.3714      10.168635       0.02015
   9     398.1        0.2029        0.0014       10.2678       10.2691      10.066243       0.02385
   8     437.6        0.2030        0.0015       10.1390       10.1405       9.937423       0.02754
   7     480.5        0.2032        0.0016        9.9877        9.9893       9.786042       0.02973
   6     533.0        0.2036        0.0017        9.7937        9.7954       9.591820       0.03124
   5     589.8        0.2041        0.0019        9.5752        9.5770       9.372919       0.03249
   4     651.6        0.2050        0.0020        9.2958        9.2978       9.092821       0.03830
   3     718.7        0.2064        0.0021        8.9267        8.9289       8.722437       0.04655
   2     792.3        0.2089        0.0022        8.4542        8.4565       8.247562       0.05446
   1     891.5        0.2148        0.0023        7.7948        7.7972       7.582397       0.05660
   0    1013.0        0.2286        0.0024        7.0767        7.0791       6.850443       0.05082



 Wavenumbers:  4650. -  5150. cm-1, ATM      1
 LEVEL PRESSURE   UPWARD FLUX   DIFDOWN FLUX  DIRDOWN FLUX  DOWNWARD FLUX   NET FLUX    HEATING RATE
          mb          W/m2          W/m2          W/m2        W/m2          W/m2       degree/day
  51    .06700        0.0406        0.0000       10.2033       10.2033      10.162698       0.00000
  50    .07753        0.0406        0.0000       10.2031       10.2031      10.162462       0.18901
  49    .09103        0.0406        0.0000       10.2028       10.2028      10.162167       0.18428
  48    0.1069        0.0406        0.0000       10.2025       10.2025      10.161831       0.17931
  47    0.1255        0.0406        0.0000       10.2021       10.2021      10.161446       0.17426
  46    0.1487        0.0406        0.0000       10.2016       10.2016      10.160965       0.17536
  45    0.1794        0.0406        0.0000       10.2010       10.2010      10.160315       0.17850
  44    0.2165        0.0406        0.0000       10.2002       10.2002      10.159555       0.17277
  43    0.2613        0.0406        0.0000       10.1993       10.1993      10.158670       0.16690
  42    0.3336        0.0406        0.0000       10.1979       10.1979      10.157238       0.16702
  41    0.4307        0.0406        0.0000       10.1960       10.1960      10.155397       0.16002
  40    0.5894        0.0406        0.0000       10.1932       10.1932      10.152523       0.15283
  39     1.339        0.0406        0.0000       10.1816       10.1816      10.140932       0.13050
  38     1.782        0.0406        0.0000       10.1760       10.1760      10.135404       0.10525
  37     2.292        0.0406        0.0000       10.1706       10.1706      10.129948       0.09036
  36     2.964        0.0406        0.0000       10.1646       10.1647      10.124025       0.07434
  35     3.853        0.0406        0.0000       10.1584       10.1584      10.117812       0.05896
  34     5.035        0.0406        0.0000       10.1521       10.1521      10.111479       0.04524
  33     6.613        0.0406        0.0000       10.1456       10.1456      10.105025       0.03450
  32     8.786        0.0406        0.0000       10.1386       10.1386      10.098020       0.02720
  31     11.80        0.0406        0.0001       10.1295       10.1296      10.088991       0.02528
  30     15.07        0.0406        0.0001       10.1196       10.1197      10.079126       0.02547
  29     18.79        0.0405        0.0001       10.1076       10.1077      10.067137       0.02718
  28     23.16        0.0405        0.0001       10.0923       10.0924      10.051859       0.02954
  27     28.12        0.0405        0.0002       10.0731       10.0733      10.032800       0.03240
  26     33.73        0.0405        0.0002       10.0500       10.0502      10.009752       0.03465
  25     40.54        0.0404        0.0002       10.0201       10.0203       9.979913       0.03702
  24     48.69        0.0404        0.0003        9.9820        9.9822       9.941830       0.03941
  23     57.69        0.0403        0.0003        9.9384        9.9388       9.898404       0.04071
  22     68.43        0.0403        0.0004        9.8858        9.8861       9.845825       0.04133
  21     81.20        0.0402        0.0004        9.8234        9.8239       9.783643       0.04109
  20     96.49        0.0402        0.0005        9.7518        9.7523       9.712110       0.03948
  19     114.6        0.0401        0.0006        9.6719        9.6725       9.632444       0.03720
  18     136.5        0.0400        0.0007        9.5858        9.5865       9.546528       0.03304
  17     162.9        0.0399        0.0008        9.4940        9.4949       9.455013       0.02925
  16     196.4        0.0397        0.0010        9.3883        9.3893       9.349551       0.02655
  15     218.7        0.0396        0.0011        9.3229        9.3240       9.284388       0.02474
  14     243.0        0.0395        0.0012        9.2520        9.2532       9.213654       0.02453
  13     269.0        0.0394        0.0013        9.1717        9.1730       9.133555       0.02598
  12     297.5        0.0393        0.0015        9.0763        9.0777       9.038395       0.02822
  11     328.5        0.0393        0.0016        8.9650        8.9666       8.927312       0.03020
  10     361.9        0.0392        0.0017        8.8349        8.8366       8.797486       0.03285
   9     398.1        0.0391        0.0019        8.6820        8.6839       8.644810       0.03557
   8     437.6        0.0390        0.0020        8.5028        8.5048       8.465808       0.03827
   7     480.5        0.0390        0.0022        8.2948        8.2970       8.258012       0.04081
   6     533.0        0.0389        0.0023        8.0209        8.0232       7.984269       0.04404
   5     589.8        0.0390        0.0025        7.7063        7.7088       7.669822       0.04667
   4     651.6        0.0391        0.0026        7.3412        7.3438       7.304709       0.04993
   3     718.7        0.0395        0.0027        6.9387        6.9414       6.901941       0.05062
   2     792.3        0.0400        0.0028        6.5066        6.5094       6.469375       0.04961
   1     891.5        0.0414        0.0029        5.9361        5.9390       5.897532       0.04866
   0    1013.0        0.0446        0.0030        5.3025        5.3054       5.260885       0.04421



 Wavenumbers:  5150. -  6150. cm-1, ATM      1
 LEVEL PRESSURE   UPWARD FLUX   DIFDOWN FLUX  DIRDOWN FLUX  DOWNWARD FLUX   NET FLUX    HEATING RATE
          mb          W/m2          W/m2          W/m2        W/m2          W/m2       degree/day
  51    .06700        0.4809        0.0000       25.5798       25.5798      25.098952       0.00000
  50    .07753        0.4809        0.0000       25.5798       25.5798      25.098913       0.03156
  49    .09103        0.4809        0.0000       25.5797       25.5797      25.098862       0.03204
  48    0.1069        0.4809        0.0000       25.5797       25.5797      25.098801       0.03255
  47    0.1255        0.4809        0.0000       25.5796       25.5796      25.098728       0.03305
  46    0.1487        0.4809        0.0000       25.5795       25.5795      25.098632       0.03482
  45    0.1794        0.4809        0.0000       25.5794       25.5794      25.098497       0.03707
  44    0.2165        0.4809        0.0000       25.5792       25.5792      25.098332       0.03763
  43    0.2613        0.4809        0.0000       25.5790       25.5790      25.098129       0.03821
  42    0.3336        0.4809        0.0000       25.5786       25.5786      25.097783       0.04037
  41    0.4307        0.4809        0.0000       25.5782       25.5782      25.097312       0.04091
  40    0.5894        0.4809        0.0000       25.5774       25.5774      25.096524       0.04192
  39     1.339        0.4808        0.0000       25.5735       25.5736      25.092727       0.04274
  38     1.782        0.4808        0.0000       25.5713       25.5713      25.090518       0.04206
  37     2.292        0.4808        0.0001       25.5688       25.5688      25.088018       0.04141
  36     2.964        0.4808        0.0001       25.5656       25.5656      25.084843       0.03986
  35     3.853        0.4808        0.0001       25.5615       25.5616      25.080809       0.03828
  34     5.035        0.4807        0.0001       25.5562       25.5564      25.075616       0.03710
  33     6.613        0.4807        0.0002       25.5494       25.5496      25.068882       0.03600
  32     8.786        0.4807        0.0002       25.5406       25.5408      25.060159       0.03388
  31     11.80        0.4806        0.0003       25.5287       25.5290      25.048369       0.03301
  30     15.07        0.4805        0.0004       25.5167       25.5171      25.036554       0.03050
  29     18.79        0.4804        0.0005       25.5042       25.5046      25.024211       0.02798
  28     23.16        0.4803        0.0006       25.4907       25.4913      25.010928       0.02569
  27     28.12        0.4802        0.0007       25.4764       25.4771      24.996934       0.02379
  26     33.73        0.4801        0.0008       25.4620       25.4629      24.982777       0.02129
  25     40.54        0.4799        0.0010       25.4463       25.4473      24.967329       0.01916
  24     48.69        0.4798        0.0012       25.4294       25.4306      24.950833       0.01707
  23     57.69        0.4796        0.0014       25.4126       25.4141      24.934502       0.01531
  22     68.43        0.4793        0.0017       25.3944       25.3961      24.916819       0.01390
  21     81.20        0.4790        0.0020       25.3744       25.3764      24.897411       0.01282
  20     96.49        0.4787        0.0024       25.3519       25.3543      24.875646       0.01201
  19     114.6        0.4783        0.0029       25.3262       25.3290      24.850726       0.01164
  18     136.5        0.4778        0.0034       25.2962       25.2996      24.821756       0.01114
  17     162.9        0.4773        0.0040       25.2521       25.2561      24.778854       0.01371
  16     196.4        0.4765        0.0048       25.1593       25.1641      24.687584       0.02297
  15     218.7        0.4761        0.0054       25.0159       25.0213      24.545202       0.05406
  14     243.0        0.4756        0.0059       24.7089       24.7148      24.239207       0.10613
  13     269.0        0.4751        0.0064       24.1619       24.1682      23.693157       0.17714
  12     297.5        0.4746        0.0069       23.4544       23.4613      22.986685       0.20953
  11     328.5        0.4740        0.0074       22.7355       22.7428      22.268779       0.19520
  10     361.9        0.4735        0.0078       21.9224       21.9303      21.456735       0.20545
   9     398.1        0.4730        0.0083       20.9939       21.0022      20.529171       0.21610
   8     437.6        0.4725        0.0087       19.9833       19.9920      19.519461       0.21588
   7     480.5        0.4721        0.0090       18.9483       18.9573      18.485226       0.20312
   6     533.0        0.4717        0.0094       17.7796       17.7890      17.317321       0.18788
   5     589.8        0.4714        0.0098       16.6726       16.6823      16.210903       0.16423
   4     651.6        0.4716        0.0101       15.6343       15.6444      15.172825       0.14196
   3     718.7        0.4724        0.0106       14.7738       14.7843      14.311897       0.10819
   2     792.3        0.4746        0.0111       14.0291       14.0402      13.565549       0.08560
   1     891.5        0.4811        0.0116       13.0822       13.0938      12.612693       0.08108
   0    1013.0        0.5012        0.0122       12.0384       12.0506      11.549428       0.07383



 Wavenumbers:  6150. -  7700. cm-1, ATM      1
 LEVEL PRESSURE   UPWARD FLUX   DIFDOWN FLUX  DIRDOWN FLUX  DOWNWARD FLUX   NET FLUX    HEATING RATE
          mb          W/m2          W/m2          W/m2        W/m2          W/m2       degree/day
  51    .06700        1.4497        0.0000       47.3109       47.3109      45.861134       0.00000
  50    .07753        1.4497        0.0000       47.3108       47.3108      45.861077       0.04553
  49    .09103        1.4497        0.0000       47.3107       47.3107      45.861004       0.04583
  48    0.1069        1.4497        0.0000       47.3106       47.3106      45.860917       0.04614
  47    0.1255        1.4497        0.0000       47.3105       47.3105      45.860815       0.04645
  46    0.1487        1.4497        0.0000       47.3104       47.3104      45.860682       0.04852
  45    0.1794        1.4497        0.0000       47.3102       47.3102      45.860495       0.05127
  44    0.2165        1.4497        0.0000       47.3100       47.3100      45.860268       0.05167
  43    0.2613        1.4497        0.0000       47.3097       47.3097      45.859991       0.05210
  42    0.3336        1.4497        0.0000       47.3092       47.3092      45.859522       0.05471
  41    0.4307        1.4497        0.0000       47.3085       47.3086      45.858887       0.05521
  40    0.5894        1.4497        0.0001       47.3074       47.3075      45.857828       0.05633
  39     1.339        1.4496        0.0001       47.3022       47.3023      45.852736       0.05733
  38     1.782        1.4495        0.0002       47.2991       47.2993      45.849766       0.05655
  37     2.292        1.4495        0.0002       47.2956       47.2959      45.846390       0.05591
  36     2.964        1.4494        0.0003       47.2912       47.2915      45.842072       0.05421
  35     3.853        1.4493        0.0004       47.2855       47.2859      45.836537       0.05252
  34     5.035        1.4492        0.0005       47.2780       47.2786      45.829357       0.05129
  33     6.613        1.4491        0.0007       47.2683       47.2690      45.819969       0.05019
  32     8.786        1.4488        0.0009       47.2556       47.2565      45.807670       0.04776
  31     11.80        1.4485        0.0013       47.2380       47.2393      45.790767       0.04732
  30     15.07        1.4482        0.0016       47.2201       47.2217      45.773481       0.04463
  29     18.79        1.4478        0.0020       47.2008       47.2028      45.755002       0.04190
  28     23.16        1.4474        0.0025       47.1795       47.1820      45.734614       0.03942
  27     28.12        1.4469        0.0030       47.1565       47.1595      45.712622       0.03738
  26     33.73        1.4463        0.0036       47.1324       47.1360      45.689704       0.03446
  25     40.54        1.4456        0.0043       47.1054       47.1097      45.664071       0.03180
  24     48.69        1.4448        0.0052       47.0754       47.0806      45.635824       0.02923
  23     57.69        1.4439        0.0061       47.0449       47.0511      45.607209       0.02682
  22     68.43        1.4428        0.0073       47.0110       47.0183      45.575481       0.02494
  21     81.20        1.4415        0.0086       46.9729       46.9815      45.539999       0.02345
  20     96.49        1.4399        0.0102       46.9294       46.9396      45.499677       0.02226
  19     114.6        1.4381        0.0122       46.8790       46.8912      45.453070       0.02176
  18     136.5        1.4359        0.0144       46.8200       46.8344      45.398487       0.02099
  17     162.9        1.4333        0.0171       46.7361       46.7533      45.319937       0.02511
  16     196.4        1.4300        0.0206       46.5703       46.5909      45.160924       0.04003
  15     218.7        1.4278        0.0229       46.3473       46.3702      44.942394       0.08297
  14     243.0        1.4254        0.0252       45.9299       45.9551      44.529620       0.14316
  13     269.0        1.4230        0.0275       45.1708       45.1983      43.775275       0.24471
  12     297.5        1.4205        0.0297       44.0115       44.0411      42.620656       0.34245
  11     328.5        1.4179        0.0319       42.7242       42.7561      41.338154       0.34871
  10     361.9        1.4154        0.0340       41.3539       41.3880      39.972618       0.34549
   9     398.1        1.4129        0.0361       39.7953       39.8314      38.418536       0.36207
   8     437.6        1.4105        0.0380       37.9948       38.0327      36.622255       0.38406
   7     480.5        1.4084        0.0396       36.0647       36.1044      34.695977       0.37831
   6     533.0        1.4065        0.0413       33.7773       33.8186      32.412070       0.36741
   5     589.8        1.4058        0.0426       31.4082       31.4508      30.045059       0.35134
   4     651.6        1.4074        0.0434       28.8834       28.9268      27.519416       0.34539
   3     718.7        1.4132        0.0440       26.4104       26.4544      25.041191       0.31144
   2     792.3        1.4267        0.0442       24.0056       24.0498      22.623111       0.27733
   1     891.5        1.4652        0.0443       21.2348       21.2791      19.813933       0.23905
   0    1013.0        1.5732        0.0444       18.6150       18.6594      17.086246       0.18940



 Wavenumbers:  7700. -  8050. cm-1, ATM      1
 LEVEL PRESSURE   UPWARD FLUX   DIFDOWN FLUX  DIRDOWN FLUX  DOWNWARD FLUX   NET FLUX    HEATING RATE
          mb          W/m2          W/m2          W/m2        W/m2          W/m2       degree/day
  51    .06700        2.9818        0.0000       11.1810       11.1810       8.199166       0.00000
  50    .07753        2.9818        0.0000       11.1809       11.1809       8.199146       0.01579
  49    .09103        2.9818        0.0000       11.1809       11.1809       8.199122       0.01547
  48    0.1069        2.9818        0.0000       11.1809       11.1809       8.199093       0.01515
  47    0.1255        2.9818        0.0000       11.1809       11.1809       8.199061       0.01482
  46    0.1487        2.9818        0.0000       11.1808       11.1808       8.199019       0.01504
  45    0.1794        2.9818        0.0000       11.1808       11.1808       8.198963       0.01548
  44    0.2165        2.9818        0.0000       11.1807       11.1807       8.198896       0.01518
  43    0.2613        2.9818        0.0000       11.1806       11.1806       8.198817       0.01490
  42    0.3336        2.9818        0.0000       11.1805       11.1805       8.198686       0.01524
  41    0.4307        2.9819        0.0000       11.1803       11.1804       8.198513       0.01507
  40    0.5894        2.9819        0.0000       11.1801       11.1801       8.198230       0.01506
  39     1.339        2.9820        0.0001       11.1788       11.1789       8.196890       0.01508
  38     1.782        2.9820        0.0001       11.1781       11.1782       8.196104       0.01498
  37     2.292        2.9821        0.0001       11.1772       11.1773       8.195193       0.01508
  36     2.964        2.9822        0.0001       11.1761       11.1762       8.193997       0.01501
  35     3.853        2.9823        0.0002       11.1746       11.1748       8.192418       0.01499
  34     5.035        2.9825        0.0002       11.1726       11.1728       8.190320       0.01498
  33     6.613        2.9828        0.0003       11.1700       11.1703       8.187519       0.01497
  32     8.786        2.9831        0.0004       11.1664       11.1668       8.183747       0.01465
  31     11.80        2.9835        0.0006       11.1613       11.1619       8.178355       0.01510
  30     15.07        2.9840        0.0007       11.1558       11.1566       8.172573       0.01493
  29     18.79        2.9845        0.0009       11.1497       11.1506       8.166050       0.01479
  28     23.16        2.9852        0.0011       11.1425       11.1436       8.158445       0.01471
  27     28.12        2.9859        0.0013       11.1343       11.1357       8.149767       0.01475
  26     33.73        2.9867        0.0016       11.1252       11.1268       8.140080       0.01456
  25     40.54        2.9877        0.0019       11.1142       11.1161       8.128412       0.01448
  24     48.69        2.9889        0.0023       11.1010       11.1033       8.114399       0.01450
  23     57.69        2.9903        0.0027       11.0866       11.0893       8.099075       0.01436
  22     68.43        2.9919        0.0032       11.0695       11.0728       8.080918       0.01427
  21     81.20        2.9938        0.0039       11.0494       11.0532       8.059421       0.01421
  20     96.49        2.9961        0.0046       11.0255       11.0301       8.033995       0.01403
  19     114.6        2.9989        0.0054       10.9975       11.0030       8.004070       0.01397
  18     136.5        3.0022        0.0064       10.9648       10.9712       7.968964       0.01350
  17     162.9        3.0063        0.0076       10.9263       10.9339       7.927651       0.01321
  16     196.4        3.0116        0.0092       10.8773       10.8864       7.874830       0.01330
  15     218.7        3.0152        0.0102       10.8455       10.8557       7.840554       0.01301
  14     243.0        3.0191        0.0113       10.8114       10.8227       7.803612       0.01281
  13     269.0        3.0235        0.0125       10.7749       10.7873       7.763874       0.01289
  12     297.5        3.0283        0.0138       10.7357       10.7495       7.721160       0.01267
  11     328.5        3.0337        0.0151       10.6937       10.7089       7.675218       0.01249
  10     361.9        3.0396        0.0166       10.6489       10.6655       7.625873       0.01248
   9     398.1        3.0463        0.0182       10.6008       10.6190       7.572720       0.01238
   8     437.6        3.0537        0.0199       10.5491       10.5690       7.515257       0.01229
   7     480.5        3.0622        0.0218       10.4934       10.5152       7.453016       0.01222
   6     533.0        3.0732        0.0240       10.4243       10.4483       7.375061       0.01254
   5     589.8        3.0862        0.0264       10.3479       10.3743       7.288119       0.01291
   4     651.6        3.1019        0.0290       10.2613       10.2904       7.188477       0.01363
   3     718.7        3.1212        0.0317       10.1618       10.1935       7.072284       0.01460
   2     792.3        3.1459        0.0346       10.0439       10.0785       6.932590       0.01602
   1     891.5        3.1878        0.0384        9.8626        9.9010       6.713181       0.01867
   0    1013.0        3.2546        0.0427        9.6103        9.6530       6.398448       0.02185



 Wavenumbers:  8050. - 12850. cm-1, ATM      1
 LEVEL PRESSURE   UPWARD FLUX   DIFDOWN FLUX  DIRDOWN FLUX  DOWNWARD FLUX   NET FLUX    HEATING RATE
          mb          W/m2          W/m2          W/m2        W/m2          W/m2       degree/day
  51    .06700       76.5992        0.0000      156.5418      156.5418      79.942522       0.00000
  50    .07753       76.5992        0.0000      156.5417      156.5417      79.942522       0.00000
  49    .09103       76.5992        0.0001      156.5417      156.5417      79.942522      -0.00000
  48    0.1069       76.5992        0.0001      156.5416      156.5417      79.942522       0.00000
  47    0.1255       76.5992        0.0002      156.5415      156.5417      79.942522      -0.00000
  46    0.1487       76.5991        0.0002      156.5414      156.5416      79.942522       0.00000
  45    0.1794       76.5991        0.0003      156.5413      156.5416      79.942522       0.00000
  44    0.2165       76.5990        0.0004      156.5412      156.5416      79.942522      -0.00000
  43    0.2613       76.5990        0.0005      156.5410      156.5415      79.942522       0.00000
  42    0.3336       76.5989        0.0007      156.5407      156.5414      79.942522      -0.00000
  41    0.4307       76.5988        0.0010      156.5403      156.5413      79.942522       0.00000
  40    0.5894       76.5986        0.0014      156.5397      156.5411      79.942522      -0.00000
  39     1.339       76.5976        0.0034      156.5367      156.5401      79.942522      -0.00000
  38     1.782       76.5971        0.0046      156.5350      156.5396      79.942522       0.00000
  37     2.292       76.5964        0.0060      156.5330      156.5389      79.942522       0.00000
  36     2.964       76.5956        0.0078      156.5303      156.5381      79.942522       0.00000
  35     3.853       76.5945        0.0101      156.5268      156.5370      79.942522      -0.00000
  34     5.035       76.5930        0.0133      156.5222      156.5355      79.942522       0.00000
  33     6.613       76.5910        0.0175      156.5160      156.5335      79.942522      -0.00000
  32     8.786       76.5883        0.0232      156.5076      156.5308      79.942522       0.00000
  31     11.80       76.5845        0.0313      156.4957      156.5270      79.942522      -0.00000
  30     15.07       76.5803        0.0401      156.4828      156.5229      79.942522       0.00000
  29     18.79       76.5757        0.0500      156.4682      156.5182      79.942522      -0.00000
  28     23.16       76.5702        0.0615      156.4512      156.5127      79.942522       0.00000
  27     28.12       76.5640        0.0748      156.4317      156.5065      79.942522      -0.00000
  26     33.73       76.5570        0.0896      156.4099      156.4995      79.942522       0.00000
  25     40.54       76.5485        0.1076      156.3834      156.4910      79.942522       0.00000
  24     48.69       76.5383        0.1293      156.3515      156.4808      79.942522       0.00000
  23     57.69       76.5270        0.1531      156.3164      156.4695      79.942522       0.00000
  22     68.43       76.5136        0.1816      156.2746      156.4561      79.942522       0.00000
  21     81.20       76.4976        0.2155      156.2246      156.4401      79.942522      -0.00000
  20     96.49       76.4784        0.2560      156.1649      156.4210      79.942522       0.00000
  19     114.6       76.4558        0.3042      156.0879      156.3922      79.936344       0.00288
  18     136.5       76.4290        0.3615      155.9962      156.3576      79.928677       0.00295
  17     162.9       76.3969        0.4298      155.8831      156.3129      79.915941       0.00407
  16     196.4       76.3553        0.5186      155.7199      156.2386      79.883249       0.00823
  15     218.7       76.3281        0.5770      155.5733      156.1503      79.822255       0.02316
  14     243.0       76.2988        0.6405      155.3367      155.9772      79.678349       0.04991
  13     269.0       76.2680        0.7091      154.9514      155.6605      79.392506       0.09273
  12     297.5       76.2366        0.7830      154.3896      155.1726      78.935996       0.13540
  11     328.5       76.2050        0.8626      153.7151      154.5777      78.372706       0.15316
  10     361.9       76.1744        0.9480      152.9087      153.8567      77.682351       0.17467
   9     398.1       76.1467        1.0393      151.8986      152.9379      76.791131       0.20763
   8     437.6       76.1256        1.1363      150.6031      151.7394      75.613871       0.25171
   7     480.5       76.1150        1.2388      149.0014      150.2402      74.125195       0.29237
   6     533.0       76.1247        1.3626      146.7375      148.1001      71.975426       0.34583
   5     589.8       76.1768        1.4920      143.8730      145.3650      69.188242       0.41371
   4     651.6       76.3196        1.6246      140.0955      141.7201      65.400454       0.51799
   3     718.7       76.6156        1.7588      135.5278      137.2866      60.670985       0.59436
   2     792.3       77.2019        1.8915      130.0690      131.9605      54.758576       0.67809
   1     891.5       78.7097        2.0515      122.1273      124.1788      45.469077       0.79049
   0    1013.0       82.4187        2.2227      112.9512      115.1739      32.755176       0.88279



 Wavenumbers: 12850. - 16000. cm-1, ATM      1
 LEVEL PRESSURE   UPWARD FLUX   DIFDOWN FLUX  DIRDOWN FLUX  DOWNWARD FLUX   NET FLUX    HEATING RATE
          mb          W/m2          W/m2          W/m2        W/m2          W/m2       degree/day
  51    .06700       76.2063        0.0000       98.0872       98.0872      21.880984       0.00000
  50    .07753       76.2063        0.0001       98.0864       98.0864      21.880193       0.63392
  49    .09103       76.2062        0.0002       98.0853       98.0854      21.879200       0.62077
  48    0.1069       76.2062        0.0003       98.0841       98.0843      21.878059       0.60735
  47    0.1255       76.2063        0.0004       98.0826       98.0830      21.876748       0.59421
  46    0.1487       76.2063        0.0005       98.0809       98.0814      21.875094       0.60285
  45    0.1794       76.2063        0.0007       98.0784       98.0792      21.872845       0.61751
  44    0.2165       76.2064        0.0010       98.0756       98.0766      21.870200       0.60177
  43    0.2613       76.2065        0.0012       98.0723       98.0736      21.867090       0.58623
  42    0.3336       76.2067        0.0017       98.0670       98.0687      21.862015       0.59161
  41    0.4307       76.2070        0.0023       98.0602       98.0625      21.855456       0.57030
  40    0.5894       76.2078        0.0033       98.0496       98.0529      21.845127       0.54929
  39     1.339       76.2140        0.0080       98.0043       98.0124      21.798435       0.52567
  38     1.782       76.2196        0.0108       97.9793       97.9901      21.770477       0.53228
  37     2.292       76.2281        0.0141       97.9498       97.9638      21.735705       0.57591
  36     2.964       76.2422        0.0183       97.9088       97.9271      21.684902       0.63773
  35     3.853       76.2649        0.0239       97.8503       97.8742      21.609305       0.71743
  34     5.035       76.2991        0.0313       97.7680       97.7993      21.500159       0.77970
  33     6.613       76.3469        0.0412       97.6562       97.6974      21.350488       0.80014
  32     8.786       76.4091        0.0545       97.5107       97.5652      21.156111       0.75489
  31     11.80       76.4900        0.0735       97.3179       97.3914      20.901404       0.71310
  30     15.07       76.5675        0.0939       97.1283       97.2223      20.654756       0.63680
  29     18.79       76.6467        0.1170       96.9300       97.0470      20.400323       0.57688
  28     23.16       76.7295        0.1439       96.7166       96.8605      20.130997       0.52079
  27     28.12       76.8128        0.1746       96.4935       96.6681      19.855338       0.46860
  26     33.73       76.8898        0.2090       96.2731       96.4821      19.592317       0.39546
  25     40.54       76.9641        0.2506       96.0408       96.2914      19.327283       0.32880
  24     48.69       77.0354        0.3007       95.7946       96.0953      19.059892       0.27671
  23     57.69       77.0960        0.3557       95.5573       95.9130      18.817030       0.22765
  22     68.43       77.1490        0.4213       95.3106       95.7319      18.582955       0.18401
  21     81.20       77.1858        0.4996       95.0643       95.5639      18.378074       0.13538
  20     96.49       77.2054        0.5929       94.8153       95.4082      18.202754       0.09676
  19     114.6       77.2301        0.7049       94.5411       95.2460      18.015868       0.08726
  18     136.5       77.2482        0.8377       94.2320       95.0698      17.821532       0.07473
  17     162.9       77.2595        0.9958       93.8753       94.8712      17.611657       0.06708
  16     196.4       77.2523        1.2009       93.4347       94.6355      17.383210       0.05750
  15     218.7       77.2398        1.3355       93.1513       94.4868      17.247045       0.05170
  14     243.0       77.2227        1.4819       92.8439       94.3258      17.103133       0.04991
  13     269.0       77.2010        1.6405       92.5111       94.1516      16.950631       0.04947
  12     297.5       77.1750        1.8118       92.1495       93.9613      16.786340       0.04873
  11     328.5       77.1466        1.9970       91.7554       93.7524      16.605811       0.04909
  10     361.9       77.1165        2.1964       91.3262       93.5226      16.406075       0.05054
   9     398.1       77.0859        2.4109       90.8575       93.2685      16.182572       0.05207
   8     437.6       77.0572        2.6412       90.3418       92.9830      15.925863       0.05489
   7     480.5       77.0327        2.8879       89.7728       92.6607      15.628063       0.05849
   6     533.0       77.0151        3.1913       89.0428       92.2341      15.218982       0.06581
   5     589.8       77.0203        3.5174       88.2038       91.7212      14.700906       0.07690
   4     651.6       77.0758        3.8660       87.1979       91.0640      13.988171       0.09747
   3     718.7       77.1996        4.2355       86.0161       90.2516      13.052054       0.11764
   2     792.3       77.4500        4.6220       84.5970       89.2190      11.769028       0.14715
   1     891.5       78.0676        5.1251       82.4374       87.5625       9.494973       0.19351
   0    1013.0       79.3688        5.7027       79.6182       85.3209       5.952155       0.24600



 Wavenumbers: 16000. - 22650. cm-1, ATM      1
 LEVEL PRESSURE   UPWARD FLUX   DIFDOWN FLUX  DIRDOWN FLUX  DOWNWARD FLUX   NET FLUX    HEATING RATE
          mb          W/m2          W/m2          W/m2        W/m2          W/m2       degree/day
  51    .06700      138.6017        0.0000      156.3892      156.3892      17.787566       0.00000
  50    .07753      138.6017        0.0004      156.3887      156.3891      17.787420       0.11730
  49    .09103      138.6016        0.0009      156.3879      156.3888      17.787207       0.13305
  48    0.1069      138.6016        0.0015      156.3871      156.3885      17.786922       0.15172
  47    0.1255      138.6016        0.0021      156.3861      156.3882      17.786540       0.17294
  46    0.1487      138.6017        0.0029      156.3847      156.3877      17.785978       0.20493
  45    0.1794      138.6018        0.0041      156.3828      156.3869      17.785099       0.24129
  44    0.2165      138.6020        0.0054      156.3805      156.3859      17.783907       0.27118
  43    0.2613      138.6023        0.0070      156.3776      156.3846      17.782290       0.30487
  42    0.3336      138.6030        0.0096      156.3726      156.3822      17.779215       0.35852
  41    0.4307      138.6042        0.0131      156.3657      156.3788      17.774579       0.40302
  40    0.5894      138.6067        0.0187      156.3537      156.3724      17.765739       0.47010
  39     1.339      138.6285        0.0456      156.2834      156.3290      17.700429       0.73528
  38     1.782      138.6489        0.0613      156.2324      156.2937      17.644792       1.05923
  37     2.292      138.6794        0.0795      156.1641      156.2436      17.564258       1.33386
  36     2.964      138.7301        0.1034      156.0605      156.1639      17.433792       1.63774
  35     3.853      138.8123        0.1350      155.9041      156.0391      17.226777       1.96461
  34     5.035      138.9364        0.1769      155.6774      155.8543      16.917932       2.20626
  33     6.613      139.1097        0.2329      155.3656      155.5985      16.488738       2.29447
  32     8.786      139.3355        0.3081      154.9577      155.2658      15.930276       2.16886
  31     11.80      139.6292        0.4156      154.4153      154.8309      15.201657       2.03990
  30     15.07      139.9105        0.5309      153.8804      154.4113      14.500783       1.80952
  29     18.79      140.1975        0.6609      153.3191      153.9800      13.782484       1.62860
  28     23.16      140.4973        0.8125      152.7126      153.5250      13.027775       1.45936
  27     28.12      140.7987        0.9856      152.0755      153.0611      12.262414       1.30106
  26     33.73      141.0765        1.1791      151.4409      152.6200      11.543549       1.08083
  25     40.54      141.3433        1.4127      150.7637      152.1764      10.833088       0.88141
  24     48.69      141.5981        1.6940      150.0338      151.7279      10.129760       0.72783
  23     57.69      141.8133        2.0026      149.3151      151.3178       9.504464       0.58612
  22     68.43      141.9999        2.3698      148.5476      150.9174       8.917508       0.46143
  21     81.20      142.1267        2.8070      147.7517      150.5586       8.431984       0.32083
  20     96.49      142.1890        3.3273      146.9127      150.2400       8.050990       0.21028
  19     114.6      142.2175        3.9433      145.9763      149.9196       7.702095       0.16291
  18     136.5      142.2206        4.6707      144.9088      149.5795       7.358891       0.13197
  17     162.9      142.1962        5.5328      143.6785      149.2113       7.015121       0.10988
  16     196.4      142.1041        6.6450      142.1651      148.8100       6.705956       0.07782
  15     218.7      142.0214        7.3718      141.2033      148.5751       6.553658       0.05782
  14     243.0      141.9215        8.1583      140.1753      148.3337       6.412217       0.04906
  13     269.0      141.8025        9.0069      139.0797      148.0865       6.284039       0.04158
  12     297.5      141.6639        9.9193      137.9141      147.8334       6.169507       0.03397
  11     328.5      141.5096       10.9001      136.6676      147.5676       6.058083       0.03030
  10     361.9      141.3392       11.9499      135.3392      147.2891       5.949911       0.02737
   9     398.1      141.1522       13.0729      133.9235      146.9963       5.844123       0.02465
   8     437.6      140.9495       14.2709      132.4163      146.6872       5.737628       0.02277
   7     480.5      140.7307       15.5462      130.8147      146.3609       5.630155       0.02111
   6     533.0      140.4613       17.1036      128.8599      145.9635       5.502214       0.02058
   5     589.8      140.1746       18.7675      126.7679      145.5354       5.360793       0.02099
   4     651.6      139.8765       20.5393      124.5274      145.0667       5.190183       0.02333
   3     718.7      139.5729       22.4208      122.1285      144.5492       4.976299       0.02688
   2     792.3      139.2798       24.4097      119.5548      143.9645       4.684692       0.03344
   1     891.5      138.9618       27.0493      116.0566      143.1059       4.144179       0.04600
   0    1013.0      138.7067       30.1502      111.8404      141.9906       3.283977       0.05973



 Wavenumbers: 22650. - 29000. cm-1, ATM      1
 LEVEL PRESSURE   UPWARD FLUX   DIFDOWN FLUX  DIRDOWN FLUX  DOWNWARD FLUX   NET FLUX    HEATING RATE
          mb          W/m2          W/m2          W/m2        W/m2          W/m2       degree/day
  51    .06700       58.2083        0.0000       59.0156       59.0156       0.807302       0.00000
  50    .07753       58.2082        0.0005       59.0151       59.0155       0.807302      -0.00000
  49    .09103       58.2081        0.0010       59.0144       59.0154       0.807302       0.00000
  48    0.1069       58.2080        0.0017       59.0136       59.0153       0.807302      -0.00000
  47    0.1255       58.2078        0.0025       59.0127       59.0151       0.807302       0.00000
  46    0.1487       58.2076        0.0034       59.0115       59.0149       0.807302      -0.00000
  45    0.1794       58.2074        0.0048       59.0099       59.0147       0.807302      -0.00000
  44    0.2165       58.2071        0.0063       59.0080       59.0144       0.807302       0.00000
  43    0.2613       58.2067        0.0082       59.0058       59.0140       0.807302       0.00000
  42    0.3336       58.2061        0.0112       59.0022       59.0134       0.807302       0.00000
  41    0.4307       58.2053        0.0153       58.9973       59.0126       0.807302      -0.00000
  40    0.5894       58.2040        0.0219       58.9894       59.0113       0.807302      -0.00000
  39     1.339       58.1978        0.0534       58.9518       59.0051       0.807302       0.00000
  38     1.782       58.1942        0.0718       58.9297       59.0015       0.807302       0.00000
  37     2.292       58.1900        0.0931       58.9042       58.9973       0.807302      -0.00000
  36     2.964       58.1845        0.1212       58.8706       58.9918       0.807302       0.00000
  35     3.853       58.1772        0.1582       58.8264       58.9845       0.807302      -0.00000
  34     5.035       58.1676        0.2073       58.7676       58.9749       0.807302       0.00000
  33     6.613       58.1547        0.2729       58.6891       58.9620       0.807302       0.00000
  32     8.786       58.1373        0.3612       58.5834       58.9447       0.807302       0.00000
  31     11.80       58.1126        0.4874       58.4324       58.9199       0.807302      -0.00000
  30     15.07       58.0860        0.6226       58.2706       58.8933       0.807302       0.00000
  29     18.79       58.0560        0.7751       58.0882       58.8633       0.807302      -0.00000
  28     23.16       58.0211        0.9527       57.8757       58.8284       0.807302       0.00000
  27     28.12       57.9813        1.1553       57.6333       58.7886       0.807302       0.00000
  26     33.73       57.9369        1.3811       57.3631       58.7442       0.807302       0.00000
  25     40.54       57.8835        1.6529       57.0379       58.6908       0.807302       0.00000
  24     48.69       57.8194        1.9788       56.6479       58.6267       0.807302      -0.00000
  23     57.69       57.7494        2.3346       56.2221       58.5567       0.807302      -0.00000
  22     68.43       57.6666        2.7553       55.7186       58.4739       0.807302       0.00000
  21     81.20       57.5688        3.2521       55.1239       58.3761       0.807302       0.00000
  20     96.49       57.4534        3.8379       54.4228       58.2607       0.807302      -0.00000
  19     114.6       57.3181        4.5244       53.6010       58.1254       0.807302       0.00000
  18     136.5       57.1601        5.3256       52.6418       57.9674       0.807302       0.00000
  17     162.9       56.9752        6.2622       51.5203       57.7825       0.807302       0.00000
  16     196.4       56.7408        7.4487       50.0994       57.5481       0.807302      -0.00000
  15     218.7       56.5900        8.2110       49.1863       57.3973       0.807302       0.00000
  14     243.0       56.4289        9.0249       48.2113       57.2362       0.807302       0.00000
  13     269.0       56.2575        9.8899       47.1749       57.0648       0.807302      -0.00000
  12     297.5       56.0760       10.8050       46.0783       56.8833       0.807302       0.00000
  11     328.5       55.8840       11.7718       44.9195       56.6913       0.807302      -0.00000
  10     361.9       55.6820       12.7875       43.7018       56.4893       0.807302       0.00000
   9     398.1       55.4700       13.8523       42.4250       56.2773       0.807302      -0.00000
   8     437.6       55.2483       14.9639       41.0916       56.0556       0.807302       0.00000
   7     480.5       55.0173       16.1201       39.7045       55.8246       0.807302      -0.00000
   6     533.0       54.7419       17.4950       38.0543       55.5492       0.807302       0.00000
   5     589.8       54.4558       18.9201       36.3431       55.2631       0.807302      -0.00000
   4     651.6       54.1603       20.3880       34.5795       54.9676       0.807302      -0.00000
   3     718.7       53.8562       21.8932       32.7702       54.6635       0.807302       0.00000
   2     792.3       53.5451       23.4269       30.9256       54.3524       0.807302       0.00000
   1     891.5       53.1477       25.3772       28.5778       53.9550       0.807302       0.00000
   0    1013.0       52.7030       27.5438       25.9665       53.5103       0.807302       0.00000



 Wavenumbers: 29000. - 38000. cm-1, ATM      1
 LEVEL PRESSURE   UPWARD FLUX   DIFDOWN FLUX  DIRDOWN FLUX  DOWNWARD FLUX   NET FLUX    HEATING RATE
          mb          W/m2          W/m2          W/m2        W/m2          W/m2       degree/day
  51    .06700        8.6857        0.0000       20.8114       20.8114      12.125682       0.00000
  50    .07753        8.6855        0.0003       20.8070       20.8074      12.121875       3.05146
  49    .09103        8.6853        0.0007       20.8009       20.8016      12.116338       3.46075
  48    0.1069        8.6850        0.0012       20.7928       20.7939      12.108928       3.94417
  47    0.1255        8.6847        0.0017       20.7820       20.7837      12.099024       4.49021
  46    0.1487        8.6844        0.0024       20.7665       20.7688      12.084461       5.30828
  45    0.1794        8.6839        0.0033       20.7424       20.7457      12.061797       6.22185
  44    0.2165        8.6834        0.0043       20.7103       20.7147      12.031275       6.94318
  43    0.2613        8.6828        0.0056       20.6675       20.6731      11.990282       7.72707
  42    0.3336        8.6819        0.0077       20.5880       20.5956      11.913724       8.92595
  41    0.4307        8.6808        0.0104       20.4722       20.4826      11.801775       9.73368
  40    0.5894        8.6793        0.0147       20.2637       20.2784      11.599099      10.77805
  39     1.339        8.6758        0.0331       19.0984       19.1314      10.455681      12.87281
  38     1.782        8.6762        0.0426       18.4394       18.4820       9.805806      12.37256
  37     2.292        8.6788        0.0529       17.7714       17.8243       9.145532      10.93586
  36     2.964        8.6852        0.0656       17.0421       17.1077       8.422521       9.07598
  35     3.853        8.6978        0.0814       16.2678       16.3493       7.651518       7.31696
  34     5.035        8.7186        0.1016       15.4803       15.5819       6.863284       5.63082
  33     6.613        8.7489        0.1273       14.7157       14.8430       6.094061       4.11226
  32     8.786        8.7889        0.1610       13.9936       14.1545       5.365583       2.82915
  31     11.80        8.8412        0.2079       13.2835       13.4914       4.650240       2.00273
  30     15.07        8.8915        0.2565       12.7394       12.9959       4.104372       1.40932
  29     18.79        8.9435        0.3105       12.2666       12.5771       3.633559       1.06748
  28     23.16        8.9987        0.3718       11.8300       12.2018       3.203101       0.83237
  27     28.12        9.0552        0.4405       11.4279       11.8683       2.813118       0.66294
  26     33.73        9.1073        0.5162       11.0695       11.5856       2.478299       0.50341
  25     40.54        9.1566        0.6066       10.7209       11.3275       2.170833       0.38145
  24     48.69        9.2030        0.7138       10.3742       11.0880       1.884995       0.29580
  23     57.69        9.2409        0.8299       10.0549       10.8848       1.643897       0.22599
  22     68.43        9.2713        0.9661        9.7327       10.6988       1.427502       0.17012
  21     81.20        9.2853        1.1269        9.4134       10.5403       1.254986       0.11400
  20     96.49        9.2809        1.3159        9.0887       10.4046       1.123689       0.07247
  19     114.6        9.2661        1.5342        8.7388       10.2730       1.006843       0.05456
  18     136.5        9.2439        1.7838        8.3549       10.1387       0.894752       0.04310
  17     162.9        9.2143        2.0682        7.9311        9.9993       0.785032       0.03507
  16     196.4        9.1652        2.4204        7.4333        9.8537       0.688487       0.02430
  15     218.7        9.1300        2.6419        7.1295        9.7714       0.641412       0.01787
  14     243.0        9.0915        2.8734        6.8161        9.6894       0.597953       0.01507
  13     269.0        9.0494        3.1140        6.4943        9.6083       0.558940       0.01266
  12     297.5        9.0039        3.3627        6.1657        9.5284       0.524557       0.01020
  11     328.5        8.9562        3.6184        5.8295        9.4479       0.491647       0.00895
  10     361.9        8.9070        3.8788        5.4886        9.3674       0.460357       0.00792
   9     398.1        8.8563        4.1431        5.1440        9.2870       0.430713       0.00691
   8     437.6        8.8047        4.4099        4.7969        9.2068       0.402146       0.00611
   7     480.5        8.7523        4.6770        4.4504        9.1274       0.375040       0.00532
   6     533.0        8.6921        4.9814        4.0563        9.0376       0.345502       0.00475
   5     589.8        8.6325        5.2812        3.6682        8.9494       0.316917       0.00424
   4     651.6        8.5744        5.5729        3.2905        8.8634       0.288965       0.00382
   3     718.7        8.5182        5.8546        2.9252        8.7798       0.261603       0.00344
   2     792.3        8.4648        6.1232        2.5764        8.6996       0.234837       0.00307
   1     891.5        8.4026        6.4385        2.1659        8.6044       0.201813       0.00281
   0    1013.0        8.3416        6.7544        1.7526        8.5069       0.165381       0.00253



 Wavenumbers: 38000. - 50000. cm-1, ATM      1
 LEVEL PRESSURE   UPWARD FLUX   DIFDOWN FLUX  DIRDOWN FLUX  DOWNWARD FLUX   NET FLUX    HEATING RATE
          mb          W/m2          W/m2          W/m2        W/m2          W/m2       degree/day
  51    .06700        0.0061        0.0000        1.2836        1.2836       1.277518       0.00000
  50    .07753        0.0061        0.0001        1.2812        1.2812       1.275183       1.87150
  49    .09103        0.0060        0.0002        1.2777        1.2778       1.271851       2.08247
  48    0.1069        0.0059        0.0002        1.2731        1.2734       1.267473       2.33059
  47    0.1255        0.0058        0.0004        1.2672        1.2675       1.261717       2.60908
  46    0.1487        0.0057        0.0005        1.2586        1.2591       1.253391       3.03499
  45    0.1794        0.0055        0.0007        1.2455        1.2462       1.240623       3.50520
  44    0.2165        0.0054        0.0009        1.2282        1.2291       1.223697       3.85037
  43    0.2613        0.0052        0.0011        1.2054        1.2065       1.201348       4.21261
  42    0.3336        0.0049        0.0015        1.1639        1.1654       1.160524       4.75970
  41    0.4307        0.0045        0.0020        1.1051        1.1070       1.102565       5.03943
  40    0.5894        0.0039        0.0026        1.0039        1.0064       1.002524       5.32007
  39     1.339        0.0022        0.0035        0.5438        0.5473       0.545104       5.14971
  38     1.782        0.0016        0.0032        0.3635        0.3666       0.365006       3.42879
  37     2.292        0.0012        0.0027        0.2356        0.2383       0.237058       2.11916
  36     2.964        0.0009        0.0022        0.1455        0.1477       0.146786       1.13318
  35     3.853        0.0006        0.0017        0.0858        0.0875       0.086906       0.56828
  34     5.035        0.0004        0.0013        0.0488        0.0501       0.049701       0.26578
  33     6.613        0.0003        0.0010        0.0273        0.0282       0.027974       0.11615
  32     8.786        0.0002        0.0007        0.0144        0.0151       0.014928       0.05067
  31     11.80        0.0001        0.0004        0.0065        0.0070       0.006903       0.02247
  30     15.07        0.0000        0.0003        0.0031        0.0034       0.003329       0.00923
  29     18.79        0.0000        0.0002        0.0014        0.0016       0.001583       0.00396
  28     23.16        0.0000        0.0001        0.0006        0.0007       0.000720       0.00167
  27     28.12        0.0000        0.0001        0.0003        0.0003       0.000317       0.00069
  26     33.73        0.0000        0.0000        0.0001        0.0001       0.000140       0.00027
  25     40.54        0.0000        0.0000        0.0000        0.0001       0.000057       0.00010
  24     48.69        0.0000        0.0000        0.0000        0.0000       0.000021       0.00004
  23     57.69        0.0000        0.0000        0.0000        0.0000       0.000008       0.00001
  22     68.43        0.0000        0.0000        0.0000        0.0000       0.000003       0.00000
  21     81.20        0.0000        0.0000        0.0000        0.0000       0.000001       0.00000
  20     96.49        0.0000        0.0000        0.0000        0.0000       0.000000       0.00000
  19     114.6        0.0000        0.0000        0.0000        0.0000       0.000000       0.00000
  18     136.5        0.0000        0.0000        0.0000        0.0000       0.000000       0.00000
  17     162.9        0.0000        0.0000        0.0000        0.0000       0.000000       0.00000
  16     196.4        0.0000        0.0000        0.0000        0.0000       0.000000       0.00000
  15     218.7        0.0000        0.0000        0.0000        0.0000       0.000000       0.00000
  14     243.0        0.0000        0.0000        0.0000        0.0000       0.000000       0.00000
  13     269.0        0.0000        0.0000        0.0000        0.0000       0.000000       0.00000
  12     297.5        0.0000        0.0000        0.0000        0.0000       0.000000       0.00000
  11     328.5        0.0000        0.0000        0.0000        0.0000       0.000000       0.00000
  10     361.9        0.0000        0.0000        0.0000        0.0000       0.000000       0.00000
   9     398.1        0.0000        0.0000        0.0000        0.0000       0.000000       0.00000
   8     437.6        0.0000        0.0000        0.0000        0.0000       0.000000       0.00000
   7     480.5        0.0000        0.0000        0.0000        0.0000       0.000000       0.00000
   6     533.0        0.0000        0.0000        0.0000        0.0000       0.000000       0.00000
   5     589.8        0.0000        0.0000        0.0000        0.0000       0.000000       0.00000
   4     651.6        0.0000        0.0000        0.0000        0.0000       0.000000       0.00000
   3     718.7        0.0000        0.0000        0.0000        0.0000       0.000000       0.00000
   2     792.3        0.0000        0.0000        0.0000        0.0000       0.000000       0.00000
   1     891.5        0.0000        0.0000        0.0000        0.0000       0.000000       0.00000
   0    1013.0        0.0000        0.0000        0.0000        0.0000       0.000000       0.00000



 Wavenumbers:   820. -  2600. cm-1, ATM      1
 LEVEL PRESSURE   UPWARD FLUX   DIFDOWN FLUX  DIRDOWN FLUX  DOWNWARD FLUX   NET FLUX    HEATING RATE
          mb          W/m2          W/m2          W/m2        W/m2          W/m2       degree/day
  51    .06700        0.0119        0.0000        6.0047        6.0047       5.992718       0.00000
  50    .07753        0.0119        0.0000        6.0008        6.0008       5.988865       3.08819
  49    .09103        0.0119        0.0000        5.9999        5.9999       5.987979       0.55356
  48    0.1069        0.0119        0.0000        5.9989        5.9989       5.986990       0.52650
  47    0.1255        0.0119        0.0000        5.9978        5.9978       5.985873       0.50647
  46    0.1487        0.0119        0.0000        5.9964        5.9964       5.984516       0.49454
  45    0.1794        0.0119        0.0000        5.9947        5.9947       5.982797       0.47197
  44    0.2165        0.0119        0.0000        5.9929        5.9929       5.980955       0.41908
  43    0.2613        0.0119        0.0000        5.9909        5.9909       5.978996       0.36930
  42    0.3336        0.0119        0.0000        5.9880        5.9880       5.976118       0.33553
  41    0.4307        0.0119        0.0000        5.9846        5.9846       5.972649       0.30162
  40    0.5894        0.0119        0.0000        5.9791        5.9791       5.967144       0.29273
  39     1.339        0.0119        0.0000        5.9536        5.9536       5.941660       0.28691
  38     1.782        0.0119        0.0000        5.9395        5.9395       5.927523       0.26914
  37     2.292        0.0119        0.0000        5.9237        5.9237       5.911773       0.26085
  36     2.964        0.0119        0.0000        5.9039        5.9039       5.892002       0.24820
  35     3.853        0.0119        0.0000        5.8793        5.8793       5.867348       0.23396
  34     5.035        0.0119        0.0000        5.8487        5.8487       5.836789       0.21830
  33     6.613        0.0119        0.0000        5.8108        5.8108       5.798829       0.20293
  32     8.786        0.0119        0.0000        5.7631        5.7631       5.751211       0.18493
  31     11.80        0.0119        0.0000        5.7039        5.7039       5.691963       0.16588
  30     15.07        0.0119        0.0000        5.6539        5.6539       5.641933       0.12917
  29     18.79        0.0119        0.0000        5.6127        5.6127       5.600806       0.09325
  28     23.16        0.0119        0.0000        5.5794        5.5794       5.567439       0.06452
  27     28.12        0.0119        0.0000        5.5518        5.5518       5.539882       0.04685
  26     33.73        0.0119        0.0000        5.5268        5.5268       5.514838       0.03765
  25     40.54        0.0119        0.0000        5.4993        5.4993       5.487403       0.03404
  24     48.69        0.0119        0.0000        5.4678        5.4678       5.455871       0.03263
  23     57.69        0.0119        0.0000        5.4340        5.4340       5.422091       0.03166
  22     68.43        0.0119        0.0000        5.3947        5.3948       5.382826       0.03087
  21     81.20        0.0119        0.0000        5.3497        5.3497       5.337801       0.02975
  20     96.49        0.0119        0.0000        5.2982        5.2982       5.286298       0.02843
  19     114.6        0.0119        0.0000        5.2389        5.2389       5.226987       0.02769
  18     136.5        0.0119        0.0000        5.1716        5.1717       5.159743       0.02586
  17     162.9        0.0119        0.0000        5.0890        5.0890       5.077127       0.02641
  16     196.4        0.0119        0.0000        4.9668        4.9668       4.954916       0.03076
  15     218.7        0.0119        0.0000        4.8585        4.8585       4.846555       0.04114
  14     243.0        0.0119        0.0000        4.7078        4.7079       4.695940       0.05224
  13     269.0        0.0119        0.0000        4.5343        4.5343       4.522357       0.05631
  12     297.5        0.0119        0.0000        4.3419        4.3420       4.330033       0.05704
  11     328.5        0.0119        0.0000        4.1281        4.1281       4.116201       0.05814
  10     361.9        0.0120        0.0000        3.8786        3.8787       3.866720       0.06312
   9     398.1        0.0120        0.0000        3.6159        3.6159       3.603975       0.06121
   8     437.6        0.0120        0.0000        3.3759        3.3759       3.363889       0.05133
   7     480.5        0.0120        0.0000        3.1957        3.1958       3.183753       0.03538
   6     533.0        0.0121        0.0000        3.0467        3.0467       3.034623       0.02399
   5     589.8        0.0122        0.0000        2.9023        2.9023       2.890160       0.02144
   4     651.6        0.0123        0.0000        2.7183        2.7184       2.706060       0.02518
   3     718.7        0.0125        0.0000        2.5058        2.5059       2.493309       0.02674
   2     792.3        0.0130        0.0000        2.2756        2.2757       2.262660       0.02645
   1     891.5        0.0142        0.0000        1.9621        1.9621       1.947959       0.02678
   0    1013.0        0.0172        0.0000        1.5468        1.5469       1.529702       0.02904

  Modules and versions used in this calculation:

       rrtmg_sw.1col.f90:  $Revision$                    rrtmg_sw_init.f90:  $Revision$        
     rrtmgsw_cldprop.f90:  $Revision$                  rrtmgsw_cldprmc.f90:  NOT USED          
     rrtmg_sw_reftra.f90:  $Revision$                  rrtmg_sw_spcvrt.f90:  NOT USED          
     rrtmg_sw_spcvmc.f90:  NOT USED                    rrtmgsw_setcoef.f90:  NOT USED          
     rrtmg_sw_taumol.f90:  $Revision$                  rrtmg_sw_vrtqdr.f90:  NOT USED          
                rrtatm.f:  NOT USED                             util_xxx.f:  NOT USED          
                 extra.f:  NOT USED                       rrtmg_sw_k_g.f90:  $Revision$        

