

 Wavenumbers:   820. - 50000. cm-1, ATM      1
 LEVEL PRESSURE   UPWARD FLUX   DIFDOWN FLUX  DIRDOWN FLUX  DOWNWARD FLUX   NET FLUX    HEATING RATE
          mb          W/m2          W/m2          W/m2        W/m2          W/m2       degree/day
  51    .06700      351.3642        0.0000      617.8126      617.8126     266.448420       0.00000
  50    .07753      351.3638        0.0013      617.7947      617.7960     266.432286      12.93102
  49    .09103      351.3633        0.0030      617.7778      617.7808     266.417486       9.25041
  48    0.1069      351.3628        0.0049      617.7581      617.7630     266.400238       9.18159
  47    0.1255      351.3622        0.0071      617.7340      617.7411     266.378910       9.66911
  46    0.1487      351.3616        0.0099      617.7009      617.7108     266.349248      10.81195
  45    0.1794      351.3607        0.0137      617.6521      617.6658     266.305054      12.13223
  44    0.2165      351.3599        0.0182      617.5895      617.6077     266.247783      13.02826
  43    0.2613      351.3590        0.0235      617.5089      617.5324     266.173337      14.03273
  42    0.3336      351.3579        0.0322      617.3641      617.3963     266.038378      15.73491
  41    0.4307      351.3569        0.0437      617.1591      617.2028     265.845943      16.73179
  40    0.5894      351.3561        0.0622      616.8005      616.8627     265.506608      18.04538
  39     1.339      351.3695        0.1458      614.9443      615.0901     263.720589      20.10734
  38     1.782      351.3894        0.1929      613.9670      614.1599     262.770517      18.08784
  37     2.292      351.4232        0.2464      613.0059      613.2523     261.829056      15.59305
  36     2.964      351.4839        0.3159      611.9577      612.2736     260.789664      13.04751
  35     3.853      351.5868        0.4071      610.8024      611.2095     259.622698      11.07471
  34     5.035      351.7458        0.5274      609.5327      610.0601     258.314313       9.34656
  33     6.613      351.9701        0.6871      608.1464      608.8335     256.863387       7.75665
  32     8.786      352.2622        0.9013      606.6250      607.5263     255.264159       6.21082
  31     11.80      352.6394        1.2062      604.8486      606.0548     253.415487       5.17570
  30     15.07      352.9972        1.5316      603.2440      604.7755     251.778337       4.22680
  29     18.79      353.3592        1.8976      601.6511      603.5487     250.189532       3.60231
  28     23.16      353.7335        2.3228      599.9927      602.3156     248.582095       3.10826
  27     28.12      354.1046        2.8069      598.2881      601.0949     246.990345       2.70587
  26     33.73      354.4366        3.3464      596.5951      599.9414     245.504893       2.23342
  25     40.54      354.7406        3.9958      594.7727      598.7685     244.027957       1.83231
  24     48.69      355.0131        4.7751      592.7865      597.5616     242.548509       1.53100
  23     57.69      355.2211        5.6268      590.7959      596.4227     241.201561       1.26256
  22     68.43      355.3698        6.6356      588.6191      595.2547     239.884879       1.03509
  21     81.20      355.4093        7.8315      586.2690      594.1005     238.691168       0.78879
  20     96.49      355.3287        9.2472      583.6961      592.9433     237.614639       0.59417
  19     114.6      355.1816       10.9123      580.7708      591.6832     236.501528       0.51974
  18     136.5      354.9653       12.8615      577.4359      590.2974     235.332140       0.44966
  17     162.9      354.6717       15.1482      573.5624      588.7107     234.038947       0.41336
  16     196.4      354.2082       18.0632      568.5907      586.6539     232.445734       0.40103
  15     218.7      353.8762       19.9472      565.0572      585.0044     231.128272       0.50019
  14     243.0      353.5059       21.9673      560.7495      582.7168     229.210943       0.66499
  13     269.0      353.0963       24.1247      555.3947      579.5194     226.423123       0.90436
  12     297.5      352.6487       26.4199      548.9964      575.4163     222.767646       1.08417
  11     328.5      352.1698       28.8591      542.0895      570.9487     218.778867       1.08454
  10     361.9      351.6624       31.4383      534.6242      566.0625     214.400130       1.10786
   9     398.1      351.1291       34.1617      526.4204      560.5821     209.453075       1.15255
   8     437.6      350.5777       37.0278      517.3907      554.4185     203.840722       1.19996
   7     480.5      350.0152       40.0344      507.7216      547.7559     197.740740       1.19801
   6     533.0      349.3745       43.6467      495.9006      539.5473     190.172773       1.21745
   5     589.8      348.7743       47.4343      483.0788      530.5131     181.738859       1.25187
   4     651.6      348.3029       51.3844      468.6907      520.0751     171.772207       1.36297
   3     718.7      348.0563       55.4888      453.2257      508.7145     160.658178       1.39673
   2     792.3      348.2635       59.7257      436.4928      496.2185     147.954979       1.45691
   1     891.5      349.7413       65.1941      413.9344      479.1285     129.387241       1.58003
   0    1013.0      354.5073       71.4056      388.4125      459.8180     105.310744       1.67175



 Wavenumbers:  2600. -  3250. cm-1, ATM      1
 LEVEL PRESSURE   UPWARD FLUX   DIFDOWN FLUX  DIRDOWN FLUX  DOWNWARD FLUX   NET FLUX    HEATING RATE
          mb          W/m2          W/m2          W/m2        W/m2          W/m2       degree/day
  51    .06700        0.8239        0.0000        5.4450        5.4450       4.621127       0.00000
  50    .07753        0.8239        0.0000        5.4450        5.4450       4.621119       0.00640
  49    .09103        0.8239        0.0000        5.4450        5.4450       4.621109       0.00627
  48    0.1069        0.8239        0.0000        5.4450        5.4450       4.621098       0.00613
  47    0.1255        0.8239        0.0000        5.4450        5.4450       4.621084       0.00599
  46    0.1487        0.8239        0.0000        5.4450        5.4450       4.621068       0.00608
  45    0.1794        0.8239        0.0000        5.4450        5.4450       4.621045       0.00625
  44    0.2165        0.8239        0.0000        5.4449        5.4449       4.621018       0.00612
  43    0.2613        0.8239        0.0000        5.4449        5.4449       4.620986       0.00600
  42    0.3336        0.8239        0.0000        5.4448        5.4448       4.620933       0.00617
  41    0.4307        0.8239        0.0000        5.4448        5.4448       4.620862       0.00620
  40    0.5894        0.8239        0.0000        5.4446        5.4446       4.620742       0.00637
  39     1.339        0.8239        0.0000        5.4439        5.4439       4.620035       0.00797
  38     1.782        0.8239        0.0000        5.4434        5.4434       4.619492       0.01034
  37     2.292        0.8239        0.0000        5.4427        5.4427       4.618776       0.01186
  36     2.964        0.8239        0.0000        5.4416        5.4416       4.617737       0.01304
  35     3.853        0.8239        0.0000        5.4402        5.4402       4.616260       0.01402
  34     5.035        0.8239        0.0000        5.4381        5.4381       4.614204       0.01468
  33     6.613        0.8239        0.0000        5.4353        5.4353       4.611423       0.01487
  32     8.786        0.8239        0.0000        5.4317        5.4317       4.607791       0.01411
  31     11.80        0.8239        0.0000        5.4269        5.4269       4.603011       0.01338
  30     15.07        0.8239        0.0000        5.4224        5.4224       4.598484       0.01169
  29     18.79        0.8239        0.0000        5.4180        5.4180       4.594071       0.01000
  28     23.16        0.8239        0.0000        5.4135        5.4135       4.589585       0.00868
  27     28.12        0.8239        0.0000        5.4088        5.4088       4.584936       0.00790
  26     33.73        0.8239        0.0000        5.4036        5.4036       4.579694       0.00788
  25     40.54        0.8239        0.0000        5.3966        5.3967       4.572750       0.00861
  24     48.69        0.8239        0.0000        5.3872        5.3872       4.563269       0.00981
  23     57.69        0.8239        0.0000        5.3754        5.3754       4.551479       0.01105
  22     68.43        0.8239        0.0000        5.3599        5.3599       4.535983       0.01218
  21     81.20        0.8240        0.0000        5.3401        5.3401       4.516138       0.01311
  20     96.49        0.8240        0.0000        5.3155        5.3155       4.491554       0.01357
  19     114.6        0.8240        0.0000        5.2853        5.2854       4.461332       0.01411
  18     136.5        0.8241        0.0001        5.2504        5.2505       4.426390       0.01344
  17     162.9        0.8242        0.0001        5.2111        5.2112       4.386993       0.01259
  16     196.4        0.8243        0.0001        5.1640        5.1641       4.339807       0.01188
  15     218.7        0.8245        0.0001        5.1331        5.1332       4.308730       0.01180
  14     243.0        0.8247        0.0001        5.0962        5.0963       4.271572       0.01289
  13     269.0        0.8252        0.0001        5.0511        5.0512       4.226033       0.01477
  12     297.5        0.8258        0.0001        4.9956        4.9957       4.169915       0.01664
  11     328.5        0.8267        0.0001        4.9304        4.9305       4.103805       0.01798
  10     361.9        0.8279        0.0001        4.8511        4.8512       4.023337       0.02036
   9     398.1        0.8295        0.0001        4.7507        4.7508       3.921297       0.02377
   8     437.6        0.8318        0.0002        4.6220        4.6222       3.790439       0.02798
   7     480.5        0.8348        0.0002        4.4625        4.4626       3.627891       0.03192
   6     533.0        0.8395        0.0002        4.2460        4.2462       3.406699       0.03558
   5     589.8        0.8466        0.0002        3.9954        3.9956       3.149020       0.03825
   4     651.6        0.8577        0.0002        3.7089        3.7090       2.851337       0.04071
   3     718.7        0.8750        0.0002        3.4018        3.4020       2.527049       0.04075
   2     792.3        0.9032        0.0002        3.0564        3.0566       2.153431       0.04285
   1     891.5        0.9671        0.0002        2.5828        2.5830       1.615926       0.04574
   0    1013.0        1.1172        0.0002        2.0845        2.0847       0.967494       0.04502



 Wavenumbers:  3250. -  4000. cm-1, ATM      1
 LEVEL PRESSURE   UPWARD FLUX   DIFDOWN FLUX  DIRDOWN FLUX  DOWNWARD FLUX   NET FLUX    HEATING RATE
          mb          W/m2          W/m2          W/m2        W/m2          W/m2       degree/day
  51    .06700        0.0005        0.0000        9.1795        9.1795       9.179011       0.00000
  50    .07753        0.0005        0.0000        9.1747        9.1747       9.174169       3.88148
  49    .09103        0.0005        0.0000        9.1713        9.1713       9.170781       2.11747
  48    0.1069        0.0005        0.0000        9.1688        9.1688       9.168256       1.34402
  47    0.1255        0.0005        0.0000        9.1665        9.1665       9.165997       1.02422
  46    0.1487        0.0005        0.0000        9.1641        9.1641       9.163555       0.88991
  45    0.1794        0.0005        0.0000        9.1612        9.1612       9.160677       0.79008
  44    0.2165        0.0005        0.0000        9.1583        9.1583       9.157757       0.66430
  43    0.2613        0.0005        0.0000        9.1553        9.1553       9.154784       0.56041
  42    0.3336        0.0005        0.0000        9.1511        9.1511       9.150605       0.48723
  41    0.4307        0.0005        0.0000        9.1464        9.1464       9.145837       0.41459
  40    0.5894        0.0005        0.0000        9.1393        9.1394       9.138831       0.37255
  39     1.339        0.0005        0.0000        9.1127        9.1127       9.112218       0.29962
  38     1.782        0.0005        0.0000        9.1011        9.1011       9.100629       0.22062
  37     2.292        0.0005        0.0000        9.0901        9.0901       9.089563       0.18329
  36     2.964        0.0005        0.0000        9.0776        9.0776       9.077133       0.15603
  35     3.853        0.0005        0.0000        9.0629        9.0629       9.062343       0.14036
  34     5.035        0.0005        0.0000        9.0441        9.0441       9.043604       0.13386
  33     6.613        0.0005        0.0000        9.0191        9.0191       9.018602       0.13366
  32     8.786        0.0005        0.0000        8.9843        8.9843       8.983819       0.13509
  31     11.80        0.0005        0.0000        8.9327        8.9327       8.932202       0.14451
  30     15.07        0.0005        0.0000        8.8758        8.8759       8.875357       0.14676
  29     18.79        0.0005        0.0000        8.8110        8.8110       8.810530       0.14698
  28     23.16        0.0005        0.0000        8.7365        8.7366       8.736085       0.14395
  27     28.12        0.0005        0.0000        8.6554        8.6555       8.654972       0.13789
  26     33.73        0.0005        0.0000        8.5719        8.5719       8.571473       0.12554
  25     40.54        0.0005        0.0001        8.4812        8.4812       8.480749       0.11255
  24     48.69        0.0005        0.0001        8.3838        8.3839       8.383448       0.10069
  23     57.69        0.0004        0.0001        8.2861        8.2862       8.285712       0.09161
  22     68.43        0.0004        0.0001        8.1751        8.1751       8.174716       0.08726
  21     81.20        0.0004        0.0001        8.0457        8.0458       8.045358       0.08548
  20     96.49        0.0004        0.0001        7.8949        7.8950       7.894654       0.08318
  19     114.6        0.0004        0.0001        7.7162        7.7163       7.715945       0.08344
  18     136.5        0.0003        0.0002        7.5193        7.5194       7.519101       0.07569
  17     162.9        0.0003        0.0002        7.2913        7.2915       7.291210       0.07284
  16     196.4        0.0003        0.0002        6.9660        6.9662       6.965937       0.08187
  15     218.7        0.0003        0.0002        6.6648        6.6650       6.664749       0.11435
  14     243.0        0.0002        0.0002        6.2619        6.2622       6.261954       0.13970
  13     269.0        0.0002        0.0003        5.7576        5.7579       5.757655       0.16359
  12     297.5        0.0002        0.0003        5.1719        5.1722       5.171965       0.17371
  11     328.5        0.0002        0.0002        4.5757        4.5760       4.575805       0.16209
  10     361.9        0.0002        0.0002        3.9995        3.9998       3.999630       0.14578
   9     398.1        0.0001        0.0002        3.4655        3.4657       3.465574       0.12442
   8     437.6        0.0001        0.0002        2.9740        2.9742       2.974127       0.10507
   7     480.5        0.0001        0.0002        2.5307        2.5309       2.530754       0.08708
   6     533.0        0.0001        0.0002        2.0614        2.0616       2.061459       0.07549
   5     589.8        0.0001        0.0002        1.6150        1.6151       1.615031       0.06626
   4     651.6        0.0001        0.0001        1.1565        1.1566       1.156488       0.06271
   3     718.7        0.0001        0.0001        0.7390        0.7391       0.738990       0.05247
   2     792.3        0.0002        0.0001        0.3985        0.3985       0.398346       0.03907
   1     891.5        0.0005        0.0000        0.1139        0.1139       0.113427       0.02425
   0    1013.0        0.0050        0.0000        0.0094        0.0094       0.004355       0.00757



 Wavenumbers:  4000. -  4650. cm-1, ATM      1
 LEVEL PRESSURE   UPWARD FLUX   DIFDOWN FLUX  DIRDOWN FLUX  DOWNWARD FLUX   NET FLUX    HEATING RATE
          mb          W/m2          W/m2          W/m2        W/m2          W/m2       degree/day
  51    .06700        3.3279        0.0000       10.7795       10.7795       7.451633       0.00000
  50    .07753        3.3279        0.0000       10.7795       10.7795       7.451632       0.00080
  49    .09103        3.3279        0.0000       10.7795       10.7795       7.451631       0.00078
  48    0.1069        3.3279        0.0000       10.7795       10.7795       7.451630       0.00076
  47    0.1255        3.3279        0.0000       10.7795       10.7795       7.451628       0.00075
  46    0.1487        3.3279        0.0000       10.7795       10.7795       7.451626       0.00076
  45    0.1794        3.3279        0.0000       10.7795       10.7795       7.451623       0.00078
  44    0.2165        3.3279        0.0000       10.7795       10.7795       7.451620       0.00076
  43    0.2613        3.3279        0.0000       10.7795       10.7795       7.451616       0.00075
  42    0.3336        3.3279        0.0000       10.7795       10.7795       7.451609       0.00077
  41    0.4307        3.3279        0.0000       10.7795       10.7795       7.451600       0.00077
  40    0.5894        3.3279        0.0000       10.7795       10.7795       7.451585       0.00080
  39     1.339        3.3279        0.0000       10.7794       10.7794       7.451496       0.00101
  38     1.782        3.3279        0.0000       10.7793       10.7793       7.451426       0.00133
  37     2.292        3.3279        0.0000       10.7792       10.7792       7.451332       0.00156
  36     2.964        3.3279        0.0000       10.7791       10.7791       7.451192       0.00176
  35     3.853        3.3279        0.0000       10.7789       10.7789       7.450984       0.00197
  34     5.035        3.3279        0.0000       10.7786       10.7786       7.450677       0.00219
  33     6.613        3.3279        0.0000       10.7781       10.7781       7.450226       0.00241
  32     8.786        3.3279        0.0000       10.7774       10.7774       7.449559       0.00259
  31     11.80        3.3279        0.0001       10.7763       10.7764       7.448513       0.00293
  30     15.07        3.3279        0.0001       10.7751       10.7752       7.447285       0.00317
  29     18.79        3.3279        0.0001       10.7736       10.7737       7.445800       0.00337
  28     23.16        3.3279        0.0001       10.7717       10.7718       7.443957       0.00356
  27     28.12        3.3278        0.0001       10.7695       10.7696       7.441727       0.00379
  26     33.73        3.3278        0.0001       10.7667       10.7668       7.438978       0.00413
  25     40.54        3.3278        0.0002       10.7629       10.7631       7.435250       0.00462
  24     48.69        3.3278        0.0002       10.7579       10.7581       7.430286       0.00514
  23     57.69        3.3278        0.0002       10.7520       10.7522       7.424403       0.00551
  22     68.43        3.3279        0.0003       10.7446       10.7449       7.417035       0.00579
  21     81.20        3.3279        0.0003       10.7355       10.7359       7.407967       0.00599
  20     96.49        3.3279        0.0004       10.7245       10.7249       7.396943       0.00608
  19     114.6        3.3280        0.0005       10.7107       10.7112       7.383170       0.00643
  18     136.5        3.3282        0.0006       10.6942       10.6948       7.366594       0.00637
  17     162.9        3.3284        0.0007       10.6740       10.6747       7.346297       0.00649
  16     196.4        3.3288        0.0008       10.6464       10.6472       7.318345       0.00704
  15     218.7        3.3293        0.0009       10.6255       10.6264       7.297108       0.00806
  14     243.0        3.3299        0.0010       10.5980       10.5991       7.269139       0.00970
  13     269.0        3.3310        0.0011       10.5611       10.5622       7.231257       0.01229
  12     297.5        3.3325        0.0012       10.5119       10.5132       7.180674       0.01500
  11     328.5        3.3347        0.0014       10.4499       10.4512       7.116569       0.01743
  10     361.9        3.3375        0.0015       10.3702       10.3717       7.034159       0.02085
   9     398.1        3.3410        0.0016       10.2678       10.2694       6.928358       0.02465
   8     437.6        3.3455        0.0018       10.1390       10.1408       6.795285       0.02845
   7     480.5        3.3510        0.0019        9.9877        9.9896       6.638642       0.03076
   6     533.0        3.3592        0.0021        9.7937        9.7958       6.436613       0.03250
   5     589.8        3.3705        0.0023        9.5752        9.5774       6.206911       0.03410
   4     651.6        3.3878        0.0025        9.2958        9.2983       5.910482       0.04054
   3     718.7        3.4145        0.0026        8.9267        8.9294       5.514841       0.04972
   2     792.3        3.4586        0.0028        8.4542        8.4570       4.998449       0.05922
   1     891.5        3.5596        0.0029        7.7948        7.7978       4.238160       0.06470
   0    1013.0        3.7942        0.0031        7.0767        7.0797       3.285495       0.06615



 Wavenumbers:  4650. -  5150. cm-1, ATM      1
 LEVEL PRESSURE   UPWARD FLUX   DIFDOWN FLUX  DIRDOWN FLUX  DOWNWARD FLUX   NET FLUX    HEATING RATE
          mb          W/m2          W/m2          W/m2        W/m2          W/m2       degree/day
  51    .06700        2.3439        0.0000       10.2033       10.2033       7.859466       0.00000
  50    .07753        2.3439        0.0000       10.2031       10.2031       7.859230       0.18901
  49    .09103        2.3439        0.0000       10.2028       10.2028       7.858935       0.18428
  48    0.1069        2.3439        0.0000       10.2025       10.2025       7.858599       0.17931
  47    0.1255        2.3439        0.0000       10.2021       10.2021       7.858214       0.17426
  46    0.1487        2.3439        0.0000       10.2016       10.2016       7.857733       0.17536
  45    0.1794        2.3439        0.0000       10.2010       10.2010       7.857083       0.17850
  44    0.2165        2.3439        0.0000       10.2002       10.2002       7.856323       0.17277
  43    0.2613        2.3439        0.0000       10.1993       10.1993       7.855438       0.16690
  42    0.3336        2.3439        0.0000       10.1979       10.1979       7.854005       0.16702
  41    0.4307        2.3439        0.0000       10.1960       10.1960       7.852165       0.16002
  40    0.5894        2.3439        0.0000       10.1932       10.1932       7.849291       0.15283
  39     1.339        2.3439        0.0000       10.1816       10.1816       7.837700       0.13050
  38     1.782        2.3439        0.0000       10.1760       10.1760       7.832171       0.10526
  37     2.292        2.3439        0.0000       10.1706       10.1706       7.826715       0.09037
  36     2.964        2.3439        0.0000       10.1646       10.1647       7.820792       0.07435
  35     3.853        2.3439        0.0000       10.1584       10.1584       7.814578       0.05897
  34     5.035        2.3439        0.0000       10.1521       10.1521       7.808243       0.04525
  33     6.613        2.3439        0.0000       10.1456       10.1456       7.801787       0.03451
  32     8.786        2.3438        0.0001       10.1386       10.1386       7.794778       0.02722
  31     11.80        2.3438        0.0001       10.1295       10.1296       7.785740       0.02530
  30     15.07        2.3438        0.0001       10.1196       10.1197       7.775865       0.02550
  29     18.79        2.3438        0.0001       10.1076       10.1077       7.763861       0.02722
  28     23.16        2.3438        0.0001       10.0923       10.0924       7.748562       0.02958
  27     28.12        2.3438        0.0002       10.0731       10.0733       7.729474       0.03245
  26     33.73        2.3439        0.0002       10.0500       10.0502       7.706387       0.03471
  25     40.54        2.3439        0.0003       10.0201       10.0204       7.676494       0.03709
  24     48.69        2.3439        0.0003        9.9820        9.9823       7.638334       0.03949
  23     57.69        2.3440        0.0004        9.9384        9.9388       7.594808       0.04080
  22     68.43        2.3441        0.0004        9.8858        9.8862       7.542092       0.04144
  21     81.20        2.3442        0.0005        9.8234        9.8239       7.479720       0.04121
  20     96.49        2.3444        0.0006        9.7518        9.7524       7.407925       0.03963
  19     114.6        2.3447        0.0007        9.6719        9.6726       7.327899       0.03737
  18     136.5        2.3451        0.0008        9.5858        9.5866       7.241488       0.03323
  17     162.9        2.3457        0.0010        9.4940        9.4950       7.149287       0.02947
  16     196.4        2.3467        0.0012        9.3883        9.3894       7.042773       0.02681
  15     218.7        2.3474        0.0013        9.3229        9.3242       6.976775       0.02506
  14     243.0        2.3484        0.0014        9.2520        9.2534       6.904946       0.02491
  13     269.0        2.3499        0.0016        9.1717        9.1732       6.823355       0.02647
  12     297.5        2.3519        0.0017        9.0763        9.0780       6.726077       0.02885
  11     328.5        2.3546        0.0019        8.9650        8.9668       6.612224       0.03096
  10     361.9        2.3581        0.0020        8.8349        8.8370       6.478831       0.03375
   9     398.1        2.3627        0.0022        8.6820        8.6842       6.321532       0.03665
   8     437.6        2.3686        0.0024        8.5028        8.5052       6.136552       0.03955
   7     480.5        2.3763        0.0026        8.2948        8.2974       5.921045       0.04232
   6     533.0        2.3880        0.0028        8.0209        8.0237       5.635649       0.04591
   5     589.8        2.4041        0.0030        7.7063        7.7093       5.305201       0.04905
   4     651.6        2.4276        0.0032        7.3412        7.3444       4.916828       0.05311
   3     718.7        2.4621        0.0033        6.9387        6.9420       4.479919       0.05491
   2     792.3        2.5144        0.0035        6.5066        6.5101       3.995667       0.05554
   1     891.5        2.6234        0.0036        5.9361        5.9397       3.316307       0.05781
   0    1013.0        2.8439        0.0038        5.3025        5.3062       2.462368       0.05929



 Wavenumbers:  5150. -  6150. cm-1, ATM      1
 LEVEL PRESSURE   UPWARD FLUX   DIFDOWN FLUX  DIRDOWN FLUX  DOWNWARD FLUX   NET FLUX    HEATING RATE
          mb          W/m2          W/m2          W/m2        W/m2          W/m2       degree/day
  51    .06700        5.9887        0.0000       25.5798       25.5798      19.591075       0.00000
  50    .07753        5.9887        0.0000       25.5798       25.5798      19.591036       0.03158
  49    .09103        5.9887        0.0000       25.5797       25.5797      19.590985       0.03207
  48    0.1069        5.9887        0.0000       25.5797       25.5797      19.590924       0.03257
  47    0.1255        5.9887        0.0000       25.5796       25.5796      19.590851       0.03308
  46    0.1487        5.9887        0.0000       25.5795       25.5795      19.590755       0.03485
  45    0.1794        5.9887        0.0000       25.5794       25.5794      19.590620       0.03709
  44    0.2165        5.9887        0.0000       25.5792       25.5792      19.590454       0.03765
  43    0.2613        5.9887        0.0000       25.5790       25.5790      19.590252       0.03823
  42    0.3336        5.9887        0.0000       25.5786       25.5786      19.589905       0.04039
  41    0.4307        5.9887        0.0000       25.5782       25.5782      19.589434       0.04094
  40    0.5894        5.9887        0.0000       25.5774       25.5774      19.588645       0.04195
  39     1.339        5.9887        0.0000       25.5735       25.5736      19.584846       0.04278
  38     1.782        5.9887        0.0000       25.5713       25.5714      19.582634       0.04211
  37     2.292        5.9887        0.0001       25.5688       25.5688      19.580131       0.04146
  36     2.964        5.9887        0.0001       25.5656       25.5657      19.576952       0.03991
  35     3.853        5.9887        0.0001       25.5615       25.5616      19.572911       0.03835
  34     5.035        5.9887        0.0001       25.5562       25.5564      19.567708       0.03717
  33     6.613        5.9887        0.0002       25.5494       25.5496      19.560960       0.03608
  32     8.786        5.9886        0.0003       25.5406       25.5409      19.552215       0.03396
  31     11.80        5.9886        0.0003       25.5287       25.5290      19.540391       0.03310
  30     15.07        5.9886        0.0004       25.5167       25.5171      19.528537       0.03061
  29     18.79        5.9886        0.0005       25.5042       25.5047      19.516146       0.02809
  28     23.16        5.9885        0.0007       25.4907       25.4913      19.502803       0.02580
  27     28.12        5.9885        0.0008       25.4764       25.4773      19.488736       0.02391
  26     33.73        5.9885        0.0010       25.4620       25.4630      19.474488       0.02142
  25     40.54        5.9885        0.0012       25.4463       25.4474      19.458916       0.01932
  24     48.69        5.9885        0.0014       25.4294       25.4308      19.442253       0.01724
  23     57.69        5.9885        0.0016       25.4126       25.4143      19.425721       0.01550
  22     68.43        5.9886        0.0020       25.3944       25.3964      19.407784       0.01410
  21     81.20        5.9887        0.0023       25.3744       25.3767      19.388057       0.01303
  20     96.49        5.9888        0.0028       25.3519       25.3547      19.365900       0.01223
  19     114.6        5.9889        0.0033       25.3262       25.3294      19.340499       0.01186
  18     136.5        5.9891        0.0039       25.2962       25.3001      19.310941       0.01137
  17     162.9        5.9894        0.0046       25.2521       25.2567      19.267318       0.01394
  16     196.4        5.9898        0.0056       25.1593       25.1648      19.175075       0.02322
  15     218.7        5.9901        0.0062       25.0159       25.0221      19.032019       0.05431
  14     243.0        5.9904        0.0068       24.7089       24.7157      18.725239       0.10640
  13     269.0        5.9910        0.0074       24.1619       24.1692      18.178256       0.17744
  12     297.5        5.9917        0.0079       23.4544       23.4623      17.470633       0.20987
  11     328.5        5.9927        0.0086       22.7355       22.7440      16.751334       0.19558
  10     361.9        5.9940        0.0092       21.9224       21.9316      15.937602       0.20588
   9     398.1        5.9957        0.0097       20.9939       21.0036      15.007962       0.21659
   8     437.6        5.9980        0.0103       19.9833       19.9936      13.995632       0.21644
   7     480.5        6.0010        0.0108       18.9483       18.9591      12.958082       0.20377
   6     533.0        6.0059        0.0113       17.7796       17.7909      11.785066       0.18870
   5     589.8        6.0133        0.0119       16.6726       16.6845      10.671149       0.16534
   4     651.6        6.0261        0.0125       15.6343       15.6468       9.620678       0.14365
   3     718.7        6.0479        0.0131       14.7738       14.7869       8.739045       0.11080
   2     792.3        6.0871        0.0139       14.0291       14.0430       7.955923       0.08982
   1     891.5        6.1859        0.0148       13.0822       13.0970       6.911074       0.08891
   0    1013.0        6.4609        0.0158       12.0384       12.0542       5.593239       0.09150



 Wavenumbers:  6150. -  7700. cm-1, ATM      1
 LEVEL PRESSURE   UPWARD FLUX   DIFDOWN FLUX  DIRDOWN FLUX  DOWNWARD FLUX   NET FLUX    HEATING RATE
          mb          W/m2          W/m2          W/m2        W/m2          W/m2       degree/day
  51    .06700        8.8328        0.0000       47.3109       47.3109      38.478055       0.00000
  50    .07753        8.8328        0.0000       47.3108       47.3108      38.477998       0.04553
  49    .09103        8.8328        0.0000       47.3107       47.3107      38.477925       0.04583
  48    0.1069        8.8328        0.0000       47.3106       47.3106      38.477838       0.04614
  47    0.1255        8.8328        0.0000       47.3105       47.3105      38.477736       0.04645
  46    0.1487        8.8328        0.0000       47.3104       47.3104      38.477603       0.04852
  45    0.1794        8.8328        0.0000       47.3102       47.3102      38.477416       0.05127
  44    0.2165        8.8328        0.0000       47.3100       47.3100      38.477189       0.05167
  43    0.2613        8.8328        0.0000       47.3097       47.3097      38.476912       0.05210
  42    0.3336        8.8328        0.0000       47.3092       47.3092      38.476443       0.05471
  41    0.4307        8.8328        0.0000       47.3085       47.3086      38.475808       0.05521
  40    0.5894        8.8328        0.0001       47.3074       47.3075      38.474749       0.05633
  39     1.339        8.8327        0.0002       47.3022       47.3023      38.469657       0.05733
  38     1.782        8.8326        0.0002       47.2991       47.2993      38.466686       0.05655
  37     2.292        8.8326        0.0003       47.2956       47.2959      38.463311       0.05591
  36     2.964        8.8325        0.0003       47.2912       47.2915      38.458992       0.05421
  35     3.853        8.8325        0.0004       47.2855       47.2859      38.453458       0.05252
  34     5.035        8.8324        0.0006       47.2780       47.2786      38.446278       0.05129
  33     6.613        8.8322        0.0008       47.2683       47.2691      38.436890       0.05019
  32     8.786        8.8320        0.0010       47.2556       47.2566      38.424591       0.04777
  31     11.80        8.8317        0.0014       47.2380       47.2394      38.407688       0.04732
  30     15.07        8.8314        0.0018       47.2201       47.2218      38.390401       0.04463
  29     18.79        8.8311        0.0022       47.2008       47.2030      38.371922       0.04190
  28     23.16        8.8307        0.0027       47.1795       47.1822      38.351533       0.03943
  27     28.12        8.8303        0.0033       47.1565       47.1598      38.329540       0.03739
  26     33.73        8.8298        0.0040       47.1324       47.1364      38.306621       0.03446
  25     40.54        8.8291        0.0048       47.1054       47.1101      38.280987       0.03180
  24     48.69        8.8284        0.0057       47.0754       47.0812      38.252737       0.02923
  23     57.69        8.8276        0.0068       47.0449       47.0517      38.224120       0.02682
  22     68.43        8.8266        0.0080       47.0110       47.0190      38.192389       0.02494
  21     81.20        8.8255        0.0095       46.9729       46.9824      38.156903       0.02345
  20     96.49        8.8241        0.0113       46.9294       46.9407      38.116574       0.02226
  19     114.6        8.8225        0.0134       46.8790       46.8925      38.069958       0.02177
  18     136.5        8.8206        0.0160       46.8200       46.8359      38.015361       0.02099
  17     162.9        8.8183        0.0189       46.7361       46.7551      37.936786       0.02512
  16     196.4        8.8153        0.0228       46.5703       46.5931      37.777709       0.04004
  15     218.7        8.8135        0.0253       46.3473       46.3726      37.559102       0.08300
  14     243.0        8.8116        0.0279       45.9299       45.9577      37.146184       0.14321
  13     269.0        8.8097        0.0305       45.1708       45.2013      36.391551       0.24480
  12     297.5        8.8081        0.0330       44.0115       44.0445      35.236376       0.34261
  11     328.5        8.8068        0.0355       42.7242       42.7597      33.952972       0.34895
  10     361.9        8.8060        0.0381       41.3539       41.3920      32.586030       0.34585
   9     398.1        8.8060        0.0406       39.7953       39.8358      31.029782       0.36257
   8     437.6        8.8075        0.0428       37.9948       38.0376      29.230141       0.38477
   7     480.5        8.8109        0.0450       36.0647       36.1097      27.298817       0.37930
   6     533.0        8.8186        0.0472       33.7773       33.8245      25.005832       0.36887
   5     589.8        8.8338        0.0492       31.4082       31.4573      22.623580       0.35360
   4     651.6        8.8641        0.0506       28.8834       28.9340      20.069910       0.34922
   3     718.7        8.9204        0.0519       26.4104       26.4623      17.541879       0.31770
   2     792.3        9.0260        0.0528       24.0056       24.0585      15.032441       0.28780
   1     891.5        9.2947        0.0539       21.2348       21.2887      11.993975       0.25856
   0    1013.0       10.0091        0.0551       18.6150       18.6701       8.660970       0.23143



 Wavenumbers:  7700. -  8050. cm-1, ATM      1
 LEVEL PRESSURE   UPWARD FLUX   DIFDOWN FLUX  DIRDOWN FLUX  DOWNWARD FLUX   NET FLUX    HEATING RATE
          mb          W/m2          W/m2          W/m2        W/m2          W/m2       degree/day
  51    .06700        4.7230        0.0000       11.1810       11.1810       6.457980       0.00000
  50    .07753        4.7230        0.0000       11.1809       11.1809       6.457959       0.01670
  49    .09103        4.7230        0.0000       11.1809       11.1809       6.457933       0.01637
  48    0.1069        4.7230        0.0000       11.1809       11.1809       6.457903       0.01603
  47    0.1255        4.7230        0.0000       11.1809       11.1809       6.457868       0.01568
  46    0.1487        4.7230        0.0000       11.1808       11.1808       6.457824       0.01591
  45    0.1794        4.7230        0.0000       11.1808       11.1808       6.457765       0.01638
  44    0.2165        4.7230        0.0000       11.1807       11.1807       6.457694       0.01606
  43    0.2613        4.7230        0.0000       11.1806       11.1806       6.457610       0.01576
  42    0.3336        4.7231        0.0000       11.1805       11.1805       6.457472       0.01613
  41    0.4307        4.7231        0.0000       11.1803       11.1804       6.457289       0.01595
  40    0.5894        4.7231        0.0000       11.1801       11.1801       6.456989       0.01594
  39     1.339        4.7233        0.0001       11.1788       11.1789       6.455571       0.01596
  38     1.782        4.7234        0.0001       11.1781       11.1782       6.454739       0.01585
  37     2.292        4.7235        0.0001       11.1772       11.1773       6.453775       0.01596
  36     2.964        4.7237        0.0002       11.1761       11.1762       6.452509       0.01589
  35     3.853        4.7239        0.0002       11.1746       11.1748       6.450838       0.01586
  34     5.035        4.7242        0.0003       11.1726       11.1729       6.448617       0.01586
  33     6.613        4.7246        0.0003       11.1700       11.1703       6.445652       0.01585
  32     8.786        4.7252        0.0005       11.1664       11.1668       6.441657       0.01551
  31     11.80        4.7260        0.0006       11.1613       11.1619       6.435948       0.01599
  30     15.07        4.7268        0.0008       11.1558       11.1566       6.429823       0.01581
  29     18.79        4.7277        0.0010       11.1497       11.1507       6.422914       0.01567
  28     23.16        4.7289        0.0012       11.1425       11.1437       6.414855       0.01558
  27     28.12        4.7301        0.0015       11.1343       11.1358       6.405656       0.01564
  26     33.73        4.7316        0.0018       11.1252       11.1269       6.395384       0.01544
  25     40.54        4.7333        0.0021       11.1142       11.1163       6.383006       0.01536
  24     48.69        4.7354        0.0025       11.1010       11.1035       6.368133       0.01539
  23     57.69        4.7377        0.0030       11.0866       11.0896       6.351860       0.01525
  22     68.43        4.7405        0.0035       11.0695       11.0731       6.332565       0.01517
  21     81.20        4.7439        0.0042       11.0494       11.0536       6.309703       0.01511
  20     96.49        4.7479        0.0050       11.0255       11.0305       6.282638       0.01494
  19     114.6        4.7527        0.0059       10.9975       11.0035       6.250748       0.01489
  18     136.5        4.7585        0.0070       10.9648       10.9718       6.213287       0.01440
  17     162.9        4.7655        0.0083       10.9263       10.9346       6.169133       0.01411
  16     196.4        4.7747        0.0100       10.8773       10.8873       6.112567       0.01424
  15     218.7        4.7809        0.0111       10.8455       10.8567       6.075793       0.01396
  14     243.0        4.7877        0.0123       10.8114       10.8238       6.036096       0.01377
  13     269.0        4.7952        0.0136       10.7749       10.7885       5.993323       0.01388
  12     297.5        4.8035        0.0150       10.7357       10.7507       5.947259       0.01366
  11     328.5        4.8127        0.0165       10.6937       10.7103       5.897611       0.01350
  10     361.9        4.8229        0.0182       10.6489       10.6670       5.844167       0.01352
   9     398.1        4.8342        0.0199       10.6008       10.6207       5.786456       0.01345
   8     437.6        4.8470        0.0218       10.5491       10.5709       5.723894       0.01338
   7     480.5        4.8613        0.0238       10.4934       10.5173       5.655939       0.01335
   6     533.0        4.8800        0.0263       10.4243       10.4506       5.570555       0.01374
   5     589.8        4.9019        0.0290       10.3479       10.3768       5.474979       0.01419
   4     651.6        4.9281        0.0318       10.2613       10.2931       5.365026       0.01504
   3     718.7        4.9603        0.0348       10.1618       10.1966       5.236271       0.01618
   2     792.3        5.0011        0.0380       10.0439       10.0819       5.080752       0.01784
   1     891.5        5.0699        0.0422        9.8626        9.9048       4.834914       0.02092
   0    1013.0        5.1786        0.0470        9.6103        9.6573       4.478696       0.02473



 Wavenumbers:  8050. - 12850. cm-1, ATM      1
 LEVEL PRESSURE   UPWARD FLUX   DIFDOWN FLUX  DIRDOWN FLUX  DOWNWARD FLUX   NET FLUX    HEATING RATE
          mb          W/m2          W/m2          W/m2        W/m2          W/m2       degree/day
  51    .06700       57.8609        0.0000      156.5418      156.5418      98.680841       0.00000
  50    .07753       57.8609        0.0000      156.5417      156.5417      98.680841      -0.00000
  49    .09103       57.8609        0.0001      156.5417      156.5417      98.680841      -0.00000
  48    0.1069       57.8609        0.0001      156.5416      156.5417      98.680841       0.00000
  47    0.1255       57.8608        0.0001      156.5415      156.5417      98.680841       0.00000
  46    0.1487       57.8608        0.0002      156.5414      156.5416      98.680841       0.00000
  45    0.1794       57.8607        0.0003      156.5413      156.5416      98.680841       0.00000
  44    0.2165       57.8607        0.0004      156.5412      156.5415      98.680841       0.00000
  43    0.2613       57.8606        0.0005      156.5410      156.5415      98.680841       0.00000
  42    0.3336       57.8605        0.0007      156.5407      156.5414      98.680841       0.00000
  41    0.4307       57.8604        0.0009      156.5403      156.5412      98.680841       0.00000
  40    0.5894       57.8602        0.0013      156.5397      156.5410      98.680841       0.00000
  39     1.339       57.8591        0.0032      156.5367      156.5399      98.680841      -0.00000
  38     1.782       57.8584        0.0043      156.5350      156.5393      98.680841      -0.00000
  37     2.292       57.8577        0.0056      156.5330      156.5386      98.680841       0.00000
  36     2.964       57.8568        0.0073      156.5303      156.5376      98.680841       0.00000
  35     3.853       57.8555        0.0095      156.5268      156.5363      98.680841      -0.00000
  34     5.035       57.8538        0.0124      156.5222      156.5346      98.680841       0.00000
  33     6.613       57.8515        0.0164      156.5160      156.5324      98.680841      -0.00000
  32     8.786       57.8485        0.0217      156.5076      156.5293      98.680841       0.00000
  31     11.80       57.8441        0.0293      156.4957      156.5250      98.680841       0.00000
  30     15.07       57.8394        0.0375      156.4828      156.5203      98.680841       0.00000
  29     18.79       57.8341        0.0467      156.4682      156.5150      98.680841       0.00000
  28     23.16       57.8279        0.0576      156.4512      156.5088      98.680841      -0.00000
  27     28.12       57.8208        0.0699      156.4317      156.5016      98.680841       0.00000
  26     33.73       57.8128        0.0838      156.4099      156.4937      98.680841       0.00000
  25     40.54       57.8032        0.1006      156.3834      156.4841      98.680841       0.00000
  24     48.69       57.7916        0.1209      156.3515      156.4724      98.680841       0.00000
  23     57.69       57.7788        0.1432      156.3164      156.4596      98.680841      -0.00000
  22     68.43       57.7635        0.1698      156.2746      156.4444      98.680841      -0.00000
  21     81.20       57.7453        0.2015      156.2246      156.4261      98.680841       0.00000
  20     96.49       57.7235        0.2394      156.1649      156.4044      98.680841       0.00000
  19     114.6       57.6978        0.2845      156.0879      156.3725      98.674698       0.00287
  18     136.5       57.6671        0.3380      155.9962      156.3342      98.667072       0.00293
  17     162.9       57.6306        0.4019      155.8831      156.2850      98.654392       0.00405
  16     196.4       57.5831        0.4849      155.7199      156.2049      98.621795       0.00821
  15     218.7       57.5519        0.5395      155.5733      156.1128      98.560894       0.02312
  14     243.0       57.5184        0.5989      155.3367      155.9355      98.417180       0.04985
  13     269.0       57.4826        0.6630      154.9514      155.6144      98.131751       0.09259
  12     297.5       57.4454        0.7319      154.3896      155.1215      97.676113       0.13514
  11     328.5       57.4070        0.8062      153.7151      154.5213      97.114314       0.15275
  10     361.9       57.3682        0.8859      152.9087      153.7946      96.426380       0.17405
   9     398.1       57.3305        0.9709      151.8986      152.8695      95.539026       0.20673
   8     437.6       57.2964        1.0612      150.6031      151.6644      94.367946       0.25038
   7     480.5       57.2691        1.1565      149.0014      150.1579      92.888807       0.29050
   6     533.0       57.2526        1.2714      146.7375      148.0089      90.756300       0.34305
   5     589.8       57.2663        1.3912      143.8730      145.2642      87.997886       0.40944
   4     651.6       57.3464        1.5133      140.0955      141.6088      84.262372       0.51084
   3     718.7       57.5398        1.6364      135.5278      137.1641      79.624292       0.58288
   2     792.3       57.9495        1.7572      130.0690      131.8262      73.876718       0.65918
   1     891.5       59.0405        1.9017      122.1273      124.0290      64.988525       0.75634
   0    1013.0       61.7744        2.0549      112.9512      115.0061      53.231714       0.81634



 Wavenumbers: 12850. - 16000. cm-1, ATM      1
 LEVEL PRESSURE   UPWARD FLUX   DIFDOWN FLUX  DIRDOWN FLUX  DOWNWARD FLUX   NET FLUX    HEATING RATE
          mb          W/m2          W/m2          W/m2        W/m2          W/m2       degree/day
  51    .06700       64.2452        0.0000       98.0872       98.0872      33.842037       0.00000
  50    .07753       64.2452        0.0001       98.0864       98.0864      33.841249       0.63177
  49    .09103       64.2452        0.0001       98.0853       98.0854      33.840260       0.61833
  48    0.1069       64.2452        0.0002       98.0841       98.0843      33.839124       0.60457
  47    0.1255       64.2452        0.0004       98.0826       98.0830      33.837821       0.59104
  46    0.1487       64.2452        0.0005       98.0809       98.0813      33.836177       0.59909
  45    0.1794       64.2452        0.0007       98.0784       98.0791      33.833944       0.61308
  44    0.2165       64.2452        0.0009       98.0756       98.0765      33.831320       0.59680
  43    0.2613       64.2453        0.0012       98.0723       98.0735      33.828240       0.58064
  42    0.3336       64.2454        0.0016       98.0670       98.0686      33.823222       0.58503
  41    0.4307       64.2456        0.0022       98.0602       98.0624      33.816748       0.56290
  40    0.5894       64.2461        0.0031       98.0496       98.0527      33.806581       0.54066
  39     1.339       64.2509        0.0076       98.0043       98.0120      33.761088       0.51216
  38     1.782       64.2554        0.0103       97.9793       97.9895      33.734152       0.51282
  37     2.292       64.2622        0.0133       97.9498       97.9631      33.700860       0.55140
  36     2.964       64.2737        0.0173       97.9088       97.9261      33.652456       0.60762
  35     3.853       64.2923        0.0226       97.8503       97.8729      33.580667       0.68129
  34     5.035       64.3204        0.0296       97.7680       97.7976      33.477210       0.73906
  33     6.613       64.3597        0.0390       97.6562       97.6952      33.335460       0.75779
  32     8.786       64.4108        0.0516       97.5107       97.5623      33.151418       0.71475
  31     11.80       64.4772        0.0696       97.3179       97.3875      32.910247       0.67520
  30     15.07       64.5406        0.0889       97.1283       97.2173      32.676677       0.60303
  29     18.79       64.6051        0.1107       96.9300       97.0408      32.435707       0.54635
  28     23.16       64.6722        0.1362       96.7166       96.8528      32.180596       0.49330
  27     28.12       64.7393        0.1653       96.4935       96.6588      31.919427       0.44397
  26     33.73       64.8008        0.1978       96.2731       96.4709      31.670094       0.37488
  25     40.54       64.8592        0.2371       96.0408       96.2779      31.418670       0.31192
  24     48.69       64.9142        0.2845       95.7946       96.0790      31.164835       0.26268
  23     57.69       64.9597        0.3365       95.5573       95.8938      30.934099       0.21628
  22     68.43       64.9977        0.3985       95.3106       95.7091      30.711462       0.17502
  21     81.20       65.0207        0.4724       95.0643       95.5368      30.516091       0.12910
  20     96.49       65.0276        0.5606       94.8153       95.3759      30.348287       0.09262
  19     114.6       65.0369        0.6664       94.5411       95.2074      30.170477       0.08302
  18     136.5       65.0386        0.7917       94.2320       95.0237      29.985125       0.07127
  17     162.9       65.0318        0.9408       93.8753       94.8161      29.784306       0.06419
  16     196.4       65.0047        1.1342       93.4347       94.5689      29.564129       0.05542
  15     218.7       64.9803        1.2611       93.1513       94.4124      29.432134       0.05011
  14     243.0       64.9508        1.3991       92.8439       94.2430      29.292205       0.04853
  13     269.0       64.9162        1.5485       92.5111       94.0597      29.143494       0.04824
  12     297.5       64.8766        1.7100       92.1495       93.8595      28.982886       0.04763
  11     328.5       64.8335        1.8844       91.7554       93.6398      28.806273       0.04802
  10     361.9       64.7875        2.0721       91.3262       93.3983      28.610816       0.04945
   9     398.1       64.7393        2.2739       90.8575       93.1315      28.392180       0.05094
   8     437.6       64.6910        2.4906       90.3418       92.8324      28.141345       0.05363
   7     480.5       64.6444        2.7225       89.7728       92.4953      27.850833       0.05706
   6     533.0       64.5975        3.0075       89.0428       92.0503      27.452736       0.06404
   5     589.8       64.5670        3.3135       88.2038       91.5174      26.950366       0.07457
   4     651.6       64.5757        3.6403       87.1979       90.8383      26.262583       0.09406
   3     718.7       64.6386        3.9862       86.0161       90.0024      25.363787       0.11295
   2     792.3       64.8045        4.3476       84.5970       88.9446      24.140155       0.14034
   1     891.5       65.2619        4.8169       82.4374       87.2544      21.992468       0.18276
   0    1013.0       66.2785        5.3543       79.6182       84.9725      18.694025       0.22903



 Wavenumbers: 16000. - 22650. cm-1, ATM      1
 LEVEL PRESSURE   UPWARD FLUX   DIFDOWN FLUX  DIRDOWN FLUX  DOWNWARD FLUX   NET FLUX    HEATING RATE
          mb          W/m2          W/m2          W/m2        W/m2          W/m2       degree/day
  51    .06700      137.0097        0.0000      156.3892      156.3892      19.379501       0.00000
  50    .07753      137.0097        0.0004      156.3887      156.3891      19.379355       0.11672
  49    .09103      137.0097        0.0009      156.3879      156.3888      19.379143       0.13238
  48    0.1069      137.0097        0.0015      156.3871      156.3885      19.378860       0.15096
  47    0.1255      137.0097        0.0021      156.3861      156.3882      19.378480       0.17208
  46    0.1487      137.0097        0.0029      156.3847      156.3876      19.377921       0.20391
  45    0.1794      137.0098        0.0040      156.3828      156.3869      19.377046       0.24009
  44    0.2165      137.0100        0.0054      156.3805      156.3859      19.375860       0.26983
  43    0.2613      137.0103        0.0069      156.3776      156.3846      19.374251       0.30335
  42    0.3336      137.0110        0.0096      156.3726      156.3822      19.371191       0.35674
  41    0.4307      137.0121        0.0130      156.3657      156.3787      19.366579       0.40101
  40    0.5894      137.0146        0.0187      156.3537      156.3723      19.357783       0.46776
  39     1.339      137.0360        0.0454      156.2834      156.3288      19.292797       0.73163
  38     1.782      137.0560        0.0610      156.2324      156.2934      19.237437       1.05396
  37     2.292      137.0860        0.0792      156.1641      156.2433      19.157303       1.32722
  36     2.964      137.1360        0.1030      156.0605      156.1635      19.027487       1.62958
  35     3.853      137.2170        0.1344      155.9041      156.0385      18.821505       1.95481
  34     5.035      137.3393        0.1762      155.6774      155.8535      18.514203       2.19524
  33     6.613      137.5103        0.2318      155.3656      155.5974      18.087157       2.28299
  32     8.786      137.7329        0.3068      154.9577      155.2644      17.531501       2.15797
  31     11.80      138.0225        0.4138      154.4153      154.8291      16.806558       2.02961
  30     15.07      138.2997        0.5285      153.8804      154.4089      16.109237       1.80035
  29     18.79      138.5824        0.6579      153.3191      153.9770      15.394598       1.62031
  28     23.16      138.8777        0.8089      152.7126      153.5214      14.643753       1.45189
  27     28.12      139.1744        0.9812      152.0755      153.0567      13.882332       1.29436
  26     33.73      139.4476        1.1738      151.4409      152.6148      13.167186       1.07524
  25     40.54      139.7097        1.4064      150.7637      152.1701      12.460422       0.87682
  24     48.69      139.9595        1.6864      150.0338      151.7203      11.760774       0.72403
  23     57.69      140.1700        1.9936      149.3151      151.3088      11.138768       0.58304
  22     68.43      140.3518        2.3591      148.5476      150.9067      10.554916       0.45899
  21     81.20      140.4740        2.7943      147.7517      150.5459      10.071974       0.31912
  20     96.49      140.5318        3.3122      146.9127      150.2248       9.693017       0.20916
  19     114.6      140.5556        3.9253      145.9763      149.9016       9.346004       0.16203
  18     136.5      140.5534        4.6493      144.9088      149.5580       9.004663       0.13125
  17     162.9      140.5230        5.5072      143.6785      149.1858       8.662770       0.10928
  16     196.4      140.4239        6.6141      142.1651      148.7792       8.355306       0.07739
  15     218.7      140.3368        7.3373      141.2033      148.5407       8.203851       0.05750
  14     243.0      140.2322        8.1201      140.1753      148.2954       8.063198       0.04878
  13     269.0      140.1084        8.9644      139.0797      148.0441       7.935736       0.04135
  12     297.5      139.9646        9.8723      137.9141      147.7864       7.821845       0.03378
  11     328.5      139.8047       10.8481      136.6676      147.5157       7.711046       0.03013
  10     361.9      139.6284       11.8926      135.3392      147.2318       7.603482       0.02721
   9     398.1      139.4350       13.0098      133.9235      146.9333       7.498289       0.02451
   8     437.6      139.2255       14.2017      132.4163      146.6179       7.392390       0.02264
   7     480.5      138.9994       15.4702      130.8147      146.2849       7.285518       0.02099
   6     533.0      138.7209       17.0193      128.8599      145.8792       7.158286       0.02047
   5     589.8      138.4243       18.6740      126.7679      145.4420       7.017643       0.02088
   4     651.6      138.1155       20.4360      124.5274      144.9635       6.847961       0.02320
   3     718.7      137.8000       22.3068      122.1285      144.4353       6.635236       0.02673
   2     792.3      137.4938       24.2842      119.5548      143.8390       6.345229       0.03326
   1     891.5      137.1568       26.9080      116.0566      142.9646       5.807791       0.04573
   0    1013.0      136.8772       29.9896      111.8404      141.8300       4.952798       0.05937



 Wavenumbers: 22650. - 29000. cm-1, ATM      1
 LEVEL PRESSURE   UPWARD FLUX   DIFDOWN FLUX  DIRDOWN FLUX  DOWNWARD FLUX   NET FLUX    HEATING RATE
          mb          W/m2          W/m2          W/m2        W/m2          W/m2       degree/day
  51    .06700       57.0738        0.0000       59.0156       59.0156       1.941813       0.00000
  50    .07753       57.0737        0.0005       59.0151       59.0155       1.941813       0.00000
  49    .09103       57.0736        0.0010       59.0144       59.0154       1.941813      -0.00000
  48    0.1069       57.0734        0.0017       59.0136       59.0153       1.941813       0.00000
  47    0.1255       57.0733        0.0025       59.0127       59.0151       1.941813      -0.00000
  46    0.1487       57.0731        0.0034       59.0115       59.0149       1.941813       0.00000
  45    0.1794       57.0728        0.0047       59.0099       59.0146       1.941813       0.00000
  44    0.2165       57.0725        0.0063       59.0080       59.0143       1.941813       0.00000
  43    0.2613       57.0721        0.0081       59.0058       59.0139       1.941813       0.00000
  42    0.3336       57.0715        0.0112       59.0022       59.0133       1.941813       0.00000
  41    0.4307       57.0707        0.0152       58.9973       59.0125       1.941813      -0.00000
  40    0.5894       57.0693        0.0218       58.9894       59.0111       1.941813      -0.00000
  39     1.339       57.0629        0.0529       58.9518       59.0047       1.941813       0.00000
  38     1.782       57.0591        0.0712       58.9297       59.0009       1.941813      -0.00000
  37     2.292       57.0548        0.0924       58.9042       58.9966       1.941813       0.00000
  36     2.964       57.0490        0.1202       58.8706       58.9909       1.941813      -0.00000
  35     3.853       57.0415        0.1569       58.8264       58.9833       1.941813       0.00000
  34     5.035       57.0315        0.2057       58.7676       58.9733       1.941813      -0.00000
  33     6.613       57.0181        0.2708       58.6891       58.9599       1.941813       0.00000
  32     8.786       57.0000        0.3584       58.5834       58.9418       1.941813      -0.00000
  31     11.80       56.9742        0.4836       58.4324       58.9160       1.941813       0.00000
  30     15.07       56.9466        0.6177       58.2706       58.8884       1.941813      -0.00000
  29     18.79       56.9154        0.7690       58.0882       58.8572       1.941813       0.00000
  28     23.16       56.8791        0.9452       57.8757       58.8209       1.941813      -0.00000
  27     28.12       56.8377        1.1461       57.6333       58.7795       1.941813       0.00000
  26     33.73       56.7914        1.3702       57.3631       58.7332       1.941813      -0.00000
  25     40.54       56.7358        1.6397       57.0379       58.6776       1.941813       0.00000
  24     48.69       56.6691        1.9630       56.6479       58.6109       1.941813       0.00000
  23     57.69       56.5961        2.3159       56.2221       58.5379       1.941813      -0.00000
  22     68.43       56.5099        2.7331       55.7186       58.4517       1.941813       0.00000
  21     81.20       56.4079        3.2258       55.1239       58.3497       1.941813       0.00000
  20     96.49       56.2875        3.8066       54.4228       58.2294       1.941813      -0.00000
  19     114.6       56.1463        4.4872       53.6010       58.0882       1.941813       0.00000
  18     136.5       55.9813        5.2814       52.6418       57.9231       1.941813       0.00000
  17     162.9       55.7881        6.2095       51.5203       57.7299       1.941813       0.00000
  16     196.4       55.5427        7.3851       50.0994       57.4845       1.941813       0.00000
  15     218.7       55.3847        8.1403       49.1863       57.3266       1.941813      -0.00000
  14     243.0       55.2158        8.9463       48.2113       57.1576       1.941813       0.00000
  13     269.0       55.0359        9.8027       47.1749       56.9777       1.941813       0.00000
  12     297.5       54.8451       10.7086       46.0783       56.7869       1.941813      -0.00000
  11     328.5       54.6431       11.6653       44.9195       56.5849       1.941813       0.00000
  10     361.9       54.4302       12.6702       43.7018       56.3721       1.941813      -0.00000
   9     398.1       54.2065       13.7232       42.4250       56.1483       1.941813       0.00000
   8     437.6       53.9720       14.8222       41.0916       55.9139       1.941813      -0.00000
   7     480.5       53.7274       15.9647       39.7045       55.6692       1.941813      -0.00000
   6     533.0       53.4351       17.3226       38.0543       55.3769       1.941813       0.00000
   5     589.8       53.1305       18.7293       36.3431       55.0724       1.941813       0.00000
   4     651.6       52.8149       20.1772       34.5795       54.7568       1.941813       0.00000
   3     718.7       52.4891       21.6607       32.7702       54.4309       1.941813      -0.00000
   2     792.3       52.1545       23.1708       30.9256       54.0964       1.941813       0.00000
   1     891.5       51.7248       25.0888       28.5778       53.6666       1.941813       0.00000
   0    1013.0       51.2407       27.2160       25.9665       53.1825       1.941813       0.00000



 Wavenumbers: 29000. - 38000. cm-1, ATM      1
 LEVEL PRESSURE   UPWARD FLUX   DIFDOWN FLUX  DIRDOWN FLUX  DOWNWARD FLUX   NET FLUX    HEATING RATE
          mb          W/m2          W/m2          W/m2        W/m2          W/m2       degree/day
  51    .06700        8.5548        0.0000       20.8114       20.8114      12.256541       0.00000
  50    .07753        8.5546        0.0003       20.8070       20.8074      12.252735       3.05133
  49    .09103        8.5544        0.0007       20.8009       20.8016      12.247198       3.46059
  48    0.1069        8.5541        0.0012       20.7928       20.7939      12.239789       3.94399
  47    0.1255        8.5539        0.0017       20.7820       20.7837      12.229885       4.48999
  46    0.1487        8.5535        0.0024       20.7665       20.7688      12.215322       5.30802
  45    0.1794        8.5530        0.0033       20.7424       20.7457      12.192659       6.22154
  44    0.2165        8.5525        0.0043       20.7103       20.7147      12.162139       6.94283
  43    0.2613        8.5519        0.0056       20.6675       20.6731      12.121148       7.72667
  42    0.3336        8.5510        0.0077       20.5880       20.5956      12.044594       8.92547
  41    0.4307        8.5499        0.0103       20.4722       20.4826      11.932651       9.73313
  40    0.5894        8.5483        0.0146       20.2637       20.2783      11.729988      10.77739
  39     1.339        8.5447        0.0330       19.0984       19.1313      10.586663      12.87176
  38     1.782        8.5450        0.0425       18.4394       18.4819       9.936868      12.37105
  37     2.292        8.5474        0.0527       17.7714       17.8241       9.276707      10.93400
  36     2.964        8.5536        0.0653       17.0421       17.1075       8.553874       9.07373
  35     3.853        8.5658        0.0811       16.2678       16.3490       7.783152       7.31430
  34     5.035        8.5862        0.1012       15.4803       15.5815       6.995332       5.62786
  33     6.613        8.6158        0.1268       14.7157       14.8425       6.226682       4.10920
  32     8.786        8.6549        0.1603       13.9936       14.1539       5.498950       2.82625
  31     11.80        8.7059        0.2070       13.2835       13.4905       4.784589       1.99999
  30     15.07        8.7551        0.2554       12.7394       12.9947       4.239681       1.40685
  29     18.79        8.8058        0.3090       12.2666       12.5756       3.769870       1.06520
  28     23.16        8.8596        0.3700       11.8300       12.2000       3.340493       0.83028
  27     28.12        8.9145        0.4383       11.4279       11.8662       2.951639       0.66103
  26     33.73        8.9651        0.5136       11.0695       11.5830       2.617915       0.50176
  25     40.54        9.0128        0.6034       10.7209       11.3243       2.311567       0.38006
  24     48.69        9.0574        0.7101       10.3742       11.0842       2.026877       0.29461
  23     57.69        9.0935        0.8254       10.0549       10.8803       1.786836       0.22500
  22     68.43        9.1220        0.9607        9.7327       10.6935       1.571472       0.16931
  21     81.20        9.1340        1.1205        9.4134       10.5339       1.399840       0.11341
  20     96.49        9.1276        1.3082        9.0887       10.3969       1.269263       0.07207
  19     114.6        9.1106        1.5250        8.7388       10.2637       1.153098       0.05424
  18     136.5        9.0859        1.7727        8.3549       10.1276       1.041706       0.04283
  17     162.9        9.0533        2.0549        7.9311        9.9861       0.932718       0.03484
  16     196.4        9.0007        2.4042        7.4333        9.8375       0.836868       0.02413
  15     218.7        8.9632        2.6238        7.1295        9.7534       0.790154       0.01774
  14     243.0        8.9222        2.8532        6.8161        9.6693       0.747045       0.01495
  13     269.0        8.8775        3.0915        6.4943        9.5859       0.708361       0.01255
  12     297.5        8.8292        3.3377        6.1657        9.5035       0.674283       0.01011
  11     328.5        8.7786        3.5908        5.8295        9.4202       0.641679       0.00886
  10     361.9        8.7261        3.8482        5.4886        9.3368       0.610696       0.00784
   9     398.1        8.6719        4.1093        5.1440        9.2533       0.581359       0.00683
   8     437.6        8.6165        4.3726        4.7969        9.1696       0.553104       0.00604
   7     480.5        8.5601        4.6361        4.4504        9.0864       0.526310       0.00526
   6     533.0        8.4949        4.9358        4.0563        8.9921       0.497134       0.00469
   5     589.8        8.4299        5.2306        3.6682        8.8988       0.468923       0.00419
   4     651.6        8.3659        5.5167        3.2905        8.8073       0.441361       0.00377
   3     718.7        8.3033        5.7926        2.9252        8.7178       0.414408       0.00339
   2     792.3        8.2430        6.0546        2.5764        8.6311       0.388069       0.00302
   1     891.5        8.1713        6.3610        2.1659        8.5269       0.355616       0.00276
   0    1013.0        8.0986        6.6659        1.7526        8.4185       0.319873       0.00248



 Wavenumbers: 38000. - 50000. cm-1, ATM      1
 LEVEL PRESSURE   UPWARD FLUX   DIFDOWN FLUX  DIRDOWN FLUX  DOWNWARD FLUX   NET FLUX    HEATING RATE
          mb          W/m2          W/m2          W/m2        W/m2          W/m2       degree/day
  51    .06700        0.0061        0.0000        1.2836        1.2836       1.277518       0.00000
  50    .07753        0.0061        0.0001        1.2812        1.2812       1.275183       1.87150
  49    .09103        0.0060        0.0002        1.2777        1.2778       1.271851       2.08247
  48    0.1069        0.0059        0.0002        1.2731        1.2734       1.267473       2.33059
  47    0.1255        0.0058        0.0004        1.2672        1.2675       1.261717       2.60908
  46    0.1487        0.0057        0.0005        1.2586        1.2591       1.253391       3.03499
  45    0.1794        0.0055        0.0007        1.2455        1.2462       1.240623       3.50520
  44    0.2165        0.0054        0.0009        1.2282        1.2291       1.223697       3.85037
  43    0.2613        0.0052        0.0011        1.2054        1.2065       1.201348       4.21261
  42    0.3336        0.0049        0.0015        1.1639        1.1654       1.160524       4.75970
  41    0.4307        0.0045        0.0020        1.1051        1.1070       1.102565       5.03943
  40    0.5894        0.0039        0.0026        1.0039        1.0064       1.002524       5.32007
  39     1.339        0.0022        0.0035        0.5438        0.5473       0.545104       5.14971
  38     1.782        0.0016        0.0032        0.3635        0.3666       0.365006       3.42879
  37     2.292        0.0012        0.0027        0.2356        0.2383       0.237058       2.11916
  36     2.964        0.0009        0.0022        0.1455        0.1477       0.146786       1.13318
  35     3.853        0.0006        0.0017        0.0858        0.0875       0.086906       0.56828
  34     5.035        0.0004        0.0013        0.0488        0.0501       0.049701       0.26578
  33     6.613        0.0003        0.0010        0.0273        0.0282       0.027974       0.11615
  32     8.786        0.0002        0.0007        0.0144        0.0151       0.014928       0.05067
  31     11.80        0.0001        0.0004        0.0065        0.0070       0.006903       0.02247
  30     15.07        0.0000        0.0003        0.0031        0.0034       0.003329       0.00923
  29     18.79        0.0000        0.0002        0.0014        0.0016       0.001583       0.00396
  28     23.16        0.0000        0.0001        0.0006        0.0007       0.000720       0.00167
  27     28.12        0.0000        0.0001        0.0003        0.0003       0.000317       0.00069
  26     33.73        0.0000        0.0000        0.0001        0.0001       0.000140       0.00027
  25     40.54        0.0000        0.0000        0.0000        0.0001       0.000057       0.00010
  24     48.69        0.0000        0.0000        0.0000        0.0000       0.000021       0.00004
  23     57.69        0.0000        0.0000        0.0000        0.0000       0.000008       0.00001
  22     68.43        0.0000        0.0000        0.0000        0.0000       0.000003       0.00000
  21     81.20        0.0000        0.0000        0.0000        0.0000       0.000001       0.00000
  20     96.49        0.0000        0.0000        0.0000        0.0000       0.000000       0.00000
  19     114.6        0.0000        0.0000        0.0000        0.0000       0.000000       0.00000
  18     136.5        0.0000        0.0000        0.0000        0.0000       0.000000       0.00000
  17     162.9        0.0000        0.0000        0.0000        0.0000       0.000000       0.00000
  16     196.4        0.0000        0.0000        0.0000        0.0000       0.000000       0.00000
  15     218.7        0.0000        0.0000        0.0000        0.0000       0.000000       0.00000
  14     243.0        0.0000        0.0000        0.0000        0.0000       0.000000       0.00000
  13     269.0        0.0000        0.0000        0.0000        0.0000       0.000000       0.00000
  12     297.5        0.0000        0.0000        0.0000        0.0000       0.000000       0.00000
  11     328.5        0.0000        0.0000        0.0000        0.0000       0.000000       0.00000
  10     361.9        0.0000        0.0000        0.0000        0.0000       0.000000       0.00000
   9     398.1        0.0000        0.0000        0.0000        0.0000       0.000000       0.00000
   8     437.6        0.0000        0.0000        0.0000        0.0000       0.000000       0.00000
   7     480.5        0.0000        0.0000        0.0000        0.0000       0.000000       0.00000
   6     533.0        0.0000        0.0000        0.0000        0.0000       0.000000       0.00000
   5     589.8        0.0000        0.0000        0.0000        0.0000       0.000000       0.00000
   4     651.6        0.0000        0.0000        0.0000        0.0000       0.000000       0.00000
   3     718.7        0.0000        0.0000        0.0000        0.0000       0.000000       0.00000
   2     792.3        0.0000        0.0000        0.0000        0.0000       0.000000       0.00000
   1     891.5        0.0000        0.0000        0.0000        0.0000       0.000000       0.00000
   0    1013.0        0.0000        0.0000        0.0000        0.0000       0.000000       0.00000



 Wavenumbers:   820. -  2600. cm-1, ATM      1
 LEVEL PRESSURE   UPWARD FLUX   DIFDOWN FLUX  DIRDOWN FLUX  DOWNWARD FLUX   NET FLUX    HEATING RATE
          mb          W/m2          W/m2          W/m2        W/m2          W/m2       degree/day
  51    .06700        0.5728        0.0000        6.0047        6.0047       5.431821       0.00000
  50    .07753        0.5728        0.0000        6.0008        6.0008       5.427968       3.08820
  49    .09103        0.5728        0.0000        5.9999        5.9999       5.427082       0.55357
  48    0.1069        0.5728        0.0000        5.9989        5.9989       5.426093       0.52651
  47    0.1255        0.5728        0.0000        5.9978        5.9978       5.424976       0.50649
  46    0.1487        0.5728        0.0000        5.9964        5.9964       5.423619       0.49456
  45    0.1794        0.5728        0.0000        5.9947        5.9947       5.421900       0.47198
  44    0.2165        0.5728        0.0000        5.9929        5.9929       5.420058       0.41909
  43    0.2613        0.5728        0.0000        5.9909        5.9909       5.418098       0.36932
  42    0.3336        0.5728        0.0000        5.9880        5.9880       5.415220       0.33555
  41    0.4307        0.5728        0.0000        5.9846        5.9846       5.411751       0.30163
  40    0.5894        0.5728        0.0000        5.9791        5.9791       5.406246       0.29275
  39     1.339        0.5728        0.0000        5.9536        5.9536       5.380760       0.28693
  38     1.782        0.5728        0.0000        5.9395        5.9395       5.366623       0.26916
  37     2.292        0.5728        0.0000        5.9237        5.9237       5.350872       0.26087
  36     2.964        0.5728        0.0000        5.9039        5.9039       5.331099       0.24821
  35     3.853        0.5728        0.0000        5.8793        5.8793       5.306444       0.23398
  34     5.035        0.5728        0.0000        5.8487        5.8487       5.275883       0.21832
  33     6.613        0.5728        0.0000        5.8108        5.8108       5.237920       0.20295
  32     8.786        0.5728        0.0000        5.7631        5.7631       5.190299       0.18494
  31     11.80        0.5728        0.0000        5.7039        5.7039       5.131045       0.16589
  30     15.07        0.5729        0.0000        5.6539        5.6539       5.081009       0.12918
  29     18.79        0.5729        0.0000        5.6127        5.6127       5.039875       0.09326
  28     23.16        0.5729        0.0000        5.5794        5.5794       5.006500       0.06454
  27     28.12        0.5729        0.0000        5.5518        5.5518       4.978935       0.04686
  26     33.73        0.5729        0.0000        5.5268        5.5268       4.953881       0.03767
  25     40.54        0.5729        0.0000        5.4993        5.4993       4.926435       0.03405
  24     48.69        0.5729        0.0000        5.4678        5.4678       4.894888       0.03265
  23     57.69        0.5729        0.0000        5.4340        5.4340       4.861093       0.03168
  22     68.43        0.5729        0.0000        5.3947        5.3948       4.821809       0.03088
  21     81.20        0.5730        0.0000        5.3497        5.3497       4.776762       0.02977
  20     96.49        0.5730        0.0000        5.2982        5.2982       4.725231       0.02844
  19     114.6        0.5730        0.0000        5.2389        5.2389       4.665886       0.02771
  18     136.5        0.5731        0.0000        5.1716        5.1717       4.598600       0.02587
  17     162.9        0.5731        0.0000        5.0890        5.0890       4.515925       0.02643
  16     196.4        0.5732        0.0000        4.9668        4.9668       4.393611       0.03079
  15     218.7        0.5733        0.0000        4.8585        4.8585       4.285150       0.04118
  14     243.0        0.5735        0.0000        4.7078        4.7079       4.134371       0.05230
  13     269.0        0.5737        0.0000        4.5343        4.5343       3.960539       0.05639
  12     297.5        0.5742        0.0000        4.3419        4.3420       3.767808       0.05716
  11     328.5        0.5747        0.0000        4.1281        4.1281       3.553420       0.05829
  10     361.9        0.5755        0.0000        3.8786        3.8787       3.303186       0.06331
   9     398.1        0.5765        0.0000        3.6159        3.6159       3.039446       0.06145
   8     437.6        0.5778        0.0000        3.3759        3.3759       2.798053       0.05161
   7     480.5        0.5795        0.0000        3.1957        3.1958       2.616291       0.03570
   6     533.0        0.5821        0.0000        3.0467        3.0467       2.464631       0.02440
   5     589.8        0.5860        0.0000        2.9023        2.9023       2.316358       0.02201
   4     651.6        0.5930        0.0000        2.7183        2.7184       2.125369       0.02612
   3     718.7        0.6052        0.0000        2.5058        2.5059       1.900649       0.02824
   2     792.3        0.6277        0.0000        2.2756        2.2757       1.647987       0.02898
   1     891.5        0.6849        0.0000        1.9621        1.9622       1.277245       0.03155
   0    1013.0        0.8290        0.0000        1.5468        1.5469       0.717903       0.03884

  Modules and versions used in this calculation:

       rrtmg_sw.1col.f90:  $Revision$                    rrtmg_sw_init.f90:  $Revision$        
     rrtmgsw_cldprop.f90:  $Revision$                  rrtmgsw_cldprmc.f90:  NOT USED          
     rrtmg_sw_reftra.f90:  $Revision$                  rrtmg_sw_spcvrt.f90:  NOT USED          
     rrtmg_sw_spcvmc.f90:  NOT USED                    rrtmgsw_setcoef.f90:  NOT USED          
     rrtmg_sw_taumol.f90:  $Revision$                  rrtmg_sw_vrtqdr.f90:  NOT USED          
                rrtatm.f:  NOT USED                             util_xxx.f:  NOT USED          
                 extra.f:  NOT USED                       rrtmg_sw_k_g.f90:  $Revision$        

