

 Wavenumbers:   820. - 50000. cm-1, ATM      1
 LEVEL PRESSURE   UPWARD FLUX   DIFDOWN FLUX  DIRDOWN FLUX  DOWNWARD FLUX   NET FLUX    HEATING RATE
          mb          W/m2          W/m2          W/m2        W/m2          W/m2       degree/day
  51    .06700      452.8836        0.0000      617.8126      617.8126     164.928952       0.00000
  50    .07753      452.8833        0.0014      617.7947      617.7961     164.912809      12.93896
  49    .09103      452.8828        0.0030      617.7778      617.7808     164.897995       9.25900
  48    0.1069      452.8823        0.0050      617.7581      617.7631     164.880729       9.19099
  47    0.1255      452.8818        0.0072      617.7340      617.7412     164.859378       9.67943
  46    0.1487      452.8813        0.0101      617.7009      617.7109     164.829684      10.82380
  45    0.1794      452.8806        0.0139      617.6521      617.6660     164.785441      12.14584
  44    0.2165      452.8798        0.0185      617.5895      617.6079     164.728103      13.04322
  43    0.2613      452.8792        0.0238      617.5089      617.5327     164.653570      14.04923
  42    0.3336      452.8783        0.0327      617.3641      617.3968     164.518447      15.75397
  41    0.4307      452.8777        0.0443      617.1591      617.2034     164.325769      16.75293
  40    0.5894      452.8776        0.0631      616.8005      616.8636     163.985978      18.06969
  39     1.339      452.8956        0.1481      614.9443      615.0923     162.196693      20.14410
  38     1.782      452.9190        0.1959      613.9670      614.1629     161.243900      18.13964
  37     2.292      452.9576        0.2503      613.0059      613.2562     160.298552      15.65742
  36     5.035      453.0714        0.3431      611.5124      611.8555     158.784075       4.65965
  35     6.613      453.3169        0.5068      609.6144      610.1212     156.804302      10.58387
  34     8.786      453.6373        0.7265      607.8253      608.5518     154.914485       7.33937
  33     11.80      454.0526        1.0388      605.8783      606.9172     152.864550       5.73917
  32     15.07      454.4481        1.3717      604.1777      605.5495     151.101357       4.55222
  31     18.79      454.8498        1.7460      602.5196      604.2656     149.415775       3.82173
  30     23.16      455.2670        2.1807      600.8127      602.9933     147.726329       3.26684
  29     28.12      455.6831        2.6752      599.0712      601.7464     146.063252       2.82712
  28     33.73      456.0595        3.2264      597.3500      600.5764     144.516878       2.32501
  27     40.54      456.4103        3.8898      595.5035      599.3933     142.982989       1.90296
  26     48.69      456.7323        4.6856      593.4958      598.1814     141.449054       1.58738
  25     57.69      456.9884        5.5555      591.4872      597.0427     140.054323       1.30735
  24     68.43      457.1872        6.5858      589.2939      595.8797     138.692517       1.07056
  23     81.20      457.2766        7.8073      586.9289      594.7362     137.459636       0.81467
  22     96.49      457.2463        9.2533      584.3423      593.5957     136.349385       0.61278
  21     114.6      457.1551       10.9545      581.4033      592.3577     135.202616       0.53546
  20     136.5      457.0025       12.9462      578.0541      591.0003     133.997782       0.46329
  19     162.9      456.7832       15.2835      574.1654      589.4489     132.665724       0.42578
  18     196.4      456.4115       18.2640      569.1760      587.4400     131.028452       0.41212
  17     218.7      456.1396       20.1910      565.6314      585.8224     129.682759       0.51091
  16     243.0      455.8370       22.2577      561.3129      583.5707     127.733713       0.67599
  15     269.0      455.5054       24.4657      555.9478      580.4135     124.908153       0.91660
  14     297.5      455.1512       26.8155      549.5394      576.3549     121.203733       1.09869
  13     328.5      454.7849       29.3136      542.6225      571.9361     117.151210       1.10187
  12     361.9      454.4152       31.9562      535.1469      567.1031     112.687928       1.12925
  11     398.1      454.0543       34.7479      526.9326      561.6805     107.626180       1.17927
  10     437.6      453.7262       37.6872      517.8921      555.5793     101.853118       1.23432
   9     480.5      453.4567       40.7723      508.2121      548.9843      95.527674       1.24229
   8     533.0      453.2787       44.4811      496.3783      540.8594      87.580726       1.27841
   7     589.8      453.3677       48.3726      483.5433      531.9159      78.548186       1.34073
   6     651.6      454.0475       52.4338      469.1414      521.5753      67.527732       1.50708
   5     718.7      455.7747       56.6565      453.6623      510.3188      54.544172       1.63167
   4     792.3      459.7569       61.0184      436.9145      497.9329      38.176071       1.87724
   3     825.4      330.4367      353.3289        0.5597      353.8885      23.451778       3.75829
   2     858.4      287.3983      304.9555        0.0007      304.9562      17.557970       1.50450
   1     891.5      180.2382      195.3121        0.0000      195.3121      15.073842       0.63431
   0    1013.0      180.8790      194.2635        0.0000      194.2635      13.384504       0.11730



 Wavenumbers:  2600. -  3250. cm-1, ATM      1
 LEVEL PRESSURE   UPWARD FLUX   DIFDOWN FLUX  DIRDOWN FLUX  DOWNWARD FLUX   NET FLUX    HEATING RATE
          mb          W/m2          W/m2          W/m2        W/m2          W/m2       degree/day
  51    .06700        1.9952        0.0000        5.4450        5.4450       3.449815       0.00000
  50    .07753        1.9952        0.0000        5.4450        5.4450       3.449807       0.00640
  49    .09103        1.9952        0.0000        5.4450        5.4450       3.449797       0.00627
  48    0.1069        1.9952        0.0000        5.4450        5.4450       3.449786       0.00613
  47    0.1255        1.9952        0.0000        5.4450        5.4450       3.449773       0.00599
  46    0.1487        1.9952        0.0000        5.4450        5.4450       3.449756       0.00608
  45    0.1794        1.9952        0.0000        5.4450        5.4450       3.449733       0.00625
  44    0.2165        1.9952        0.0000        5.4449        5.4449       3.449706       0.00612
  43    0.2613        1.9952        0.0000        5.4449        5.4449       3.449674       0.00600
  42    0.3336        1.9952        0.0000        5.4448        5.4448       3.449621       0.00617
  41    0.4307        1.9952        0.0000        5.4448        5.4448       3.449550       0.00620
  40    0.5894        1.9952        0.0000        5.4446        5.4446       3.449430       0.00637
  39     1.339        1.9952        0.0000        5.4439        5.4439       3.448723       0.00797
  38     1.782        1.9952        0.0000        5.4434        5.4434       3.448180       0.01034
  37     2.292        1.9952        0.0000        5.4427        5.4427       3.447464       0.01186
  36     5.035        1.9952        0.0000        5.4412        5.4412       3.445937       0.00470
  35     6.613        1.9952        0.0000        5.4381        5.4381       3.442860       0.01645
  34     8.786        1.9952        0.0000        5.4341        5.4341       3.438852       0.01556
  33     11.80        1.9952        0.0000        5.4288        5.4288       3.433606       0.01469
  32     15.07        1.9952        0.0000        5.4239        5.4239       3.428678       0.01272
  31     18.79        1.9952        0.0000        5.4191        5.4192       3.423932       0.01076
  30     23.16        1.9952        0.0000        5.4144        5.4144       3.419181       0.00919
  29     28.12        1.9952        0.0000        5.4096        5.4096       3.414344       0.00822
  28     33.73        1.9953        0.0000        5.4042        5.4042       3.408975       0.00807
  27     40.54        1.9953        0.0000        5.3972        5.3972       3.401942       0.00872
  26     48.69        1.9953        0.0000        5.3877        5.3877       3.392396       0.00988
  25     57.69        1.9953        0.0000        5.3759        5.3759       3.380548       0.01111
  24     68.43        1.9954        0.0000        5.3604        5.3604       3.364979       0.01224
  23     81.20        1.9955        0.0000        5.3405        5.3405       3.345035       0.01318
  22     96.49        1.9956        0.0000        5.3159        5.3159       3.320318       0.01364
  21     114.6        1.9958        0.0001        5.2857        5.2857       3.289920       0.01419
  20     136.5        1.9960        0.0001        5.2507        5.2508       3.254742       0.01353
  19     162.9        1.9964        0.0001        5.2113        5.2114       3.215024       0.01270
  18     196.4        1.9970        0.0001        5.1642        5.1643       3.167338       0.01200
  17     218.7        1.9976        0.0001        5.1333        5.1334       3.135801       0.01197
  16     243.0        1.9985        0.0001        5.0963        5.0964       3.097905       0.01314
  15     269.0        2.0001        0.0001        5.0512        5.0513       3.051249       0.01514
  14     297.5        2.0023        0.0001        4.9957        4.9958       2.993454       0.01714
  13     328.5        2.0056        0.0001        4.9304        4.9306       2.925009       0.01861
  12     361.9        2.0100        0.0002        4.8511        4.8513       2.841327       0.02117
  11     398.1        2.0161        0.0002        4.7507        4.7509       2.734820       0.02481
  10     437.6        2.0245        0.0002        4.6221        4.6222       2.597701       0.02932
   9     480.5        2.0363        0.0002        4.4625        4.4627       2.426376       0.03365
   8     533.0        2.0555        0.0002        4.2461        4.2463       2.190716       0.03791
   7     589.8        2.0850        0.0002        3.9954        3.9956       1.910650       0.04157
   6     651.6        2.1338        0.0002        3.7089        3.7091       1.575297       0.04586
   5     718.7        2.2150        0.0002        3.4018        3.4020       1.187071       0.04879
   4     792.3        2.3639        0.0002        3.0564        3.0567       0.692734       0.05669
   3     825.4        1.0781        1.3444        0.0035        1.3479       0.269808       0.10795
   2     858.4        0.7168        0.8407        0.0000        0.8407       0.123940       0.03724
   1     891.5        0.1227        0.1957        0.0000        0.1957       0.072983       0.01301
   0    1013.0        0.1320        0.1808        0.0000        0.1808       0.048828       0.00168



 Wavenumbers:  3250. -  4000. cm-1, ATM      1
 LEVEL PRESSURE   UPWARD FLUX   DIFDOWN FLUX  DIRDOWN FLUX  DOWNWARD FLUX   NET FLUX    HEATING RATE
          mb          W/m2          W/m2          W/m2        W/m2          W/m2       degree/day
  51    .06700        0.0576        0.0000        9.1795        9.1795       9.121922       0.00000
  50    .07753        0.0576        0.0000        9.1747        9.1747       9.117079       3.88162
  49    .09103        0.0576        0.0000        9.1713        9.1713       9.113691       2.11758
  48    0.1069        0.0576        0.0000        9.1688        9.1688       9.111166       1.34411
  47    0.1255        0.0576        0.0000        9.1665        9.1665       9.108906       1.02430
  46    0.1487        0.0576        0.0000        9.1641        9.1641       9.106465       0.88998
  45    0.1794        0.0576        0.0000        9.1612        9.1612       9.103587       0.79014
  44    0.2165        0.0576        0.0000        9.1583        9.1583       9.100666       0.66436
  43    0.2613        0.0576        0.0000        9.1553        9.1553       9.097693       0.56046
  42    0.3336        0.0576        0.0000        9.1511        9.1511       9.093514       0.48727
  41    0.4307        0.0576        0.0000        9.1464        9.1464       9.088745       0.41463
  40    0.5894        0.0576        0.0000        9.1393        9.1393       9.081739       0.37258
  39     1.339        0.0576        0.0000        9.1127        9.1127       9.055123       0.29965
  38     1.782        0.0576        0.0000        9.1011        9.1011       9.043534       0.22064
  37     2.292        0.0576        0.0000        9.0901        9.0901       9.032466       0.18331
  36     5.035        0.0576        0.0000        9.0731        9.0731       9.015534       0.05210
  35     6.613        0.0576        0.0000        9.0438        9.0439       8.986253       0.15653
  34     8.786        0.0576        0.0000        9.0058        9.0058       8.948168       0.14791
  33     11.80        0.0576        0.0000        8.9509        8.9509       8.893297       0.15362
  32     15.07        0.0576        0.0000        8.8914        8.8914       8.833818       0.15356
  31     18.79        0.0576        0.0000        8.8241        8.8242       8.766583       0.15244
  30     23.16        0.0576        0.0000        8.7473        8.7474       8.689771       0.14853
  29     28.12        0.0576        0.0000        8.6639        8.6640       8.606389       0.14174
  28     33.73        0.0576        0.0000        8.5784        8.5784       8.520878       0.12857
  27     40.54        0.0576        0.0001        8.4859        8.4860       8.428405       0.11472
  26     48.69        0.0575        0.0001        8.3873        8.3873       8.329781       0.10206
  25     57.69        0.0575        0.0001        8.2887        8.2888       8.231231       0.09238
  24     68.43        0.0575        0.0001        8.1771        8.1772       8.119714       0.08767
  23     81.20        0.0575        0.0001        8.0474        8.0475       7.989994       0.08572
  22     96.49        0.0575        0.0001        7.8963        7.8965       7.838981       0.08335
  21     114.6        0.0575        0.0001        7.7173        7.7174       7.659971       0.08359
  20     136.5        0.0574        0.0002        7.5201        7.5203       7.462855       0.07580
  19     162.9        0.0574        0.0002        7.2919        7.2921       7.234724       0.07292
  18     196.4        0.0574        0.0002        6.9664        6.9666       6.909211       0.08194
  17     218.7        0.0574        0.0002        6.6650        6.6652       6.607854       0.11441
  16     243.0        0.0574        0.0002        6.2620        6.2622       6.204870       0.13977
  15     269.0        0.0574        0.0003        5.7575        5.7578       5.700364       0.16366
  14     297.5        0.0575        0.0003        5.1717        5.1720       5.114442       0.17378
  13     328.5        0.0577        0.0002        4.5755        4.5757       4.517992       0.16217
  12     361.9        0.0581        0.0002        3.9992        3.9995       3.941397       0.14588
  11     398.1        0.0586        0.0002        3.4651        3.4653       3.406705       0.12457
  10     437.6        0.0596        0.0002        2.9736        2.9739       2.914248       0.10529
   9     480.5        0.0612        0.0002        2.5303        2.5305       2.469276       0.08739
   8     533.0        0.0643        0.0002        2.0610        2.0612       1.996920       0.07599
   7     589.8        0.0699        0.0002        1.6146        1.6148       1.544912       0.06709
   6     651.6        0.0816        0.0001        1.1562        1.1563       1.074688       0.06430
   5     718.7        0.1075        0.0001        0.7388        0.7389       0.631374       0.05571
   4     792.3        0.1767        0.0001        0.3984        0.3984       0.221684       0.04699
   3     825.4        0.0104        0.0269        0.0002        0.0271       0.016684       0.05233
   2     858.4        0.0013        0.0024        0.0000        0.0024       0.001047       0.00399
   1     891.5        0.0000        0.0000        0.0000        0.0000       0.000026       0.00026
   0    1013.0        0.0000        0.0000        0.0000        0.0000       0.000001       0.00000



 Wavenumbers:  4000. -  4650. cm-1, ATM      1
 LEVEL PRESSURE   UPWARD FLUX   DIFDOWN FLUX  DIRDOWN FLUX  DOWNWARD FLUX   NET FLUX    HEATING RATE
          mb          W/m2          W/m2          W/m2        W/m2          W/m2       degree/day
  51    .06700        6.7145        0.0000       10.7795       10.7795       4.065004       0.00000
  50    .07753        6.7145        0.0000       10.7795       10.7795       4.065003       0.00080
  49    .09103        6.7145        0.0000       10.7795       10.7795       4.065002       0.00078
  48    0.1069        6.7145        0.0000       10.7795       10.7795       4.065001       0.00077
  47    0.1255        6.7145        0.0000       10.7795       10.7795       4.064999       0.00075
  46    0.1487        6.7145        0.0000       10.7795       10.7795       4.064997       0.00076
  45    0.1794        6.7145        0.0000       10.7795       10.7795       4.064994       0.00078
  44    0.2165        6.7145        0.0000       10.7795       10.7795       4.064991       0.00076
  43    0.2613        6.7145        0.0000       10.7795       10.7795       4.064987       0.00075
  42    0.3336        6.7145        0.0000       10.7795       10.7795       4.064980       0.00077
  41    0.4307        6.7145        0.0000       10.7795       10.7795       4.064971       0.00077
  40    0.5894        6.7145        0.0000       10.7795       10.7795       4.064956       0.00080
  39     1.339        6.7145        0.0000       10.7794       10.7794       4.064867       0.00101
  38     1.782        6.7145        0.0000       10.7793       10.7793       4.064797       0.00133
  37     2.292        6.7145        0.0000       10.7792       10.7792       4.064702       0.00156
  36     5.035        6.7145        0.0000       10.7790       10.7790       4.064494       0.00064
  35     6.613        6.7145        0.0000       10.7785       10.7786       4.064040       0.00243
  34     8.786        6.7145        0.0000       10.7779       10.7779       4.063370       0.00260
  33     11.80        6.7145        0.0000       10.7768       10.7768       4.062317       0.00295
  32     15.07        6.7145        0.0001       10.7755       10.7756       4.061080       0.00319
  31     18.79        6.7145        0.0001       10.7740       10.7741       4.059584       0.00339
  30     23.16        6.7145        0.0001       10.7722       10.7723       4.057725       0.00359
  29     28.12        6.7146        0.0001       10.7699       10.7700       4.055472       0.00383
  28     33.73        6.7146        0.0002       10.7671       10.7673       4.052692       0.00418
  27     40.54        6.7146        0.0002       10.7633       10.7635       4.048918       0.00468
  26     48.69        6.7147        0.0002       10.7583       10.7586       4.043883       0.00521
  25     57.69        6.7148        0.0003       10.7524       10.7527       4.037906       0.00560
  24     68.43        6.7149        0.0003       10.7450       10.7453       4.030403       0.00590
  23     81.20        6.7152        0.0004       10.7359       10.7363       4.021148       0.00612
  22     96.49        6.7155        0.0005       10.7249       10.7253       4.009861       0.00623
  21     114.6        6.7159        0.0006       10.7111       10.7116       3.995712       0.00661
  20     136.5        6.7166        0.0007       10.6945       10.6952       3.978617       0.00657
  19     162.9        6.7176        0.0008       10.6744       10.6752       3.957586       0.00672
  18     196.4        6.7192        0.0010       10.6467       10.6476       3.928432       0.00734
  17     218.7        6.7207        0.0011       10.6258       10.6268       3.906157       0.00846
  16     243.0        6.7228        0.0012       10.5983       10.5995       3.876708       0.01021
  15     269.0        6.7260        0.0013       10.5613       10.5627       3.836675       0.01299
  14     297.5        6.7306        0.0015       10.5122       10.5136       3.782997       0.01592
  13     328.5        6.7370        0.0016       10.4501       10.4517       3.714682       0.01857
  12     361.9        6.7454        0.0018       10.3704       10.3721       3.626761       0.02224
  11     398.1        6.7559        0.0019       10.2679       10.2699       3.513990       0.02627
  10     437.6        6.7693        0.0021       10.1391       10.1412       3.371908       0.03038
   9     480.5        6.7865        0.0023        9.9878        9.9901       3.203541       0.03307
   8     533.0        6.8131        0.0025        9.7937        9.7962       2.983146       0.03545
   7     589.8        6.8516        0.0027        9.5752        9.5779       2.726309       0.03812
   6     651.6        6.9139        0.0029        9.2958        9.2988       2.384827       0.04670
   5     718.7        7.0193        0.0031        8.9267        8.9299       1.910571       0.05960
   4     792.3        7.2192        0.0033        8.4542        8.4576       1.238350       0.07710
   3     825.4        4.1644        4.7916        0.0105        4.8022       0.637721       0.15331
   2     858.4        3.1065        3.5190        0.0000        3.5190       0.412509       0.05749
   1     891.5        0.7328        1.0579        0.0000        1.0579       0.325133       0.02231
   0    1013.0        0.7513        1.0291        0.0000        1.0291       0.277866       0.00328



 Wavenumbers:  4650. -  5150. cm-1, ATM      1
 LEVEL PRESSURE   UPWARD FLUX   DIFDOWN FLUX  DIRDOWN FLUX  DOWNWARD FLUX   NET FLUX    HEATING RATE
          mb          W/m2          W/m2          W/m2        W/m2          W/m2       degree/day
  51    .06700        4.8051        0.0000       10.2033       10.2033       5.398261       0.00000
  50    .07753        4.8051        0.0000       10.2031       10.2031       5.398025       0.18901
  49    .09103        4.8051        0.0000       10.2028       10.2028       5.397730       0.18428
  48    0.1069        4.8051        0.0000       10.2025       10.2025       5.397393       0.17931
  47    0.1255        4.8051        0.0000       10.2021       10.2021       5.397009       0.17426
  46    0.1487        4.8051        0.0000       10.2016       10.2016       5.396528       0.17536
  45    0.1794        4.8051        0.0000       10.2010       10.2010       5.395878       0.17850
  44    0.2165        4.8051        0.0000       10.2002       10.2002       5.395118       0.17277
  43    0.2613        4.8051        0.0000       10.1993       10.1993       5.394233       0.16690
  42    0.3336        4.8051        0.0000       10.1979       10.1979       5.392800       0.16702
  41    0.4307        4.8051        0.0000       10.1960       10.1960       5.390960       0.16002
  40    0.5894        4.8051        0.0000       10.1932       10.1932       5.388086       0.15283
  39     1.339        4.8051        0.0000       10.1816       10.1816       5.376494       0.13051
  38     1.782        4.8051        0.0000       10.1760       10.1760       5.370964       0.10527
  37     2.292        4.8051        0.0000       10.1706       10.1706       5.365507       0.09039
  36     5.035        4.8051        0.0000       10.1630       10.1630       5.357920       0.02334
  35     6.613        4.8051        0.0000       10.1533       10.1533       5.348210       0.05191
  34     8.786        4.8051        0.0000       10.1442       10.1442       5.339115       0.03532
  33     11.80        4.8051        0.0001       10.1340       10.1341       5.328965       0.02842
  32     15.07        4.8051        0.0001       10.1237       10.1238       5.318689       0.02653
  31     18.79        4.8052        0.0001       10.1115       10.1117       5.306481       0.02768
  30     23.16        4.8052        0.0002       10.0961       10.0963       5.291008       0.02992
  29     28.12        4.8053        0.0002       10.0769       10.0771       5.271720       0.03279
  28     33.73        4.8055        0.0002       10.0536       10.0539       5.248388       0.03508
  27     40.54        4.8057        0.0003       10.0235       10.0238       5.218166       0.03749
  26     48.69        4.8059        0.0003        9.9852        9.9855       5.179571       0.03994
  25     57.69        4.8063        0.0004        9.9414        9.9418       5.135524       0.04129
  24     68.43        4.8067        0.0005        9.8884        9.8889       5.082139       0.04197
  23     81.20        4.8074        0.0006        9.8258        9.8263       5.018915       0.04178
  22     96.49        4.8083        0.0007        9.7537        9.7544       4.946041       0.04022
  21     114.6        4.8096        0.0008        9.6735        9.6743       4.864661       0.03800
  20     136.5        4.8114        0.0009        9.5870        9.5879       4.776547       0.03388
  19     162.9        4.8139        0.0011        9.4949        9.4960       4.682169       0.03017
  18     196.4        4.8177        0.0013        9.3889        9.3902       4.572548       0.02759
  17     218.7        4.8206        0.0015        9.3234        9.3249       4.504223       0.02594
  16     243.0        4.8245        0.0016        9.2524        9.2540       4.429475       0.02593
  15     269.0        4.8297        0.0018        9.1720        9.1738       4.344062       0.02771
  14     297.5        4.8370        0.0020        9.0765        9.0785       4.241556       0.03040
  13     328.5        4.8464        0.0022        8.9652        8.9674       4.120948       0.03279
  12     361.9        4.8586        0.0024        8.8351        8.8375       3.978875       0.03595
  11     398.1        4.8744        0.0026        8.6822        8.6848       3.810317       0.03927
  10     437.6        4.8950        0.0028        8.5030        8.5057       3.610681       0.04268
   9     480.5        4.9219        0.0030        8.2950        8.2979       3.376055       0.04608
   8     533.0        4.9629        0.0032        8.0210        8.0242       3.061362       0.05062
   7     589.8        5.0200        0.0035        7.7064        7.7099       2.689926       0.05513
   6     651.6        5.1047        0.0037        7.3413        7.3450       2.240308       0.06149
   5     718.7        5.2334        0.0039        6.9387        6.9427       1.709277       0.06674
   4     792.3        5.4402        0.0041        6.5066        6.5108       1.070540       0.07326
   3     825.4        2.9577        3.4775        0.0080        3.4855       0.527855       0.13852
   2     858.4        2.1416        2.4473        0.0000        2.4473       0.305722       0.05670
   1     891.5        0.4743        0.6959        0.0000        0.6959       0.221584       0.02148
   0    1013.0        0.4902        0.6715        0.0000        0.6715       0.181304       0.00280



 Wavenumbers:  5150. -  6150. cm-1, ATM      1
 LEVEL PRESSURE   UPWARD FLUX   DIFDOWN FLUX  DIRDOWN FLUX  DOWNWARD FLUX   NET FLUX    HEATING RATE
          mb          W/m2          W/m2          W/m2        W/m2          W/m2       degree/day
  51    .06700       11.6262        0.0000       25.5798       25.5798      13.953590       0.00000
  50    .07753       11.6262        0.0000       25.5798       25.5798      13.953550       0.03162
  49    .09103       11.6262        0.0000       25.5797       25.5797      13.953499       0.03211
  48    0.1069       11.6262        0.0000       25.5797       25.5797      13.953438       0.03262
  47    0.1255       11.6262        0.0000       25.5796       25.5796      13.953364       0.03312
  46    0.1487       11.6262        0.0000       25.5795       25.5795      13.953269       0.03489
  45    0.1794       11.6262        0.0000       25.5794       25.5794      13.953134       0.03713
  44    0.2165       11.6262        0.0000       25.5792       25.5792      13.952968       0.03770
  43    0.2613       11.6262        0.0000       25.5790       25.5790      13.952765       0.03827
  42    0.3336       11.6262        0.0000       25.5786       25.5786      13.952418       0.04044
  41    0.4307       11.6262        0.0000       25.5782       25.5782      13.951947       0.04098
  40    0.5894       11.6262        0.0000       25.5774       25.5774      13.951157       0.04199
  39     1.339       11.6262        0.0000       25.5735       25.5736      13.947352       0.04283
  38     1.782       11.6262        0.0001       25.5713       25.5714      13.945137       0.04218
  37     2.292       11.6262        0.0001       25.5688       25.5688      13.942629       0.04154
  36     5.035       11.6262        0.0001       25.5647       25.5648      13.938528       0.01262
  35     6.613       11.6262        0.0002       25.5576       25.5578      13.931536       0.03738
  34     8.786       11.6263        0.0002       25.5485       25.5487      13.922475       0.03519
  33     11.80       11.6263        0.0003       25.5362       25.5365      13.910218       0.03432
  32     15.07       11.6264        0.0004       25.5239       25.5243      13.897924       0.03174
  31     18.79       11.6264        0.0005       25.5110       25.5115      13.885068       0.02915
  30     23.16       11.6265        0.0007       25.4971       25.4977      13.871216       0.02678
  29     28.12       11.6267        0.0009       25.4824       25.4833      13.856607       0.02484
  28     33.73       11.6268        0.0010       25.4676       25.4686      13.841791       0.02228
  27     40.54       11.6271        0.0013       25.4514       25.4526      13.825573       0.02012
  26     48.69       11.6274        0.0015       25.4341       25.4356      13.808181       0.01800
  25     57.69       11.6278        0.0018       25.4169       25.4187      13.790889       0.01621
  24     68.43       11.6284        0.0021       25.3983       25.4004      13.772091       0.01478
  23     81.20       11.6290        0.0026       25.3779       25.3804      13.751387       0.01368
  22     96.49       11.6299        0.0031       25.3550       25.3580      13.728111       0.01285
  21     114.6       11.6310        0.0036       25.3288       25.3324      13.701427       0.01246
  20     136.5       11.6323        0.0043       25.2983       25.3027      13.670396       0.01193
  19     162.9       11.6339        0.0052       25.2537       25.2589      13.624957       0.01452
  18     196.4       11.6361        0.0062       25.1601       25.1664      13.530224       0.02385
  17     218.7       11.6377        0.0069       25.0164       25.0233      13.385511       0.05494
  16     243.0       11.6397        0.0076       24.7092       24.7168      13.077108       0.10696
  15     269.0       11.6422        0.0083       24.1621       24.1704      12.528173       0.17807
  14     297.5       11.6456        0.0090       23.4546       23.4636      11.817951       0.21064
  13     328.5       11.6501        0.0097       22.7357       22.7454      11.095301       0.19649
  12     361.9       11.6559        0.0104       21.9226       21.9331      10.277151       0.20700
  11     398.1       11.6637        0.0111       20.9941       21.0052       9.341547       0.21797
  10     437.6       11.6745        0.0118       19.9835       19.9953       8.320872       0.21823
   9     480.5       11.6893        0.0125       18.9485       18.9610       7.271655       0.20606
   8     533.0       11.7144        0.0133       17.7798       17.7930       6.078609       0.19192
   7     589.8       11.7549        0.0140       16.6727       16.6868       4.931811       0.17022
   6     651.6       11.8290        0.0148       15.6344       15.6493       3.820290       0.15200
   5     718.7       11.9647        0.0157       14.7739       14.7896       2.824941       0.12509
   4     792.3       12.2366        0.0167       14.0292       14.0459       1.809346       0.11648
   3     825.4        7.4319        8.3890        0.0177        8.4067       0.974808       0.21301
   2     858.4        5.7050        6.4031        0.0000        6.4031       0.698093       0.07064
   1     891.5        1.4488        2.0503        0.0000        2.0503       0.601422       0.02468
   0    1013.0        1.4716        2.0159        0.0000        2.0159       0.544301       0.00397



 Wavenumbers:  6150. -  7700. cm-1, ATM      1
 LEVEL PRESSURE   UPWARD FLUX   DIFDOWN FLUX  DIRDOWN FLUX  DOWNWARD FLUX   NET FLUX    HEATING RATE
          mb          W/m2          W/m2          W/m2        W/m2          W/m2       degree/day
  51    .06700       18.3722        0.0000       47.3109       47.3109      28.938689       0.00000
  50    .07753       18.3722        0.0000       47.3108       47.3108      28.938632       0.04553
  49    .09103       18.3722        0.0000       47.3107       47.3107      28.938559       0.04583
  48    0.1069       18.3722        0.0000       47.3106       47.3106      28.938472       0.04614
  47    0.1255       18.3722        0.0000       47.3105       47.3105      28.938369       0.04645
  46    0.1487       18.3722        0.0000       47.3104       47.3104      28.938236       0.04852
  45    0.1794       18.3722        0.0000       47.3102       47.3102      28.938050       0.05127
  44    0.2165       18.3722        0.0000       47.3100       47.3100      28.937822       0.05167
  43    0.2613       18.3722        0.0000       47.3097       47.3097      28.937546       0.05210
  42    0.3336       18.3722        0.0000       47.3092       47.3092      28.937077       0.05471
  41    0.4307       18.3721        0.0000       47.3085       47.3086      28.936442       0.05521
  40    0.5894       18.3721        0.0001       47.3074       47.3075      28.935382       0.05633
  39     1.339       18.3721        0.0002       47.3022       47.3024      28.930290       0.05733
  38     1.782       18.3720        0.0002       47.2991       47.2994      28.927320       0.05655
  37     2.292       18.3720        0.0003       47.2956       47.2959      28.923944       0.05591
  36     5.035       18.3719        0.0004       47.2899       47.2903      28.918369       0.01715
  35     6.613       18.3718        0.0006       47.2800       47.2806      28.908793       0.05119
  34     8.786       18.3716        0.0009       47.2670       47.2679      28.896249       0.04872
  33     11.80       18.3714        0.0013       47.2491       47.2504      28.879012       0.04826
  32     15.07       18.3712        0.0017       47.2308       47.2326      28.861387       0.04550
  31     18.79       18.3709        0.0022       47.2112       47.2134      28.842552       0.04271
  30     23.16       18.3706        0.0028       47.1895       47.1923      28.821775       0.04018
  29     28.12       18.3702        0.0035       47.1661       47.1696      28.799371       0.03808
  28     33.73       18.3698        0.0042       47.1416       47.1458      28.776031       0.03509
  27     40.54       18.3693        0.0051       47.1141       47.1192      28.749939       0.03237
  26     48.69       18.3686        0.0062       47.0837       47.0898      28.721198       0.02974
  25     57.69       18.3680        0.0074       47.0527       47.0601      28.692101       0.02727
  24     68.43       18.3672        0.0088       47.0183       47.0270      28.659860       0.02535
  23     81.20       18.3662        0.0105       46.9796       46.9901      28.623831       0.02381
  22     96.49       18.3651        0.0125       46.9356       46.9480      28.582922       0.02258
  21     114.6       18.3638        0.0148       46.8846       46.8995      28.535686       0.02206
  20     136.5       18.3622        0.0177       46.8250       46.8426      28.480424       0.02125
  19     162.9       18.3604        0.0210       46.7403       46.7614      28.400995       0.02539
  18     196.4       18.3582        0.0254       46.5732       46.5986      28.240449       0.04041
  17     218.7       18.3569        0.0282       46.3491       46.3773      28.020384       0.08355
  16     243.0       18.3559        0.0311       45.9309       45.9620      27.606084       0.14369
  15     269.0       18.3557        0.0341       45.1716       45.2057      26.849974       0.24528
  14     297.5       18.3570        0.0370       44.0121       44.0491      25.692124       0.34341
  13     328.5       18.3603        0.0400       42.7247       42.7647      24.404411       0.35013
  12     361.9       18.3667        0.0430       41.3543       41.3974      23.030702       0.34756
  11     398.1       18.3779        0.0460       39.7956       39.8417      21.463801       0.36505
  10     437.6       18.3968        0.0489       37.9951       38.0440      19.647157       0.38841
   9     480.5       18.4272        0.0516       36.0650       36.1166      17.689468       0.38448
   8     533.0       18.4843        0.0546       33.7776       33.8321      15.347880       0.37669
   7     589.8       18.5839        0.0573       31.4085       31.4658      12.881889       0.36603
   6     651.6       18.7761        0.0596       28.8836       28.9432      10.167104       0.37125
   5     718.7       19.1438        0.0617       26.4106       26.4722       7.328482       0.35674
   4     792.3       19.9250        0.0634       24.0058       24.0692       4.144194       0.36520
   3     825.4       11.0910       12.8439        0.0287       12.8726       1.781591       0.60304
   2     858.4        8.2507        9.3407        0.0000        9.3408       1.090031       0.17653
   1     891.5        1.9867        2.8479        0.0000        2.8479       0.861232       0.05842
   0    1013.0        2.0290        2.7794        0.0000        2.7794       0.750434       0.00769



 Wavenumbers:  7700. -  8050. cm-1, ATM      1
 LEVEL PRESSURE   UPWARD FLUX   DIFDOWN FLUX  DIRDOWN FLUX  DOWNWARD FLUX   NET FLUX    HEATING RATE
          mb          W/m2          W/m2          W/m2        W/m2          W/m2       degree/day
  51    .06700        8.5884        0.0000       11.1810       11.1810       2.592560       0.00000
  50    .07753        8.5884        0.0000       11.1809       11.1809       2.592536       0.01904
  49    .09103        8.5884        0.0000       11.1809       11.1809       2.592506       0.01866
  48    0.1069        8.5884        0.0000       11.1809       11.1809       2.592472       0.01826
  47    0.1255        8.5884        0.0000       11.1809       11.1809       2.592432       0.01787
  46    0.1487        8.5884        0.0000       11.1808       11.1808       2.592383       0.01814
  45    0.1794        8.5885        0.0000       11.1808       11.1808       2.592315       0.01866
  44    0.2165        8.5885        0.0000       11.1807       11.1807       2.592234       0.01831
  43    0.2613        8.5885        0.0000       11.1806       11.1806       2.592139       0.01796
  42    0.3336        8.5885        0.0000       11.1805       11.1805       2.591981       0.01838
  41    0.4307        8.5886        0.0000       11.1803       11.1804       2.591772       0.01818
  40    0.5894        8.5887        0.0000       11.1801       11.1801       2.591431       0.01816
  39     1.339        8.5891        0.0001       11.1788       11.1789       2.589815       0.01819
  38     1.782        8.5893        0.0001       11.1781       11.1782       2.588866       0.01807
  37     2.292        8.5896        0.0001       11.1772       11.1773       2.587767       0.01820
  36     5.035        8.5900        0.0002       11.1757       11.1759       2.585860       0.00587
  35     6.613        8.5909        0.0003       11.1731       11.1734       2.582474       0.01810
  34     8.786        8.5920        0.0004       11.1695       11.1699       2.577911       0.01772
  33     11.80        8.5936        0.0006       11.1644       11.1650       2.571387       0.01827
  32     15.07        8.5954        0.0008       11.1589       11.1597       2.564386       0.01808
  31     18.79        8.5973        0.0010       11.1528       11.1538       2.556482       0.01792
  30     23.16        8.5996        0.0013       11.1456       11.1469       2.547259       0.01783
  29     28.12        8.6023        0.0016       11.1374       11.1390       2.536723       0.01791
  28     33.73        8.6052        0.0020       11.1282       11.1302       2.524950       0.01770
  27     40.54        8.6088        0.0024       11.1172       11.1196       2.510750       0.01762
  26     48.69        8.6132        0.0029       11.1040       11.1069       2.493668       0.01768
  25     57.69        8.6180        0.0034       11.0896       11.0930       2.474953       0.01754
  24     68.43        8.6238        0.0041       11.0725       11.0766       2.452732       0.01747
  23     81.20        8.6308        0.0049       11.0523       11.0571       2.426355       0.01743
  22     96.49        8.6391        0.0058       11.0284       11.0342       2.395063       0.01727
  21     114.6        8.6492        0.0069       11.0004       11.0073       2.358102       0.01726
  20     136.5        8.6612        0.0082       10.9676       10.9758       2.314553       0.01675
  19     162.9        8.6757        0.0098       10.9290       10.9388       2.263040       0.01647
  18     196.4        8.6949        0.0118       10.8799       10.8917       2.196755       0.01668
  17     218.7        8.7078        0.0131       10.8482       10.8613       2.153483       0.01643
  16     243.0        8.7219        0.0145       10.8140       10.8285       2.106609       0.01626
  15     269.0        8.7376        0.0161       10.7774       10.7935       2.055910       0.01645
  14     297.5        8.7549        0.0178       10.7382       10.7559       2.001085       0.01626
  13     328.5        8.7740        0.0196       10.6962       10.7157       1.941730       0.01614
  12     361.9        8.7952        0.0215       10.6512       10.6727       1.877525       0.01624
  11     398.1        8.8189        0.0236       10.6031       10.6267       1.807830       0.01624
  10     437.6        8.8454        0.0259       10.5513       10.5772       1.731849       0.01625
   9     480.5        8.8751        0.0283       10.4956       10.5239       1.648828       0.01631
   8     533.0        8.9139        0.0313       10.4264       10.4577       1.543797       0.01690
   7     589.8        8.9591        0.0344       10.3500       10.3844       1.425317       0.01759
   6     651.6        9.0134        0.0379       10.2633       10.3012       1.287853       0.01880
   5     718.7        9.0799        0.0415       10.1637       10.2052       1.125310       0.02043
   4     792.3        9.1645        0.0454       10.0457       10.0911       0.926611       0.02279
   3     825.4        5.8525        6.5462        0.0133        6.5596       0.707094       0.05603
   2     858.4        4.5076        5.0634        0.0000        5.0634       0.555844       0.03861
   1     891.5        1.1208        1.5955        0.0000        1.5955       0.474690       0.02072
   0    1013.0        1.1424        1.5649        0.0000        1.5649       0.422522       0.00362



 Wavenumbers:  8050. - 12850. cm-1, ATM      1
 LEVEL PRESSURE   UPWARD FLUX   DIFDOWN FLUX  DIRDOWN FLUX  DOWNWARD FLUX   NET FLUX    HEATING RATE
          mb          W/m2          W/m2          W/m2        W/m2          W/m2       degree/day
  51    .06700      111.2372        0.0000      156.5418      156.5418      45.304570       0.00000
  50    .07753      111.2372        0.0000      156.5417      156.5417      45.304570       0.00000
  49    .09103      111.2372        0.0001      156.5417      156.5417      45.304570       0.00000
  48    0.1069      111.2371        0.0001      156.5416      156.5417      45.304570       0.00000
  47    0.1255      111.2371        0.0002      156.5415      156.5417      45.304570       0.00000
  46    0.1487      111.2371        0.0002      156.5414      156.5417      45.304570      -0.00000
  45    0.1794      111.2371        0.0003      156.5413      156.5416      45.304570       0.00000
  44    0.2165      111.2370        0.0005      156.5412      156.5416      45.304570      -0.00000
  43    0.2613      111.2370        0.0006      156.5410      156.5416      45.304570       0.00000
  42    0.3336      111.2369        0.0008      156.5407      156.5415      45.304570      -0.00000
  41    0.4307      111.2368        0.0011      156.5403      156.5414      45.304570       0.00000
  40    0.5894      111.2367        0.0016      156.5397      156.5412      45.304570      -0.00000
  39     1.339      111.2360        0.0038      156.5367      156.5405      45.304570       0.00000
  38     1.782      111.2355        0.0051      156.5350      156.5401      45.304570      -0.00000
  37     2.292      111.2350        0.0066      156.5330      156.5396      45.304570       0.00000
  36     5.035      111.2342        0.0093      156.5295      156.5388      45.304570       0.00000
  35     6.613      111.2327        0.0140      156.5233      156.5373      45.304570      -0.00000
  34     8.786      111.2307        0.0203      156.5149      156.5352      45.304570      -0.00000
  33     11.80      111.2277        0.0294      156.5029      156.5323      45.304570       0.00000
  32     15.07      111.2246        0.0391      156.4901      156.5292      45.304570       0.00000
  31     18.79      111.2211        0.0501      156.4755      156.5256      45.304570      -0.00000
  30     23.16      111.2169        0.0630      156.4585      156.5215      45.304570       0.00000
  29     28.12      111.2122        0.0778      156.4390      156.5168      45.304570      -0.00000
  28     33.73      111.2069        0.0943      156.4171      156.5114      45.304570       0.00000
  27     40.54      111.2004        0.1143      156.3907      156.5050      45.304570       0.00000
  26     48.69      111.1927        0.1384      156.3588      156.4972      45.304570      -0.00000
  25     57.69      111.1841        0.1650      156.3237      156.4887      45.304570       0.00000
  24     68.43      111.1739        0.1967      156.2818      156.4785      45.304570      -0.00000
  23     81.20      111.1618        0.2345      156.2319      156.4664      45.304570       0.00000
  22     96.49      111.1473        0.2796      156.1722      156.4518      45.304570      -0.00000
  21     114.6      111.1303        0.3333      156.0952      156.4285      45.298290       0.00293
  20     136.5      111.1100        0.3971      156.0034      156.4005      45.290502       0.00299
  19     162.9      111.0859        0.4732      155.8903      156.3635      45.277596       0.00413
  18     196.4      111.0548        0.5722      155.7272      156.2994      45.244583       0.00831
  17     218.7      111.0348        0.6373      155.5805      156.2178      45.183067       0.02336
  16     243.0      111.0142        0.7081      155.3439      156.0520      45.037807       0.05038
  15     269.0      110.9946        0.7846      154.9586      155.7432      44.748641       0.09380
  14     297.5      110.9789        0.8671      154.3968      155.2639      44.284990       0.13751
  13     328.5      110.9688        0.9560      153.7223      154.6783      43.709464       0.15648
  12     361.9      110.9681        1.0514      152.9159      153.9673      42.999241       0.17969
  11     398.1      110.9830        1.1536      151.9057      153.0593      42.076270       0.21503
  10     437.6      111.0244        1.2623      150.6102      151.8725      40.848098       0.26259
   9     480.5      111.1053        1.3773      149.0084      150.3857      39.280422       0.30789
   8     533.0      111.2742        1.5165      146.7445      148.2610      36.986784       0.36897
   7     589.8      111.5856        1.6625      143.8798      145.5423      33.956689       0.44977
   6     651.6      112.1987        1.8125      140.1022      141.9147      29.715913       0.57994
   5     718.7      113.3497        1.9648      135.5343      137.4990      24.149331       0.69957
   4     792.3      115.6356        2.1156      130.0753      132.1910      16.555401       0.87094
   3     825.4       70.3580       79.6321        0.1651       79.7972       9.439283       1.81635
   2     858.4       53.7072       60.4002        0.0002       60.4004       6.693275       0.70097
   1     891.5       13.4648       19.1112        0.0000       19.1112       5.646363       0.26732
   0    1013.0       13.6886       18.7515        0.0000       18.7515       5.062899       0.04051



 Wavenumbers: 12850. - 16000. cm-1, ATM      1
 LEVEL PRESSURE   UPWARD FLUX   DIFDOWN FLUX  DIRDOWN FLUX  DOWNWARD FLUX   NET FLUX    HEATING RATE
          mb          W/m2          W/m2          W/m2        W/m2          W/m2       degree/day
  51    .06700       80.5981        0.0000       98.0872       98.0872      17.489110       0.00000
  50    .07753       80.5981        0.0001       98.0864       98.0864      17.488317       0.63533
  49    .09103       80.5981        0.0002       98.0853       98.0855      17.487322       0.62237
  48    0.1069       80.5981        0.0003       98.0841       98.0843      17.486177       0.60918
  47    0.1255       80.5982        0.0004       98.0826       98.0830      17.484862       0.59630
  46    0.1487       80.5982        0.0005       98.0809       98.0814      17.483201       0.60532
  45    0.1794       80.5982        0.0007       98.0784       98.0792      17.480941       0.62042
  44    0.2165       80.5983        0.0010       98.0756       98.0766      17.478282       0.60504
  43    0.2613       80.5984        0.0013       98.0723       98.0736      17.475152       0.58991
  42    0.3336       80.5987        0.0017       98.0670       98.0688      17.470041       0.59594
  41    0.4307       80.5991        0.0024       98.0602       98.0626      17.463426       0.57517
  40    0.5894       80.6000        0.0034       98.0496       98.0530      17.452990       0.55497
  39     1.339       80.6071        0.0082       98.0043       98.0126      17.405508       0.53456
  38     1.782       80.6135        0.0111       97.9793       97.9904      17.376876       0.54509
  37     2.292       80.6230        0.0144       97.9498       97.9642      17.341130       0.59205
  36     5.035       80.6483        0.0201       97.8891       97.9092      17.260863       0.24696
  35     6.613       80.7015        0.0302       97.7746       97.8048      17.103335       0.84214
  34     8.786       80.7707        0.0439       97.6278       97.6717      16.900959       0.78596
  33     11.80       80.8609        0.0634       97.4339       97.4972      16.636366       0.74078
  32     15.07       80.9474        0.0843       97.2433       97.3276      16.380196       0.66138
  31     18.79       81.0358        0.1079       97.0439       97.1518      16.115926       0.59918
  30     23.16       81.1285        0.1355       96.8292       96.9647      15.836172       0.54095
  29     28.12       81.2219        0.1670       96.6048       96.7718      15.549830       0.48676
  28     33.73       81.3087        0.2022       96.3831       96.5853      15.276621       0.41078
  27     40.54       81.3928        0.2448       96.1494       96.3941      15.001342       0.34151
  26     48.69       81.4741        0.2961       95.9016       96.1978      14.723635       0.28738
  25     57.69       81.5441        0.3525       95.6629       96.0155      14.471408       0.23642
  24     68.43       81.6063        0.4197       95.4149       95.8346      14.228307       0.19111
  23     81.20       81.6517        0.4999       95.1674       95.6673      14.015560       0.14058
  22     96.49       81.6792        0.5955       94.9172       95.5127      13.833554       0.10045
  21     114.6       81.7103        0.7102       94.6421       95.3523      13.641966       0.08946
  20     136.5       81.7359        0.8461       94.3324       95.1784      13.442578       0.07667
  19     162.9       81.7559        1.0079       93.9750       94.9829      13.226942       0.06893
  18     196.4       81.7599        1.2177       93.5336       94.7514      12.991475       0.05927
  17     218.7       81.7547        1.3556       93.2498       94.6054      12.850616       0.05348
  16     243.0       81.7461        1.5053       92.9420       94.4473      12.701258       0.05180
  15     269.0       81.7340        1.6677       92.6087       94.2763      12.542309       0.05156
  14     297.5       81.7194        1.8431       92.2464       94.0895      12.370143       0.05106
  13     328.5       81.7045        2.0326       91.8517       93.8844      12.179898       0.05173
  12     361.9       81.6905        2.2367       91.4219       93.6585      11.968038       0.05360
  11     398.1       81.6794        2.4562       90.9524       93.4086      11.729200       0.05564
  10     437.6       81.6751        2.6919       90.4358       93.1277      11.452620       0.05913
   9     480.5       81.6812        2.9442       89.8659       92.8101      11.128915       0.06357
   8     533.0       81.7094        3.2545       89.1347       92.3892      10.679774       0.07225
   7     589.8       81.7777        3.5878       88.2943       91.8821      10.104384       0.08541
   6     651.6       81.9278        3.9438       87.2867       91.2305       9.302697       0.10963
   5     718.7       82.1923        4.3209       86.1028       90.4238       8.231445       0.13463
   4     792.3       82.6684        4.7154       84.6812       89.3966       6.728276       0.17240
   3     825.4       56.9057       61.8547        0.1115       61.9662       5.060506       0.42569
   2     858.4       47.0531       51.1747        0.0001       51.1749       4.121764       0.23963
   1     891.5       21.3699       25.0117        0.0000       25.0117       3.641818       0.12255
   0    1013.0       21.5394       24.7778        0.0000       24.7778       3.238461       0.02801



 Wavenumbers: 16000. - 22650. cm-1, ATM      1
 LEVEL PRESSURE   UPWARD FLUX   DIFDOWN FLUX  DIRDOWN FLUX  DOWNWARD FLUX   NET FLUX    HEATING RATE
          mb          W/m2          W/m2          W/m2        W/m2          W/m2       degree/day
  51    .06700      140.3617        0.0000      156.3892      156.3892      16.027553       0.00000
  50    .07753      140.3617        0.0004      156.3887      156.3891      16.027406       0.11812
  49    .09103      140.3616        0.0009      156.3879      156.3888      16.027192       0.13398
  48    0.1069      140.3616        0.0015      156.3871      156.3885      16.026905       0.15278
  47    0.1255      140.3617        0.0021      156.3861      156.3882      16.026520       0.17415
  46    0.1487      140.3617        0.0029      156.3847      156.3877      16.025954       0.20636
  45    0.1794      140.3618        0.0041      156.3828      156.3869      16.025069       0.24298
  44    0.2165      140.3620        0.0054      156.3805      156.3859      16.023869       0.27308
  43    0.2613      140.3624        0.0070      156.3776      156.3846      16.022240       0.30701
  42    0.3336      140.3631        0.0096      156.3726      156.3823      16.019143       0.36103
  41    0.4307      140.3644        0.0131      156.3657      156.3788      16.014476       0.40584
  40    0.5894      140.3669        0.0188      156.3537      156.3725      16.005574       0.47340
  39     1.339      140.3894        0.0458      156.2834      156.3292      15.939805       0.74044
  38     1.782      140.4101        0.0616      156.2324      156.2939      15.883778       1.06667
  37     2.292      140.4413        0.0799      156.1641      156.2440      15.802678       1.34322
  36     5.035      140.5250        0.1116      156.0076      156.1192      15.594172       0.64152
  35     6.613      140.7012        0.1679      155.6950      155.8629      15.161716       2.31191
  34     8.786      140.9306        0.2437      155.2860      155.5296      14.599001       2.18538
  33     11.80      141.2292        0.3519      154.7422      155.0941      13.864815       2.05549
  32     15.07      141.5152        0.4679      154.2059      154.6738      13.158567       1.82340
  31     18.79      141.8072        0.5987      153.6432      154.2419      12.434742       1.64113
  30     23.16      142.1122        0.7512      153.0352      153.7864      11.674204       1.47063
  29     28.12      142.4190        0.9254      152.3965      153.3219      10.902909       1.31115
  28     33.73      142.7020        1.1201      151.7604      152.8805      10.178448       1.08925
  27     40.54      142.9742        1.3551      151.0815      152.4366       9.462436       0.88829
  26     48.69      143.2345        1.6380      150.3500      151.9880       8.753590       0.73354
  25     57.69      143.4548        1.9485      149.6296      151.5781       8.123369       0.59074
  24     68.43      143.6464        2.3178      148.8604      151.1782       7.531771       0.46507
  23     81.20      143.7778        2.7574      148.0628      150.8202       7.042393       0.32337
  22     96.49      143.8444        3.2807      147.2220      150.5027       6.658364       0.21196
  21     114.6      143.8772        3.9003      146.2838      150.1841       6.306830       0.16414
  20     136.5      143.8850        4.6318      145.2142      149.8460       5.961020       0.13297
  19     162.9      143.8657        5.4988      143.9816      149.4804       5.614628       0.11072
  18     196.4      143.7795        6.6174      142.4652      149.0826       5.303092       0.07842
  17     218.7      143.7004        7.3484      141.5017      148.8500       5.149614       0.05827
  16     243.0      143.6042        8.1395      140.4717      148.6112       5.007055       0.04944
  15     269.0      143.4892        8.9930      139.3740      148.3670       4.877812       0.04193
  14     297.5      143.3548        9.9108      138.2062      148.1171       4.762241       0.03428
  13     328.5      143.2051       10.8974      136.9574      147.8548       4.649707       0.03060
  12     361.9      143.0397       11.9535      135.6265      147.5800       4.540329       0.02767
  11     398.1      142.8582       13.0832      134.2081      147.2913       4.433182       0.02496
  10     437.6      142.6615       14.2885      132.6981      146.9866       4.325072       0.02311
   9     480.5      142.4494       15.5716      131.0935      146.6651       4.215652       0.02149
   8     533.0      142.1888       17.1386      129.1351      146.2737       4.084890       0.02104
   7     589.8      141.9124       18.8128      127.0392      145.8520       3.939623       0.02156
   6     651.6      141.6270       20.5958      124.7944      145.3902       3.763193       0.02413
   5     718.7      141.3395       22.4893      122.3908      144.8801       3.540569       0.02798
   4     792.3      141.0678       24.4911      119.8121      144.3032       3.235354       0.03500
   3     825.4      115.3839      118.0419        0.1569      118.1988       2.814863       0.10733
   2     858.4      109.5416      112.0275        0.0002      112.0277       2.486052       0.08393
   1     891.5       93.7804       96.0114        0.0000       96.0114       2.231010       0.06512
   0    1013.0       93.9152       95.8221        0.0000       95.8221       1.906860       0.02251



 Wavenumbers: 22650. - 29000. cm-1, ATM      1
 LEVEL PRESSURE   UPWARD FLUX   DIFDOWN FLUX  DIRDOWN FLUX  DOWNWARD FLUX   NET FLUX    HEATING RATE
          mb          W/m2          W/m2          W/m2        W/m2          W/m2       degree/day
  51    .06700       58.2112        0.0000       59.0156       59.0156       0.804426       0.00000
  50    .07753       58.2111        0.0005       59.0151       59.0155       0.804426       0.00000
  49    .09103       58.2110        0.0010       59.0144       59.0154       0.804426      -0.00000
  48    0.1069       58.2108        0.0017       59.0136       59.0153       0.804426       0.00000
  47    0.1255       58.2107        0.0025       59.0127       59.0151       0.804426       0.00000
  46    0.1487       58.2105        0.0034       59.0115       59.0149       0.804426      -0.00000
  45    0.1794       58.2102        0.0048       59.0099       59.0147       0.804426       0.00000
  44    0.2165       58.2099        0.0063       59.0080       59.0144       0.804426       0.00000
  43    0.2613       58.2096        0.0082       59.0058       59.0140       0.804426       0.00000
  42    0.3336       58.2090        0.0112       59.0022       59.0134       0.804426       0.00000
  41    0.4307       58.2082        0.0153       58.9973       59.0126       0.804426       0.00000
  40    0.5894       58.2069        0.0219       58.9894       59.0113       0.804426      -0.00000
  39     1.339       58.2007        0.0534       58.9518       59.0051       0.804426       0.00000
  38     1.782       58.1971        0.0718       58.9297       59.0015       0.804426       0.00000
  37     2.292       58.1929        0.0931       58.9042       58.9973       0.804426       0.00000
  36     5.035       58.1856        0.1302       58.8599       58.9900       0.804426       0.00000
  35     6.613       58.1727        0.1959       58.7812       58.9771       0.804426      -0.00000
  34     8.786       58.1553        0.2844       58.6754       58.9598       0.804426       0.00000
  33     11.80       58.1305        0.4108       58.5242       58.9349       0.804426       0.00000
  32     15.07       58.1039        0.5462       58.3621       58.9083       0.804426       0.00000
  31     18.79       58.0739        0.6989       58.1794       58.8783       0.804426       0.00000
  30     23.16       58.0389        0.8769       57.9665       58.8433       0.804426      -0.00000
  29     28.12       57.9990        1.0798       57.7237       58.8035       0.804426       0.00000
  28     33.73       57.9546        1.3060       57.4530       58.7590       0.804426      -0.00000
  27     40.54       57.9011        1.5783       57.1272       58.7055       0.804426       0.00000
  26     48.69       57.8369        1.9047       56.7366       58.6413       0.804426       0.00000
  25     57.69       57.7668        2.2611       56.3100       58.5712       0.804426      -0.00000
  24     68.43       57.6838        2.6826       55.8057       58.4883       0.804426       0.00000
  23     81.20       57.5859        3.1803       55.2100       58.3903       0.804426      -0.00000
  22     96.49       57.4703        3.7670       54.5077       58.2747       0.804426       0.00000
  21     114.6       57.3348        4.4547       53.6845       58.1392       0.804426       0.00000
  20     136.5       57.1766        5.2573       52.7236       57.9810       0.804426       0.00000
  19     162.9       56.9914        6.1955       51.6003       57.7958       0.804426       0.00000
  18     196.4       56.7566        7.3840       50.1770       57.5611       0.804426      -0.00000
  17     218.7       56.6056        8.1477       49.2623       57.4100       0.804426       0.00000
  16     243.0       56.4443        8.9630       48.2857       57.2487       0.804426      -0.00000
  15     269.0       56.2726        9.8294       47.2476       57.0770       0.804426       0.00000
  14     297.5       56.0908       10.7462       46.1491       56.8952       0.804426      -0.00000
  13     328.5       55.8986       11.7145       44.9884       56.7030       0.804426       0.00000
  12     361.9       55.6963       12.7320       43.7687       56.5007       0.804426       0.00000
  11     398.1       55.4839       13.7986       42.4898       56.2884       0.804426      -0.00000
  10     437.6       55.2619       14.9121       41.1542       56.0663       0.804426       0.00000
   9     480.5       55.0305       16.0702       39.7647       55.8350       0.804426      -0.00000
   8     533.0       54.7548       17.4475       38.1118       55.5593       0.804426       0.00000
   7     589.8       54.4683       18.8750       36.3978       55.2728       0.804426      -0.00000
   6     651.6       54.1724       20.3454       34.6314       54.9768       0.804426       0.00000
   5     718.7       53.8678       21.8531       32.8192       54.6723       0.804426       0.00000
   4     792.3       53.5564       23.3893       30.9715       54.3608       0.804426       0.00000
   3     825.4       46.7905       47.5557        0.0386       47.5943       0.803837       0.00015
   2     858.4       44.9537       45.7570        0.0000       45.7570       0.803282       0.00014
   1     891.5       39.5150       40.3167        0.0000       40.3167       0.801747       0.00039
   0    1013.0       39.4870       40.2888        0.0000       40.2888       0.801747      -0.00000



 Wavenumbers: 29000. - 38000. cm-1, ATM      1
 LEVEL PRESSURE   UPWARD FLUX   DIFDOWN FLUX  DIRDOWN FLUX  DOWNWARD FLUX   NET FLUX    HEATING RATE
          mb          W/m2          W/m2          W/m2        W/m2          W/m2       degree/day
  51    .06700        8.7833        0.0000       20.8114       20.8114      12.028074       0.00000
  50    .07753        8.7831        0.0003       20.8070       20.8074      12.024267       3.05177
  49    .09103        8.7829        0.0007       20.8009       20.8016      12.018729       3.46110
  48    0.1069        8.7826        0.0012       20.7928       20.7939      12.011319       3.94458
  47    0.1255        8.7823        0.0017       20.7820       20.7837      12.001413       4.49067
  46    0.1487        8.7820        0.0024       20.7665       20.7688      11.986849       5.30884
  45    0.1794        8.7815        0.0033       20.7424       20.7457      11.964182       6.22251
  44    0.2165        8.7810        0.0044       20.7103       20.7147      11.933657       6.94394
  43    0.2613        8.7804        0.0056       20.6675       20.6731      11.892659       7.72794
  42    0.3336        8.7796        0.0077       20.5880       20.5957      11.816092       8.92698
  41    0.4307        8.7785        0.0104       20.4722       20.4826      11.704130       9.73486
  40    0.5894        8.7770        0.0147       20.2637       20.2784      11.501428      10.77945
  39     1.339        8.7737        0.0332       19.0984       19.1315      10.357812      12.87503
  38     1.782        8.7743        0.0427       18.4394       18.4821       9.707774      12.37568
  37     2.292        8.7772        0.0530       17.7714       17.8244       9.047274      10.93960
  36     5.035        8.7900        0.0692       16.7265       16.7957       8.005657       3.20478
  35     6.613        8.8202        0.0964       15.5186       15.6150       6.794802       6.47323
  34     8.786        8.8605        0.1317       14.5590       14.6907       5.830212       3.74612
  33     11.80        8.9134        0.1805       13.7000       13.8805       4.967113       2.41641
  32     15.07        8.9646        0.2307       13.0749       13.3056       4.340993       1.61652
  31     18.79        9.0177        0.2860       12.5486       12.8346       3.816951       1.18816
  30     23.16        9.0741        0.3488       12.0732       12.4220       3.347872       0.90705
  29     28.12        9.1320        0.4189       11.6423       12.0612       2.929193       0.71173
  28     33.73        9.1856        0.4960       11.2628       11.7588       2.573269       0.53514
  27     40.54        9.2363        0.5880       10.8969       11.4849       2.248544       0.40286
  26     48.69        9.2843        0.6970       10.5353       11.2323       1.948031       0.31098
  25     57.69        9.3236        0.8149       10.2040       11.0189       1.695353       0.23685
  24     68.43        9.3553        0.9531        9.8713       10.8244       1.469081       0.17788
  23     81.20        9.3703        1.1162        9.5431       10.6593       1.288988       0.11900
  22     96.49        9.3664        1.3078        9.2107       10.5185       1.152087       0.07556
  21     114.6        9.3519        1.5290        8.8533       10.3823       1.030369       0.05683
  20     136.5        9.3300        1.7819        8.4618       10.2437       0.913711       0.04486
  19     162.9        9.3006        2.0700        8.0302       10.1002       0.799606       0.03647
  18     196.4        9.2514        2.4267        7.5240        9.9507       0.699281       0.02525
  17     218.7        9.2160        2.6510        7.2154        9.8664       0.650397       0.01856
  16     243.0        9.1772        2.8853        6.8972        9.7825       0.605291       0.01564
  15     269.0        9.1348        3.1290        6.5707        9.6996       0.564816       0.01313
  14     297.5        9.0889        3.3807        6.2374        9.6181       0.529161       0.01057
  13     328.5        9.0409        3.6396        5.8964        9.5360       0.495050       0.00927
  12     361.9        8.9913        3.9031        5.5509        9.4540       0.462632       0.00820
  11     398.1        8.9402        4.1706        5.2016        9.3722       0.431933       0.00715
  10     437.6        8.8882        4.4406        4.8500        9.2906       0.402363       0.00632
   9     480.5        8.8355        4.7109        4.4990        9.2098       0.374316       0.00551
   8     533.0        8.7749        5.0188        4.0999        9.1187       0.343769       0.00491
   7     589.8        8.7149        5.3221        3.7070        9.0291       0.314221       0.00439
   6     651.6        8.6565        5.6171        3.3248        8.9418       0.285342       0.00395
   5     718.7        8.6001        5.9020        2.9551        8.8572       0.257084       0.00355
   4     792.3        8.5465        6.1736        2.6023        8.7760       0.229454       0.00317
   3     825.4        7.6532        7.8489        0.0030        7.8518       0.198589       0.00788
   2     858.4        7.2394        7.4106        0.0000        7.4106       0.171222       0.00699
   1     891.5        6.1660        6.3139        0.0000        6.3139       0.147963       0.00594
   0    1013.0        6.1673        6.2925        0.0000        6.2925       0.125220       0.00158



 Wavenumbers: 38000. - 50000. cm-1, ATM      1
 LEVEL PRESSURE   UPWARD FLUX   DIFDOWN FLUX  DIRDOWN FLUX  DOWNWARD FLUX   NET FLUX    HEATING RATE
          mb          W/m2          W/m2          W/m2        W/m2          W/m2       degree/day
  51    .06700        0.0061        0.0000        1.2836        1.2836       1.277566       0.00000
  50    .07753        0.0060        0.0001        1.2812        1.2812       1.275231       1.87147
  49    .09103        0.0059        0.0002        1.2777        1.2778       1.271899       2.08243
  48    0.1069        0.0058        0.0002        1.2731        1.2734       1.267521       2.33056
  47    0.1255        0.0058        0.0004        1.2672        1.2675       1.261766       2.60905
  46    0.1487        0.0056        0.0005        1.2586        1.2591       1.253440       3.03495
  45    0.1794        0.0055        0.0007        1.2455        1.2462       1.240672       3.50516
  44    0.2165        0.0053        0.0009        1.2282        1.2291       1.223746       3.85033
  43    0.2613        0.0051        0.0011        1.2054        1.2065       1.201398       4.21256
  42    0.3336        0.0048        0.0015        1.1639        1.1654       1.160574       4.75965
  41    0.4307        0.0044        0.0020        1.1051        1.1070       1.102615       5.03937
  40    0.5894        0.0039        0.0026        1.0039        1.0064       1.002575       5.32000
  39     1.339        0.0022        0.0035        0.5438        0.5473       0.545166       5.14960
  38     1.782        0.0016        0.0032        0.3635        0.3666       0.365077       3.42860
  37     2.292        0.0011        0.0027        0.2356        0.2383       0.237147       2.11885
  36     5.035        0.0007        0.0019        0.1180        0.1199       0.119172       0.36298
  35     6.613        0.0004        0.0013        0.0504        0.0516       0.051220       0.36327
  34     8.786        0.0002        0.0009        0.0239        0.0248       0.024556       0.10355
  33     11.80        0.0001        0.0006        0.0105        0.0110       0.010913       0.03820
  32     15.07        0.0001        0.0004        0.0048        0.0052       0.005151       0.01488
  31     18.79        0.0000        0.0002        0.0022        0.0024       0.002406       0.00622
  30     23.16        0.0000        0.0001        0.0010        0.0011       0.001079       0.00257
  29     28.12        0.0000        0.0001        0.0004        0.0005       0.000469       0.00104
  28     33.73        0.0000        0.0000        0.0002        0.0002       0.000205       0.00040
  27     40.54        0.0000        0.0000        0.0001        0.0001       0.000083       0.00015
  26     48.69        0.0000        0.0000        0.0000        0.0000       0.000031       0.00005
  25     57.69        0.0000        0.0000        0.0000        0.0000       0.000011       0.00002
  24     68.43        0.0000        0.0000        0.0000        0.0000       0.000004       0.00001
  23     81.20        0.0000        0.0000        0.0000        0.0000       0.000001       0.00000
  22     96.49        0.0000        0.0000        0.0000        0.0000       0.000000       0.00000
  21     114.6        0.0000        0.0000        0.0000        0.0000       0.000000       0.00000
  20     136.5        0.0000        0.0000        0.0000        0.0000       0.000000       0.00000
  19     162.9        0.0000        0.0000        0.0000        0.0000       0.000000       0.00000
  18     196.4        0.0000        0.0000        0.0000        0.0000       0.000000       0.00000
  17     218.7        0.0000        0.0000        0.0000        0.0000       0.000000       0.00000
  16     243.0        0.0000        0.0000        0.0000        0.0000       0.000000       0.00000
  15     269.0        0.0000        0.0000        0.0000        0.0000       0.000000       0.00000
  14     297.5        0.0000        0.0000        0.0000        0.0000       0.000000       0.00000
  13     328.5        0.0000        0.0000        0.0000        0.0000       0.000000       0.00000
  12     361.9        0.0000        0.0000        0.0000        0.0000       0.000000       0.00000
  11     398.1        0.0000        0.0000        0.0000        0.0000       0.000000       0.00000
  10     437.6        0.0000        0.0000        0.0000        0.0000       0.000000       0.00000
   9     480.5        0.0000        0.0000        0.0000        0.0000       0.000000       0.00000
   8     533.0        0.0000        0.0000        0.0000        0.0000       0.000000       0.00000
   7     589.8        0.0000        0.0000        0.0000        0.0000       0.000000       0.00000
   6     651.6        0.0000        0.0000        0.0000        0.0000       0.000000       0.00000
   5     718.7        0.0000        0.0000        0.0000        0.0000       0.000000       0.00000
   4     792.3        0.0000        0.0000        0.0000        0.0000       0.000000       0.00000
   3     825.4        0.0000        0.0000        0.0000        0.0000       0.000000       0.00000
   2     858.4        0.0000        0.0000        0.0000        0.0000       0.000000       0.00000
   1     891.5        0.0000        0.0000        0.0000        0.0000       0.000000       0.00000
   0    1013.0        0.0000        0.0000        0.0000        0.0000       0.000000       0.00000



 Wavenumbers:   820. -  2600. cm-1, ATM      1
 LEVEL PRESSURE   UPWARD FLUX   DIFDOWN FLUX  DIRDOWN FLUX  DOWNWARD FLUX   NET FLUX    HEATING RATE
          mb          W/m2          W/m2          W/m2        W/m2          W/m2       degree/day
  51    .06700        1.5268        0.0000        6.0047        6.0047       4.477812       0.00000
  50    .07753        1.5268        0.0000        6.0008        6.0008       4.473959       3.08825
  49    .09103        1.5268        0.0000        5.9999        5.9999       4.473074       0.55361
  48    0.1069        1.5268        0.0000        5.9989        5.9989       4.472084       0.52656
  47    0.1255        1.5268        0.0000        5.9978        5.9978       4.470967       0.50653
  46    0.1487        1.5268        0.0000        5.9964        5.9964       4.469610       0.49461
  45    0.1794        1.5268        0.0000        5.9947        5.9947       4.467891       0.47204
  44    0.2165        1.5268        0.0000        5.9929        5.9929       4.466048       0.41914
  43    0.2613        1.5268        0.0000        5.9909        5.9909       4.464089       0.36937
  42    0.3336        1.5268        0.0000        5.9880        5.9880       4.461210       0.33560
  41    0.4307        1.5268        0.0000        5.9846        5.9846       4.457740       0.30169
  40    0.5894        1.5268        0.0000        5.9791        5.9791       4.452234       0.29281
  39     1.339        1.5268        0.0000        5.9536        5.9536       4.426742       0.28699
  38     1.782        1.5269        0.0000        5.9395        5.9395       4.412602       0.26922
  37     2.292        1.5269        0.0000        5.9237        5.9237       4.396847       0.26093
  36     5.035        1.5269        0.0000        5.8954        5.8954       4.368574       0.08699
  35     6.613        1.5269        0.0000        5.8469        5.8469       4.320066       0.25932
  34     8.786        1.5269        0.0000        5.7915        5.7915       4.264620       0.21533
  33     11.80        1.5269        0.0000        5.7245        5.7245       4.197545       0.18779
  32     15.07        1.5270        0.0000        5.6684        5.6684       4.141493       0.14471
  31     18.79        1.5270        0.0000        5.6231        5.6231       4.096071       0.10299
  30     23.16        1.5270        0.0000        5.5871        5.5871       4.060073       0.06961
  29     28.12        1.5271        0.0000        5.5583        5.5583       4.031229       0.04903
  28     33.73        1.5271        0.0000        5.5327        5.5328       4.005634       0.03848
  27     40.54        1.5272        0.0000        5.5051        5.5051       3.977895       0.03441
  26     48.69        1.5272        0.0000        5.4733        5.4733       3.946093       0.03291
  25     57.69        1.5273        0.0000        5.4393        5.4394       3.912033       0.03193
  24     68.43        1.5274        0.0000        5.3998        5.3999       3.872439       0.03113
  23     81.20        1.5275        0.0000        5.3545        5.3546       3.827033       0.03000
  22     96.49        1.5277        0.0000        5.3027        5.3028       3.775085       0.02867
  21     114.6        1.5278        0.0000        5.2431        5.2431       3.715257       0.02794
  20     136.5        1.5281        0.0000        5.1754        5.1755       3.647412       0.02609
  19     162.9        1.5284        0.0000        5.0924        5.0924       3.564030       0.02665
  18     196.4        1.5289        0.0000        4.9695        4.9695       3.440638       0.03106
  17     218.7        1.5294        0.0000        4.8606        4.8606       3.331227       0.04154
  16     243.0        1.5302        0.0000        4.7093        4.7093       3.179118       0.05276
  15     269.0        1.5315        0.0000        4.5352        4.5352       3.003740       0.05689
  14     297.5        1.5334        0.0000        4.3425        4.3426       2.809165       0.05771
  13     328.5        1.5361        0.0000        4.1286        4.1286       2.592593       0.05889
  12     361.9        1.5396        0.0000        3.8790        3.8791       2.339525       0.06403
  11     398.1        1.5441        0.0000        3.6162        3.6163       2.072159       0.06229
  10     437.6        1.5500        0.0000        3.3761        3.3761       1.826124       0.05260
   9     480.5        1.5572        0.0000        3.1959        3.1960       1.638744       0.03680
   8     533.0        1.5682        0.0000        3.0468        3.0468       1.478653       0.02575
   7     589.8        1.5844        0.0001        2.9024        2.9024       1.318029       0.02384
   6     651.6        1.6127        0.0001        2.7184        2.7185       1.105794       0.02902
   5     718.7        1.6616        0.0001        2.5059        2.5059       0.844290       0.03286
   4     792.3        1.7560        0.0001        2.2757        2.2757       0.519701       0.03723
   3     825.4        0.7596        0.9761        0.0027        0.9787       0.219140       0.07672
   2     858.4        0.4737        0.5689        0.0000        0.5689       0.095189       0.03164
   1     891.5        0.0561        0.1039        0.0000        0.1039       0.047871       0.01208
   0    1013.0        0.0651        0.0891        0.0000        0.0891       0.024062       0.00165

  Modules and versions used in this calculation:

       rrtmg_sw.1col.f90:  $Revision$                    rrtmg_sw_init.f90:  $Revision$        
     rrtmgsw_cldprop.f90:  $Revision$                  rrtmgsw_cldprmc.f90:  NOT USED          
     rrtmg_sw_reftra.f90:  $Revision$                  rrtmg_sw_spcvrt.f90:  NOT USED          
     rrtmg_sw_spcvmc.f90:  NOT USED                    rrtmgsw_setcoef.f90:  NOT USED          
     rrtmg_sw_taumol.f90:  $Revision$                  rrtmg_sw_vrtqdr.f90:  NOT USED          
                rrtatm.f:  NOT USED                             util_xxx.f:  NOT USED          
                 extra.f:  NOT USED                       rrtmg_sw_k_g.f90:  $Revision$        

