

 Wavenumbers:   820. - 50000. cm-1, ATM      1
 LEVEL PRESSURE   UPWARD FLUX   DIFDOWN FLUX  DIRDOWN FLUX  DOWNWARD FLUX   NET FLUX    HEATING RATE
          mb          W/m2          W/m2          W/m2        W/m2          W/m2       degree/day
  51    .06700      454.2719        0.0000      617.8126      617.8126     163.540704       0.00000
  50    .07753      454.2715        0.0014      617.7947      617.7961     163.524561      12.93915
  49    .09103      454.2711        0.0031      617.7778      617.7808     163.509747       9.25921
  48    0.1069      454.2706        0.0050      617.7581      617.7631     163.492480       9.19124
  47    0.1255      454.2701        0.0072      617.7340      617.7412     163.471128       9.67972
  46    0.1487      454.2695        0.0101      617.7009      617.7110     163.441433      10.82414
  45    0.1794      454.2688        0.0139      617.6521      617.6660     163.397189      12.14625
  44    0.2165      454.2681        0.0185      617.5895      617.6080     163.339849      13.04368
  43    0.2613      454.2674        0.0239      617.5089      617.5328     163.265313      14.04975
  42    0.3336      454.2666        0.0327      617.3641      617.3968     163.130185      15.75459
  41    0.4307      454.2660        0.0444      617.1591      617.2035     162.937499      16.75363
  40    0.5894      454.2660        0.0632      616.8005      616.8637     162.597691      18.07052
  39     1.339      454.2842        0.1483      614.9443      615.0925     160.808289      20.14542
  38     1.782      454.3078        0.1962      613.9670      614.1632     159.855395      18.14156
  37     2.292      454.3466        0.2507      613.0059      613.2565     158.909902      15.65984
  36     5.035      454.4609        0.3435      611.5124      611.8560     157.395051       4.66080
  35     6.613      454.7074        0.5075      609.6144      610.1220     155.414504      10.58801
  34     8.786      455.0292        0.7275      607.8253      608.5529     153.523679       7.34328
  33     11.80      455.4463        1.0404      605.8783      606.9187     151.472424       5.74287
  32     15.07      455.8436        1.3738      604.1777      605.5515     149.707957       4.55551
  31     18.79      456.2472        1.7487      602.5196      604.2682     148.021062       3.82471
  30     23.16      456.6664        2.1840      600.8127      602.9966     146.330230       3.26952
  29     28.12      457.0847        2.6793      599.0712      601.7505     144.665738       2.82952
  28     33.73      457.4634        3.2313      597.3500      600.5814     143.118028       2.32702
  27     40.54      457.8165        3.8958      595.5035      599.3993     141.582812       1.90461
  26     48.69      458.1412        4.6930      593.4958      598.1887     140.047556       1.58875
  25     57.69      458.3998        5.5642      591.4872      597.0514     138.651647       1.30845
  24     68.43      458.6014        6.5962      589.2939      595.8901     137.288735       1.07143
  23     81.20      458.6937        7.8197      586.9289      594.7486     136.054945       0.81527
  22     96.49      458.6665        9.2682      584.3423      593.6105     134.943992       0.61317
  21     114.6      458.5793       10.9722      581.4033      592.3755     133.796216       0.53593
  20     136.5      458.4311       12.9674      578.0541      591.0215     132.590397       0.46367
  19     162.9      458.2168       15.3088      574.1654      589.4742     131.257359       0.42609
  18     196.4      457.8514       18.2947      569.1760      587.4707     129.619236       0.41234
  17     218.7      457.5834       20.2252      565.6314      585.8566     128.273141       0.51106
  16     243.0      457.2850       22.2958      561.3129      583.6087     126.323735       0.67612
  15     269.0      456.9579       24.5080      555.9478      580.4558     123.497870       0.91670
  14     297.5      456.6085       26.8623      549.5394      576.4017     119.793202       1.09876
  13     328.5      456.2474       29.3654      542.6225      571.9879     115.740457       1.10193
  12     361.9      455.8833       32.0133      535.1469      567.1603     111.276983       1.12930
  11     398.1      455.5284       34.8108      526.9326      561.7435     106.215068       1.17931
  10     437.6      455.2067       37.7565      517.8921      555.6486     100.441859       1.23435
   9     480.5      454.9441       40.8483      508.2121      549.0604      94.116287       1.24232
   8     533.0      454.7746       44.5656      496.3783      540.9438      86.169206       1.27843
   7     589.8      454.8731       48.4663      483.5433      532.0096      77.136526       1.34075
   6     651.6      455.5631       52.5376      469.1414      521.6790      66.115879       1.50710
   5     718.7      457.3014       56.7712      453.6623      510.4335      53.132059       1.63171
   4     792.3      461.2959       61.1449      436.9145      498.0594      36.763511       1.87729
   3     825.4      335.1748      356.6516        0.5597      357.2113      22.036477       3.75899
   2     858.4      295.3450      311.4809        0.0007      311.4816      16.136618       1.50604
   1     891.5      197.8230      211.4672        0.0000      211.4672      13.644183       0.63643
   0    1013.0      198.4821      210.4336        0.0000      210.4336      11.951493       0.11753



 Wavenumbers:  2600. -  3250. cm-1, ATM      1
 LEVEL PRESSURE   UPWARD FLUX   DIFDOWN FLUX  DIRDOWN FLUX  DOWNWARD FLUX   NET FLUX    HEATING RATE
          mb          W/m2          W/m2          W/m2        W/m2          W/m2       degree/day
  51    .06700        1.9889        0.0000        5.4450        5.4450       3.456157       0.00000
  50    .07753        1.9889        0.0000        5.4450        5.4450       3.456149       0.00640
  49    .09103        1.9889        0.0000        5.4450        5.4450       3.456139       0.00627
  48    0.1069        1.9889        0.0000        5.4450        5.4450       3.456127       0.00613
  47    0.1255        1.9889        0.0000        5.4450        5.4450       3.456114       0.00599
  46    0.1487        1.9889        0.0000        5.4450        5.4450       3.456097       0.00608
  45    0.1794        1.9889        0.0000        5.4450        5.4450       3.456075       0.00625
  44    0.2165        1.9889        0.0000        5.4449        5.4449       3.456048       0.00612
  43    0.2613        1.9889        0.0000        5.4449        5.4449       3.456016       0.00600
  42    0.3336        1.9889        0.0000        5.4448        5.4448       3.455963       0.00617
  41    0.4307        1.9889        0.0000        5.4448        5.4448       3.455892       0.00620
  40    0.5894        1.9889        0.0000        5.4446        5.4446       3.455772       0.00637
  39     1.339        1.9889        0.0000        5.4439        5.4439       3.455064       0.00797
  38     1.782        1.9889        0.0000        5.4434        5.4434       3.454521       0.01034
  37     2.292        1.9889        0.0000        5.4427        5.4427       3.453805       0.01186
  36     5.035        1.9889        0.0000        5.4412        5.4412       3.452279       0.00470
  35     6.613        1.9889        0.0000        5.4381        5.4381       3.449201       0.01645
  34     8.786        1.9889        0.0000        5.4341        5.4341       3.445194       0.01556
  33     11.80        1.9889        0.0000        5.4288        5.4288       3.439947       0.01469
  32     15.07        1.9889        0.0000        5.4239        5.4239       3.435019       0.01272
  31     18.79        1.9889        0.0000        5.4191        5.4192       3.430273       0.01076
  30     23.16        1.9889        0.0000        5.4144        5.4144       3.425522       0.00919
  29     28.12        1.9889        0.0000        5.4096        5.4096       3.420685       0.00822
  28     33.73        1.9889        0.0000        5.4042        5.4042       3.415316       0.00807
  27     40.54        1.9889        0.0000        5.3972        5.3972       3.408284       0.00872
  26     48.69        1.9890        0.0000        5.3877        5.3877       3.398738       0.00988
  25     57.69        1.9890        0.0000        5.3759        5.3759       3.386890       0.01111
  24     68.43        1.9891        0.0000        5.3604        5.3604       3.371321       0.01224
  23     81.20        1.9891        0.0000        5.3405        5.3405       3.351377       0.01318
  22     96.49        1.9893        0.0000        5.3159        5.3159       3.326660       0.01364
  21     114.6        1.9894        0.0001        5.2857        5.2857       3.296262       0.01419
  20     136.5        1.9897        0.0001        5.2507        5.2508       3.261084       0.01353
  19     162.9        1.9900        0.0001        5.2113        5.2114       3.221367       0.01270
  18     196.4        1.9906        0.0001        5.1642        5.1643       3.173681       0.01200
  17     218.7        1.9912        0.0001        5.1333        5.1334       3.142145       0.01197
  16     243.0        1.9922        0.0001        5.0963        5.0964       3.104251       0.01314
  15     269.0        1.9937        0.0001        5.0512        5.0513       3.057597       0.01513
  14     297.5        1.9960        0.0001        4.9957        4.9958       2.999806       0.01714
  13     328.5        1.9992        0.0001        4.9304        4.9306       2.931365       0.01861
  12     361.9        2.0036        0.0002        4.8511        4.8513       2.847689       0.02117
  11     398.1        2.0097        0.0002        4.7507        4.7509       2.741190       0.02481
  10     437.6        2.0182        0.0002        4.6221        4.6222       2.604082       0.02931
   9     480.5        2.0299        0.0002        4.4625        4.4627       2.432771       0.03364
   8     533.0        2.0491        0.0002        4.2461        4.2463       2.197132       0.03791
   7     589.8        2.0785        0.0002        3.9954        3.9956       1.917097       0.04157
   6     651.6        2.1273        0.0002        3.7089        3.7091       1.581790       0.04585
   5     718.7        2.2084        0.0002        3.4018        3.4020       1.193633       0.04878
   4     792.3        2.3573        0.0002        3.0564        3.0567       0.699402       0.05668
   3     825.4        1.0554        1.3290        0.0035        1.3325       0.277170       0.10777
   2     858.4        0.6746        0.8077        0.0000        0.8077       0.133150       0.03676
   1     891.5        0.0006        0.0882        0.0000        0.0882       0.087632       0.01162
   0    1013.0        0.0007        0.0803        0.0000        0.0803       0.079691       0.00055



 Wavenumbers:  3250. -  4000. cm-1, ATM      1
 LEVEL PRESSURE   UPWARD FLUX   DIFDOWN FLUX  DIRDOWN FLUX  DOWNWARD FLUX   NET FLUX    HEATING RATE
          mb          W/m2          W/m2          W/m2        W/m2          W/m2       degree/day
  51    .06700        0.0576        0.0000        9.1795        9.1795       9.121922       0.00000
  50    .07753        0.0576        0.0000        9.1747        9.1747       9.117079       3.88162
  49    .09103        0.0576        0.0000        9.1713        9.1713       9.113691       2.11758
  48    0.1069        0.0576        0.0000        9.1688        9.1688       9.111166       1.34411
  47    0.1255        0.0576        0.0000        9.1665        9.1665       9.108906       1.02430
  46    0.1487        0.0576        0.0000        9.1641        9.1641       9.106465       0.88998
  45    0.1794        0.0576        0.0000        9.1612        9.1612       9.103587       0.79014
  44    0.2165        0.0576        0.0000        9.1583        9.1583       9.100666       0.66436
  43    0.2613        0.0576        0.0000        9.1553        9.1553       9.097693       0.56046
  42    0.3336        0.0576        0.0000        9.1511        9.1511       9.093514       0.48727
  41    0.4307        0.0576        0.0000        9.1464        9.1464       9.088745       0.41463
  40    0.5894        0.0576        0.0000        9.1393        9.1393       9.081739       0.37258
  39     1.339        0.0576        0.0000        9.1127        9.1127       9.055123       0.29965
  38     1.782        0.0576        0.0000        9.1011        9.1011       9.043534       0.22064
  37     2.292        0.0576        0.0000        9.0901        9.0901       9.032466       0.18331
  36     5.035        0.0576        0.0000        9.0731        9.0731       9.015534       0.05210
  35     6.613        0.0576        0.0000        9.0438        9.0439       8.986253       0.15653
  34     8.786        0.0576        0.0000        9.0058        9.0058       8.948168       0.14791
  33     11.80        0.0576        0.0000        8.9509        8.9509       8.893297       0.15362
  32     15.07        0.0576        0.0000        8.8914        8.8914       8.833818       0.15356
  31     18.79        0.0576        0.0000        8.8241        8.8242       8.766583       0.15244
  30     23.16        0.0576        0.0000        8.7473        8.7474       8.689771       0.14853
  29     28.12        0.0576        0.0000        8.6639        8.6640       8.606389       0.14174
  28     33.73        0.0576        0.0000        8.5784        8.5784       8.520878       0.12857
  27     40.54        0.0576        0.0001        8.4859        8.4860       8.428405       0.11472
  26     48.69        0.0575        0.0001        8.3873        8.3873       8.329781       0.10206
  25     57.69        0.0575        0.0001        8.2887        8.2888       8.231231       0.09238
  24     68.43        0.0575        0.0001        8.1771        8.1772       8.119714       0.08767
  23     81.20        0.0575        0.0001        8.0474        8.0475       7.989994       0.08572
  22     96.49        0.0575        0.0001        7.8963        7.8965       7.838981       0.08335
  21     114.6        0.0575        0.0001        7.7173        7.7174       7.659971       0.08359
  20     136.5        0.0574        0.0002        7.5201        7.5203       7.462855       0.07580
  19     162.9        0.0574        0.0002        7.2919        7.2921       7.234724       0.07292
  18     196.4        0.0574        0.0002        6.9664        6.9666       6.909211       0.08194
  17     218.7        0.0574        0.0002        6.6650        6.6652       6.607854       0.11441
  16     243.0        0.0574        0.0002        6.2620        6.2622       6.204870       0.13977
  15     269.0        0.0574        0.0003        5.7575        5.7578       5.700364       0.16366
  14     297.5        0.0575        0.0003        5.1717        5.1720       5.114442       0.17378
  13     328.5        0.0577        0.0002        4.5755        4.5757       4.517992       0.16217
  12     361.9        0.0581        0.0002        3.9992        3.9995       3.941397       0.14588
  11     398.1        0.0586        0.0002        3.4651        3.4653       3.406705       0.12457
  10     437.6        0.0596        0.0002        2.9736        2.9739       2.914248       0.10529
   9     480.5        0.0612        0.0002        2.5303        2.5305       2.469276       0.08739
   8     533.0        0.0643        0.0002        2.0610        2.0612       1.996920       0.07599
   7     589.8        0.0699        0.0002        1.6146        1.6148       1.544912       0.06709
   6     651.6        0.0816        0.0001        1.1562        1.1563       1.074688       0.06430
   5     718.7        0.1075        0.0001        0.7388        0.7389       0.631374       0.05571
   4     792.3        0.1767        0.0001        0.3984        0.3984       0.221684       0.04699
   3     825.4        0.0104        0.0269        0.0002        0.0271       0.016684       0.05233
   2     858.4        0.0013        0.0024        0.0000        0.0024       0.001047       0.00399
   1     891.5        0.0000        0.0000        0.0000        0.0000       0.000026       0.00026
   0    1013.0        0.0000        0.0000        0.0000        0.0000       0.000003       0.00000



 Wavenumbers:  4000. -  4650. cm-1, ATM      1
 LEVEL PRESSURE   UPWARD FLUX   DIFDOWN FLUX  DIRDOWN FLUX  DOWNWARD FLUX   NET FLUX    HEATING RATE
          mb          W/m2          W/m2          W/m2        W/m2          W/m2       degree/day
  51    .06700        6.6645        0.0000       10.7795       10.7795       4.115017       0.00000
  50    .07753        6.6645        0.0000       10.7795       10.7795       4.115016       0.00080
  49    .09103        6.6645        0.0000       10.7795       10.7795       4.115015       0.00078
  48    0.1069        6.6645        0.0000       10.7795       10.7795       4.115013       0.00077
  47    0.1255        6.6645        0.0000       10.7795       10.7795       4.115012       0.00075
  46    0.1487        6.6645        0.0000       10.7795       10.7795       4.115010       0.00076
  45    0.1794        6.6645        0.0000       10.7795       10.7795       4.115007       0.00078
  44    0.2165        6.6645        0.0000       10.7795       10.7795       4.115004       0.00076
  43    0.2613        6.6645        0.0000       10.7795       10.7795       4.115000       0.00075
  42    0.3336        6.6645        0.0000       10.7795       10.7795       4.114993       0.00077
  41    0.4307        6.6645        0.0000       10.7795       10.7795       4.114984       0.00077
  40    0.5894        6.6645        0.0000       10.7795       10.7795       4.114969       0.00080
  39     1.339        6.6645        0.0000       10.7794       10.7794       4.114880       0.00101
  38     1.782        6.6645        0.0000       10.7793       10.7793       4.114810       0.00133
  37     2.292        6.6645        0.0000       10.7792       10.7792       4.114715       0.00156
  36     5.035        6.6645        0.0000       10.7790       10.7790       4.114507       0.00064
  35     6.613        6.6645        0.0000       10.7785       10.7786       4.114053       0.00243
  34     8.786        6.6645        0.0000       10.7779       10.7779       4.113383       0.00260
  33     11.80        6.6645        0.0000       10.7768       10.7768       4.112329       0.00295
  32     15.07        6.6645        0.0001       10.7755       10.7756       4.111093       0.00319
  31     18.79        6.6645        0.0001       10.7740       10.7741       4.109597       0.00339
  30     23.16        6.6645        0.0001       10.7722       10.7723       4.107738       0.00359
  29     28.12        6.6645        0.0001       10.7699       10.7700       4.105485       0.00383
  28     33.73        6.6646        0.0002       10.7671       10.7673       4.102706       0.00418
  27     40.54        6.6646        0.0002       10.7633       10.7635       4.098931       0.00468
  26     48.69        6.6647        0.0002       10.7583       10.7586       4.093897       0.00521
  25     57.69        6.6648        0.0003       10.7524       10.7527       4.087920       0.00560
  24     68.43        6.6649        0.0003       10.7450       10.7453       4.080417       0.00590
  23     81.20        6.6651        0.0004       10.7359       10.7363       4.071162       0.00612
  22     96.49        6.6655        0.0005       10.7249       10.7253       4.059875       0.00623
  21     114.6        6.6659        0.0006       10.7111       10.7116       4.045727       0.00661
  20     136.5        6.6666        0.0007       10.6945       10.6952       4.028634       0.00657
  19     162.9        6.6675        0.0008       10.6744       10.6752       4.007604       0.00672
  18     196.4        6.6692        0.0010       10.6467       10.6476       3.978454       0.00734
  17     218.7        6.6706        0.0011       10.6258       10.6268       3.956182       0.00846
  16     243.0        6.6728        0.0012       10.5983       10.5995       3.926738       0.01021
  15     269.0        6.6759        0.0013       10.5613       10.5627       3.886715       0.01298
  14     297.5        6.6806        0.0015       10.5122       10.5136       3.833049       0.01592
  13     328.5        6.6869        0.0016       10.4501       10.4517       3.764752       0.01857
  12     361.9        6.6953        0.0018       10.3704       10.3721       3.676855       0.02224
  11     398.1        6.7057        0.0019       10.2679       10.2699       3.564112       0.02627
  10     437.6        6.7191        0.0021       10.1391       10.1412       3.422065       0.03037
   9     480.5        6.7363        0.0023        9.9878        9.9901       3.253738       0.03306
   8     533.0        6.7628        0.0025        9.7937        9.7962       3.033401       0.03545
   7     589.8        6.8013        0.0027        9.5752        9.5779       2.776639       0.03811
   6     651.6        6.8635        0.0029        9.2958        9.2988       2.435263       0.04668
   5     718.7        6.9687        0.0031        8.9267        8.9299       1.961160       0.05958
   4     792.3        7.1684        0.0033        8.4542        8.4576       1.289170       0.07707
   3     825.4        3.9969        4.6764        0.0105        4.6869       0.690052       0.15292
   2     858.4        2.8151        3.2839        0.0000        3.2839       0.468781       0.05648
   1     891.5        0.0257        0.4179        0.0000        0.4179       0.392201       0.01955
   0    1013.0        0.0265        0.4030        0.0000        0.4030       0.376461       0.00109



 Wavenumbers:  4650. -  5150. cm-1, ATM      1
 LEVEL PRESSURE   UPWARD FLUX   DIFDOWN FLUX  DIRDOWN FLUX  DOWNWARD FLUX   NET FLUX    HEATING RATE
          mb          W/m2          W/m2          W/m2        W/m2          W/m2       degree/day
  51    .06700        4.7742        0.0000       10.2033       10.2033       5.429174       0.00000
  50    .07753        4.7742        0.0000       10.2031       10.2031       5.428938       0.18901
  49    .09103        4.7742        0.0000       10.2028       10.2028       5.428643       0.18428
  48    0.1069        4.7742        0.0000       10.2025       10.2025       5.428306       0.17931
  47    0.1255        4.7742        0.0000       10.2021       10.2021       5.427922       0.17426
  46    0.1487        4.7742        0.0000       10.2016       10.2016       5.427441       0.17536
  45    0.1794        4.7742        0.0000       10.2010       10.2010       5.426791       0.17850
  44    0.2165        4.7742        0.0000       10.2002       10.2002       5.426031       0.17277
  43    0.2613        4.7742        0.0000       10.1993       10.1993       5.425146       0.16690
  42    0.3336        4.7742        0.0000       10.1979       10.1979       5.423713       0.16702
  41    0.4307        4.7742        0.0000       10.1960       10.1960       5.421873       0.16002
  40    0.5894        4.7742        0.0000       10.1932       10.1932       5.418999       0.15283
  39     1.339        4.7742        0.0000       10.1816       10.1816       5.407407       0.13051
  38     1.782        4.7742        0.0000       10.1760       10.1760       5.401877       0.10527
  37     2.292        4.7742        0.0000       10.1706       10.1706       5.396420       0.09039
  36     5.035        4.7742        0.0000       10.1630       10.1630       5.388833       0.02334
  35     6.613        4.7742        0.0000       10.1533       10.1533       5.379123       0.05191
  34     8.786        4.7742        0.0000       10.1442       10.1442       5.370028       0.03532
  33     11.80        4.7742        0.0001       10.1340       10.1341       5.359878       0.02842
  32     15.07        4.7742        0.0001       10.1237       10.1238       5.349602       0.02653
  31     18.79        4.7743        0.0001       10.1115       10.1117       5.337394       0.02768
  30     23.16        4.7743        0.0002       10.0961       10.0963       5.321921       0.02992
  29     28.12        4.7744        0.0002       10.0769       10.0771       5.302633       0.03279
  28     33.73        4.7746        0.0002       10.0536       10.0539       5.279301       0.03508
  27     40.54        4.7747        0.0003       10.0235       10.0238       5.249080       0.03749
  26     48.69        4.7750        0.0003        9.9852        9.9855       5.210485       0.03994
  25     57.69        4.7753        0.0004        9.9414        9.9418       5.166439       0.04129
  24     68.43        4.7758        0.0005        9.8884        9.8889       5.113054       0.04197
  23     81.20        4.7765        0.0006        9.8258        9.8263       5.049831       0.04178
  22     96.49        4.7774        0.0007        9.7537        9.7544       4.976958       0.04022
  21     114.6        4.7787        0.0008        9.6735        9.6743       4.895579       0.03800
  20     136.5        4.7805        0.0009        9.5870        9.5879       4.807467       0.03388
  19     162.9        4.7829        0.0011        9.4949        9.4960       4.713091       0.03017
  18     196.4        4.7867        0.0013        9.3889        9.3902       4.603474       0.02759
  17     218.7        4.7897        0.0015        9.3234        9.3249       4.535153       0.02594
  16     243.0        4.7936        0.0016        9.2524        9.2540       4.460409       0.02592
  15     269.0        4.7988        0.0018        9.1720        9.1738       4.375003       0.02771
  14     297.5        4.8060        0.0020        9.0765        9.0785       4.272507       0.03040
  13     328.5        4.8154        0.0022        8.9652        8.9673       4.151912       0.03279
  12     361.9        4.8276        0.0023        8.8351        8.8375       4.009856       0.03594
  11     398.1        4.8434        0.0026        8.6822        8.6847       3.841319       0.03927
  10     437.6        4.8640        0.0028        8.5030        8.5057       3.641711       0.04268
   9     480.5        4.8908        0.0030        8.2950        8.2979       3.407122       0.04607
   8     533.0        4.9318        0.0032        8.0210        8.0242       3.092484       0.05062
   7     589.8        4.9888        0.0035        7.7064        7.7099       2.721123       0.05512
   6     651.6        5.0734        0.0037        7.3413        7.3450       2.271616       0.06147
   5     718.7        5.2019        0.0039        6.9387        6.9426       1.740743       0.06672
   4     792.3        5.4085        0.0041        6.5066        6.5108       1.102237       0.07323
   3     825.4        2.8525        3.4055        0.0080        3.4135       0.560985       0.13815
   2     858.4        1.9560        2.2986        0.0000        2.2986       0.342623       0.05574
   1     891.5        0.0045        0.2737        0.0000        0.2737       0.269143       0.01876
   0    1013.0        0.0047        0.2616        0.0000        0.2616       0.256913       0.00085



 Wavenumbers:  5150. -  6150. cm-1, ATM      1
 LEVEL PRESSURE   UPWARD FLUX   DIFDOWN FLUX  DIRDOWN FLUX  DOWNWARD FLUX   NET FLUX    HEATING RATE
          mb          W/m2          W/m2          W/m2        W/m2          W/m2       degree/day
  51    .06700       11.5232        0.0000       25.5798       25.5798      14.056618       0.00000
  50    .07753       11.5232        0.0000       25.5798       25.5798      14.056579       0.03162
  49    .09103       11.5232        0.0000       25.5797       25.5797      14.056527       0.03211
  48    0.1069       11.5232        0.0000       25.5797       25.5797      14.056466       0.03262
  47    0.1255       11.5232        0.0000       25.5796       25.5796      14.056393       0.03312
  46    0.1487       11.5232        0.0000       25.5795       25.5795      14.056297       0.03489
  45    0.1794       11.5232        0.0000       25.5794       25.5794      14.056162       0.03713
  44    0.2165       11.5232        0.0000       25.5792       25.5792      14.055996       0.03769
  43    0.2613       11.5232        0.0000       25.5790       25.5790      14.055793       0.03827
  42    0.3336       11.5232        0.0000       25.5786       25.5786      14.055446       0.04044
  41    0.4307       11.5232        0.0000       25.5782       25.5782      14.054975       0.04098
  40    0.5894       11.5232        0.0000       25.5774       25.5774      14.054186       0.04199
  39     1.339       11.5232        0.0000       25.5735       25.5736      14.050381       0.04283
  38     1.782       11.5232        0.0001       25.5713       25.5714      14.048165       0.04218
  37     2.292       11.5232        0.0001       25.5688       25.5688      14.045657       0.04154
  36     5.035       11.5232        0.0001       25.5647       25.5648      14.041556       0.01262
  35     6.613       11.5232        0.0002       25.5576       25.5578      14.034565       0.03738
  34     8.786       11.5232        0.0002       25.5485       25.5487      14.025504       0.03519
  33     11.80       11.5233        0.0003       25.5362       25.5365      14.013247       0.03431
  32     15.07       11.5233        0.0004       25.5239       25.5243      14.000954       0.03174
  31     18.79       11.5234        0.0005       25.5110       25.5115      13.988099       0.02915
  30     23.16       11.5235        0.0007       25.4971       25.4977      13.974248       0.02678
  29     28.12       11.5236        0.0008       25.4824       25.4833      13.959639       0.02483
  28     33.73       11.5238        0.0010       25.4676       25.4686      13.944825       0.02227
  27     40.54       11.5240        0.0012       25.4514       25.4526      13.928608       0.02012
  26     48.69       11.5244        0.0015       25.4341       25.4356      13.911218       0.01800
  25     57.69       11.5248        0.0018       25.4169       25.4187      13.893929       0.01621
  24     68.43       11.5253        0.0021       25.3983       25.4004      13.875135       0.01477
  23     81.20       11.5260        0.0026       25.3779       25.3804      13.854434       0.01368
  22     96.49       11.5268        0.0030       25.3550       25.3580      13.831164       0.01284
  21     114.6       11.5279        0.0036       25.3288       25.3324      13.804486       0.01246
  20     136.5       11.5292        0.0043       25.2983       25.3027      13.773463       0.01193
  19     162.9       11.5308        0.0051       25.2537       25.2588      13.728033       0.01452
  18     196.4       11.5330        0.0062       25.1601       25.1663      13.633312       0.02384
  17     218.7       11.5346        0.0069       25.0164       25.0232      13.488608       0.05494
  16     243.0       11.5366        0.0076       24.7092       24.7168      13.180215       0.10696
  15     269.0       11.5391        0.0083       24.1621       24.1704      12.631292       0.17807
  14     297.5       11.5425        0.0090       23.4546       23.4636      11.921084       0.21064
  13     328.5       11.5469        0.0097       22.7357       22.7454      11.198451       0.19648
  12     361.9       11.5527        0.0104       21.9226       21.9330      10.380321       0.20699
  11     398.1       11.5605        0.0111       20.9941       21.0052       9.444742       0.21797
  10     437.6       11.5712        0.0118       19.9835       19.9953       8.424097       0.21822
   9     480.5       11.5860        0.0125       18.9485       18.9609       7.374916       0.20606
   8     533.0       11.6110        0.0132       17.7798       17.7930       6.181924       0.19191
   7     589.8       11.6515        0.0140       16.6727       16.6867       5.035201       0.17021
   6     651.6       11.7254        0.0148       15.6344       15.6492       3.923798       0.15199
   5     718.7       11.8610        0.0157       14.7739       14.7896       2.928634       0.12506
   4     792.3       12.1325        0.0166       14.0292       14.0459       1.913345       0.11644
   3     825.4        7.0903        8.1536        0.0177        8.1713       1.080936       0.21247
   2     858.4        5.1164        5.9260        0.0000        5.9260       0.809625       0.06926
   1     891.5        0.0614        0.7881        0.0000        0.7881       0.726621       0.02119
   0    1013.0        0.0625        0.7718        0.0000        0.7718       0.709309       0.00120



 Wavenumbers:  6150. -  7700. cm-1, ATM      1
 LEVEL PRESSURE   UPWARD FLUX   DIFDOWN FLUX  DIRDOWN FLUX  DOWNWARD FLUX   NET FLUX    HEATING RATE
          mb          W/m2          W/m2          W/m2        W/m2          W/m2       degree/day
  51    .06700       18.2372        0.0000       47.3109       47.3109      29.073684       0.00000
  50    .07753       18.2372        0.0000       47.3108       47.3108      29.073627       0.04553
  49    .09103       18.2372        0.0000       47.3107       47.3107      29.073554       0.04583
  48    0.1069       18.2372        0.0000       47.3106       47.3106      29.073467       0.04614
  47    0.1255       18.2372        0.0000       47.3105       47.3105      29.073365       0.04645
  46    0.1487       18.2372        0.0000       47.3104       47.3104      29.073232       0.04852
  45    0.1794       18.2372        0.0000       47.3102       47.3102      29.073045       0.05127
  44    0.2165       18.2372        0.0000       47.3100       47.3100      29.072818       0.05167
  43    0.2613       18.2372        0.0000       47.3097       47.3097      29.072541       0.05210
  42    0.3336       18.2372        0.0000       47.3092       47.3092      29.072072       0.05471
  41    0.4307       18.2371        0.0000       47.3085       47.3086      29.071437       0.05521
  40    0.5894       18.2371        0.0001       47.3074       47.3075      29.070378       0.05633
  39     1.339       18.2371        0.0002       47.3022       47.3024      29.065285       0.05733
  38     1.782       18.2370        0.0002       47.2991       47.2994      29.062315       0.05655
  37     2.292       18.2370        0.0003       47.2956       47.2959      29.058939       0.05591
  36     5.035       18.2369        0.0004       47.2899       47.2903      29.053364       0.01715
  35     6.613       18.2368        0.0006       47.2800       47.2806      29.043788       0.05119
  34     8.786       18.2367        0.0009       47.2670       47.2679      29.031244       0.04872
  33     11.80       18.2364        0.0013       47.2491       47.2504      29.014008       0.04826
  32     15.07       18.2362        0.0017       47.2308       47.2326      28.996383       0.04550
  31     18.79       18.2359        0.0022       47.2112       47.2134      28.977547       0.04271
  30     23.16       18.2356        0.0028       47.1895       47.1923      28.956770       0.04018
  29     28.12       18.2352        0.0035       47.1661       47.1696      28.934366       0.03808
  28     33.73       18.2348        0.0042       47.1416       47.1458      28.911027       0.03509
  27     40.54       18.2343        0.0051       47.1141       47.1192      28.884934       0.03237
  26     48.69       18.2336        0.0062       47.0837       47.0898      28.856194       0.02974
  25     57.69       18.2330        0.0074       47.0527       47.0601      28.827097       0.02727
  24     68.43       18.2322        0.0088       47.0183       47.0270      28.794855       0.02535
  23     81.20       18.2312        0.0104       46.9796       46.9900      28.758826       0.02381
  22     96.49       18.2301        0.0124       46.9356       46.9480      28.717917       0.02258
  21     114.6       18.2288        0.0148       46.8846       46.8994      28.670681       0.02206
  20     136.5       18.2272        0.0176       46.8250       46.8426      28.615419       0.02125
  19     162.9       18.2253        0.0210       46.7403       46.7613      28.535991       0.02539
  18     196.4       18.2231        0.0253       46.5732       46.5986      28.375445       0.04041
  17     218.7       18.2219        0.0281       46.3491       46.3772      28.155380       0.08355
  16     243.0       18.2209        0.0311       45.9309       45.9620      27.741081       0.14369
  15     269.0       18.2206        0.0340       45.1716       45.2056      26.984974       0.24528
  14     297.5       18.2219        0.0370       44.0121       44.0490      25.827126       0.34340
  13     328.5       18.2252        0.0399       42.7247       42.7646      24.539418       0.35012
  12     361.9       18.2316        0.0430       41.3543       41.3973      23.165717       0.34756
  11     398.1       18.2428        0.0460       39.7956       39.8416      21.598826       0.36505
  10     437.6       18.2617        0.0488       37.9951       38.0439      19.782198       0.38841
   9     480.5       18.2920        0.0515       36.0650       36.1165      17.824533       0.38448
   8     533.0       18.3491        0.0545       33.7776       33.8320      15.482986       0.37668
   7     589.8       18.4486        0.0572       31.4085       31.4656      13.017061       0.36602
   6     651.6       18.6407        0.0595       28.8836       28.9431      10.302397       0.37124
   5     718.7       19.0081        0.0615       26.4106       26.4721       7.463984       0.35671
   4     792.3       19.7890        0.0632       24.0058       24.0691       4.280061       0.36516
   3     825.4       10.6454       12.5368        0.0287       12.5655       1.920101       0.60237
   2     858.4        7.4825        8.7180        0.0000        8.7181       1.235607       0.17473
   1     891.5        0.1677        1.1952        0.0000        1.1952       1.027554       0.05313
   0    1013.0        0.1724        1.1549        0.0000        1.1549       0.982467       0.00313



 Wavenumbers:  7700. -  8050. cm-1, ATM      1
 LEVEL PRESSURE   UPWARD FLUX   DIFDOWN FLUX  DIRDOWN FLUX  DOWNWARD FLUX   NET FLUX    HEATING RATE
          mb          W/m2          W/m2          W/m2        W/m2          W/m2       degree/day
  51    .06700        8.5400        0.0000       11.1810       11.1810       2.640940       0.00000
  50    .07753        8.5400        0.0000       11.1809       11.1809       2.640916       0.01901
  49    .09103        8.5400        0.0000       11.1809       11.1809       2.640887       0.01863
  48    0.1069        8.5400        0.0000       11.1809       11.1809       2.640852       0.01824
  47    0.1255        8.5401        0.0000       11.1809       11.1809       2.640813       0.01785
  46    0.1487        8.5401        0.0000       11.1808       11.1808       2.640763       0.01811
  45    0.1794        8.5401        0.0000       11.1808       11.1808       2.640695       0.01864
  44    0.2165        8.5401        0.0000       11.1807       11.1807       2.640615       0.01828
  43    0.2613        8.5401        0.0000       11.1806       11.1806       2.640520       0.01794
  42    0.3336        8.5402        0.0000       11.1805       11.1805       2.640362       0.01836
  41    0.4307        8.5402        0.0000       11.1803       11.1804       2.640153       0.01816
  40    0.5894        8.5403        0.0000       11.1801       11.1801       2.639812       0.01814
  39     1.339        8.5407        0.0001       11.1788       11.1789       2.638199       0.01817
  38     1.782        8.5409        0.0001       11.1781       11.1782       2.637251       0.01805
  37     2.292        8.5412        0.0001       11.1772       11.1773       2.636153       0.01818
  36     5.035        8.5417        0.0002       11.1757       11.1759       2.634249       0.00586
  35     6.613        8.5425        0.0003       11.1731       11.1734       2.630867       0.01808
  34     8.786        8.5436        0.0004       11.1695       11.1699       2.626310       0.01770
  33     11.80        8.5452        0.0006       11.1644       11.1650       2.619794       0.01824
  32     15.07        8.5469        0.0008       11.1589       11.1597       2.612802       0.01805
  31     18.79        8.5489        0.0010       11.1528       11.1538       2.604908       0.01790
  30     23.16        8.5512        0.0013       11.1456       11.1469       2.595697       0.01781
  29     28.12        8.5538        0.0016       11.1374       11.1390       2.585175       0.01789
  28     33.73        8.5568        0.0020       11.1282       11.1302       2.573416       0.01768
  27     40.54        8.5604        0.0024       11.1172       11.1196       2.559235       0.01759
  26     48.69        8.5647        0.0029       11.1040       11.1069       2.542175       0.01765
  25     57.69        8.5695        0.0034       11.0896       11.0930       2.523485       0.01752
  24     68.43        8.5753        0.0041       11.0725       11.0766       2.501293       0.01745
  23     81.20        8.5822        0.0049       11.0523       11.0571       2.474952       0.01741
  22     96.49        8.5905        0.0058       11.0284       11.0342       2.443703       0.01725
  21     114.6        8.6005        0.0069       11.0004       11.0073       2.406792       0.01723
  20     136.5        8.6124        0.0082       10.9676       10.9757       2.363305       0.01672
  19     162.9        8.6269        0.0097       10.9290       10.9388       2.311865       0.01644
  18     196.4        8.6460        0.0117       10.8799       10.8917       2.245677       0.01666
  17     218.7        8.6588        0.0131       10.8482       10.8612       2.202469       0.01640
  16     243.0        8.6729        0.0145       10.8140       10.8285       2.155666       0.01623
  15     269.0        8.6884        0.0160       10.7774       10.7935       2.105045       0.01642
  14     297.5        8.7056        0.0177       10.7382       10.7559       2.050306       0.01623
  13     328.5        8.7246        0.0195       10.6962       10.7157       1.991046       0.01611
  12     361.9        8.7458        0.0215       10.6512       10.6727       1.926946       0.01622
  11     398.1        8.7693        0.0236       10.6031       10.6266       1.857368       0.01621
  10     437.6        8.7956        0.0258       10.5513       10.5771       1.781517       0.01622
   9     480.5        8.8252        0.0282       10.4956       10.5239       1.698642       0.01628
   8     533.0        8.8638        0.0312       10.4264       10.4576       1.593801       0.01687
   7     589.8        8.9088        0.0344       10.3500       10.3843       1.475541       0.01755
   6     651.6        8.9628        0.0378       10.2633       10.3011       1.338338       0.01876
   5     718.7        9.0290        0.0414       10.1637       10.2051       1.176112       0.02039
   4     792.3        9.1132        0.0453       10.0457       10.0910       0.977809       0.02274
   3     825.4        5.6828        6.4298        0.0133        6.4431       0.760379       0.05550
   2     858.4        4.2097        4.8240        0.0000        4.8240       0.614295       0.03729
   1     891.5        0.3870        0.9323        0.0000        0.9323       0.545363       0.01760
   0    1013.0        0.3944        0.9142        0.0000        0.9142       0.519805       0.00177



 Wavenumbers:  8050. - 12850. cm-1, ATM      1
 LEVEL PRESSURE   UPWARD FLUX   DIFDOWN FLUX  DIRDOWN FLUX  DOWNWARD FLUX   NET FLUX    HEATING RATE
          mb          W/m2          W/m2          W/m2        W/m2          W/m2       degree/day
  51    .06700      111.4904        0.0000      156.5418      156.5418      45.051321       0.00000
  50    .07753      111.4904        0.0000      156.5417      156.5417      45.051321      -0.00000
  49    .09103      111.4904        0.0001      156.5417      156.5417      45.051321       0.00000
  48    0.1069      111.4904        0.0001      156.5416      156.5417      45.051321      -0.00000
  47    0.1255      111.4904        0.0002      156.5415      156.5417      45.051321       0.00000
  46    0.1487      111.4904        0.0002      156.5414      156.5417      45.051321      -0.00000
  45    0.1794      111.4903        0.0003      156.5413      156.5416      45.051321       0.00000
  44    0.2165      111.4903        0.0005      156.5412      156.5416      45.051321       0.00000
  43    0.2613      111.4902        0.0006      156.5410      156.5416      45.051321       0.00000
  42    0.3336      111.4902        0.0008      156.5407      156.5415      45.051321      -0.00000
  41    0.4307      111.4901        0.0011      156.5403      156.5414      45.051321       0.00000
  40    0.5894      111.4899        0.0016      156.5397      156.5412      45.051321       0.00000
  39     1.339      111.4892        0.0038      156.5367      156.5405      45.051321      -0.00000
  38     1.782      111.4888        0.0051      156.5350      156.5401      45.051321      -0.00000
  37     2.292      111.4883        0.0066      156.5330      156.5396      45.051321       0.00000
  36     5.035      111.4875        0.0093      156.5295      156.5388      45.051321       0.00000
  35     6.613      111.4860        0.0140      156.5233      156.5373      45.051321      -0.00000
  34     8.786      111.4839        0.0203      156.5149      156.5352      45.051321       0.00000
  33     11.80      111.4810        0.0294      156.5029      156.5323      45.051321      -0.00000
  32     15.07      111.4779        0.0391      156.4901      156.5292      45.051321       0.00000
  31     18.79      111.4744        0.0502      156.4755      156.5257      45.051321      -0.00000
  30     23.16      111.4702        0.0631      156.4585      156.5215      45.051321       0.00000
  29     28.12      111.4655        0.0778      156.4390      156.5168      45.051321       0.00000
  28     33.73      111.4602        0.0944      156.4171      156.5115      45.051321      -0.00000
  27     40.54      111.4538        0.1144      156.3907      156.5051      45.051321       0.00000
  26     48.69      111.4460        0.1386      156.3588      156.4974      45.051321      -0.00000
  25     57.69      111.4375        0.1651      156.3237      156.4888      45.051321      -0.00000
  24     68.43      111.4274        0.1969      156.2818      156.4787      45.051321       0.00000
  23     81.20      111.4152        0.2347      156.2319      156.4665      45.051321       0.00000
  22     96.49      111.4007        0.2799      156.1722      156.4521      45.051321      -0.00000
  21     114.6      111.3838        0.3336      156.0952      156.4288      45.045040       0.00293
  20     136.5      111.3636        0.3974      156.0034      156.4008      45.037252       0.00299
  19     162.9      111.3396        0.4736      155.8903      156.3639      45.024345       0.00413
  18     196.4      111.3085        0.5727      155.7272      156.2998      44.991332       0.00831
  17     218.7      111.2885        0.6378      155.5805      156.2183      44.929815       0.02336
  16     243.0      111.2680        0.7086      155.3439      156.0525      44.784553       0.05038
  15     269.0      111.2485        0.7852      154.9586      155.7439      44.495386       0.09380
  14     297.5      111.2328        0.8678      154.3968      155.2646      44.031731       0.13752
  13     328.5      111.2228        0.9568      153.7223      154.6790      43.456199       0.15649
  12     361.9      111.2222        1.0523      152.9159      153.9682      42.745967       0.17970
  11     398.1      111.2373        1.1545      151.9057      153.0602      41.822981       0.21504
  10     437.6      111.2787        1.2633      150.6102      151.8735      40.594786       0.26260
   9     480.5      111.3598        1.3784      149.0084      150.3868      39.027076       0.30789
   8     533.0      111.5289        1.5178      146.7445      148.2623      36.733375       0.36898
   7     589.8      111.8405        1.6639      143.8798      145.5437      33.703178       0.44978
   6     651.6      112.4540        1.8140      140.1022      141.9162      29.462214       0.57996
   5     718.7      113.6054        1.9665      135.5343      137.5007      23.895309       0.69961
   4     792.3      115.8920        2.1175      130.0753      132.1928      16.300811       0.87100
   3     825.4       71.1935       80.2090        0.1651       80.3741       9.180660       1.81738
   2     858.4       55.1410       61.5651        0.0002       61.5653       6.424236       0.70363
   1     891.5       16.8054       22.1553        0.0000       22.1553       5.349972       0.27431
   0    1013.0       17.0731       21.7602        0.0000       21.7602       4.687152       0.04602



 Wavenumbers: 12850. - 16000. cm-1, ATM      1
 LEVEL PRESSURE   UPWARD FLUX   DIFDOWN FLUX  DIRDOWN FLUX  DOWNWARD FLUX   NET FLUX    HEATING RATE
          mb          W/m2          W/m2          W/m2        W/m2          W/m2       degree/day
  51    .06700       81.5913        0.0000       98.0872       98.0872      16.495896       0.00000
  50    .07753       81.5913        0.0001       98.0864       98.0864      16.495103       0.63546
  49    .09103       81.5913        0.0002       98.0853       98.0855      16.494107       0.62252
  48    0.1069       81.5914        0.0003       98.0841       98.0843      16.492963       0.60935
  47    0.1255       81.5914        0.0004       98.0826       98.0830      16.491647       0.59649
  46    0.1487       81.5914        0.0005       98.0809       98.0814      16.489986       0.60555
  45    0.1794       81.5915        0.0007       98.0784       98.0792      16.487725       0.62069
  44    0.2165       81.5915        0.0010       98.0756       98.0766      16.485064       0.60534
  43    0.2613       81.5917        0.0013       98.0723       98.0736      16.481932       0.59025
  42    0.3336       81.5919        0.0017       98.0670       98.0688      16.476817       0.59634
  41    0.4307       81.5924        0.0024       98.0602       98.0626      16.470197       0.57562
  40    0.5894       81.5932        0.0034       98.0496       98.0530      16.459751       0.55549
  39     1.339       81.6004        0.0083       98.0043       98.0126      16.412197       0.53538
  38     1.782       81.6069        0.0111       97.9793       97.9904      16.383504       0.54627
  37     2.292       81.6165        0.0144       97.9498       97.9642      16.347668       0.59353
  36     5.035       81.6421        0.0202       97.8891       97.9093      16.267170       0.24767
  35     6.613       81.6958        0.0303       97.7746       97.8049      16.109162       0.84471
  34     8.786       81.7657        0.0440       97.6278       97.6718      15.906160       0.78839
  33     11.80       81.8567        0.0636       97.4339       97.4975      15.640748       0.74307
  32     15.07       81.9441        0.0846       97.2433       97.3279      15.383787       0.66342
  31     18.79       82.0335        0.1084       97.0439       97.1522      15.118703       0.60103
  30     23.16       82.1271        0.1360       96.8292       96.9652      14.838089       0.54262
  29     28.12       82.2216        0.1676       96.6048       96.7724      14.550871       0.48825
  28     33.73       82.3093        0.2030       96.3831       96.5861      14.276835       0.41202
  27     40.54       82.3944        0.2458       96.1494       96.3951      14.000734       0.34253
  26     48.69       82.4768        0.2973       95.9016       96.1990      13.722209       0.28823
  25     57.69       82.5476        0.3539       95.6629       96.0169      13.469253       0.23711
  24     68.43       82.6109        0.4214       95.4149       95.8363      13.225466       0.19165
  23     81.20       82.6571        0.5019       95.1674       95.6693      13.012149       0.14096
  22     96.49       82.6855        0.5980       94.9172       95.5152      12.829694       0.10070
  21     114.6       82.7179        0.7131       94.6421       95.3552      12.637328       0.08982
  20     136.5       82.7448        0.8496       94.3324       95.1819      12.437171       0.07697
  19     162.9       82.7663        1.0121       93.9750       94.9871      12.220764       0.06917
  18     196.4       82.7719        1.2228       93.5336       94.7565      11.984600       0.05945
  17     218.7       82.7677        1.3612       93.2498       94.6111      11.843396       0.05361
  16     243.0       82.7600        1.5117       92.9420       94.4537      11.693716       0.05191
  15     269.0       82.7489        1.6747       92.6087       94.2834      11.534473       0.05166
  14     297.5       82.7353        1.8509       92.2464       94.0974      11.362042       0.05114
  13     328.5       82.7215        2.0413       91.8517       93.8930      11.171535       0.05180
  12     361.9       82.7087        2.2463       91.4219       93.6681      10.959416       0.05367
  11     398.1       82.6989        2.4668       90.9524       93.4193      10.720318       0.05570
  10     437.6       82.6959        2.7036       90.4358       93.1394      10.443464       0.05919
   9     480.5       82.7035        2.9571       89.8659       92.8230      10.119467       0.06363
   8     533.0       82.7336        3.2688       89.1347       92.4036       9.669948       0.07231
   7     589.8       82.8040        3.6038       88.2943       91.8981       9.094090       0.08548
   6     651.6       82.9566        3.9616       87.2867       91.2483       8.291746       0.10972
   5     718.7       83.2240        4.3408       86.1028       90.4436       7.219574       0.13474
   4     792.3       83.7037        4.7375       84.6812       89.4186       5.714992       0.17256
   3     825.4       60.2382       64.1649        0.1115       64.2764       4.038242       0.42798
   2     858.4       52.7226       55.7994        0.0001       55.7995       3.076933       0.24539
   1     891.5       34.2783       36.8199        0.0000       36.8199       2.541618       0.13669
   0    1013.0       34.5273       36.5252        0.0000       36.5252       1.997931       0.03775



 Wavenumbers: 16000. - 22650. cm-1, ATM      1
 LEVEL PRESSURE   UPWARD FLUX   DIFDOWN FLUX  DIRDOWN FLUX  DOWNWARD FLUX   NET FLUX    HEATING RATE
          mb          W/m2          W/m2          W/m2        W/m2          W/m2       degree/day
  51    .06700      140.5151        0.0000      156.3892      156.3892      15.874130       0.00000
  50    .07753      140.5151        0.0004      156.3887      156.3891      15.873982       0.11818
  49    .09103      140.5151        0.0009      156.3879      156.3888      15.873768       0.13404
  48    0.1069      140.5151        0.0015      156.3871      156.3885      15.873481       0.15285
  47    0.1255      140.5151        0.0021      156.3861      156.3882      15.873096       0.17422
  46    0.1487      140.5151        0.0030      156.3847      156.3877      15.872530       0.20645
  45    0.1794      140.5153        0.0041      156.3828      156.3869      15.871645       0.24308
  44    0.2165      140.5155        0.0054      156.3805      156.3859      15.870444       0.27320
  43    0.2613      140.5158        0.0070      156.3776      156.3846      15.868814       0.30714
  42    0.3336      140.5166        0.0096      156.3726      156.3823      15.865716       0.36119
  41    0.4307      140.5178        0.0131      156.3657      156.3788      15.861047       0.40602
  40    0.5894      140.5204        0.0188      156.3537      156.3725      15.852141       0.47360
  39     1.339      140.5429        0.0458      156.2834      156.3292      15.786344       0.74076
  38     1.782      140.5637        0.0616      156.2324      156.2940      15.730292       1.06713
  37     2.292      140.5949        0.0799      156.1641      156.2440      15.649157       1.34380
  36     5.035      140.6787        0.1117      156.0076      156.1192      15.440561       0.64179
  35     6.613      140.8551        0.1680      155.6950      155.8630      15.007919       2.31291
  34     8.786      141.0848        0.2438      155.2860      155.5298      14.444960       2.18633
  33     11.80      141.3838        0.3520      154.7422      155.0942      13.710455       2.05638
  32     15.07      141.6701        0.4681      154.2059      154.6740      13.003897       1.82419
  31     18.79      141.9624        0.5989      153.6432      154.2422      12.279754       1.64186
  30     23.16      142.2678        0.7515      153.0352      153.7867      11.518881       1.47128
  29     28.12      142.5751        0.9258      152.3965      153.3223      10.747243       1.31173
  28     33.73      142.8585        1.1206      151.7604      152.8810      10.022459       1.08973
  27     40.54      143.1311        1.3557      151.0815      152.4372       9.306126       0.88869
  26     48.69      143.3918        1.6388      150.3500      151.9888       8.596960       0.73388
  25     57.69      143.6125        1.9493      149.6296      151.5790       7.966454       0.59100
  24     68.43      143.8046        2.3188      148.8604      151.1792       7.374587       0.46529
  23     81.20      143.9364        2.7587      148.0628      150.8214       6.884985       0.32352
  22     96.49      144.0034        3.2822      147.2220      150.5042       6.500778       0.21205
  21     114.6      144.0367        3.9020      146.2838      150.1858       6.149075       0.16422
  20     136.5      144.0450        4.6339      145.2142      149.8481       5.803097       0.13304
  19     162.9      144.0263        5.5013      143.9816      149.4829       5.456536       0.11078
  18     196.4      143.9408        6.6204      142.4652      149.0856       5.144846       0.07846
  17     218.7      143.8621        7.3517      141.5017      148.8534       4.991292       0.05830
  16     243.0      143.7663        8.1433      140.4717      148.6150       4.848662       0.04947
  15     269.0      143.6518        8.9972      139.3740      148.3712       4.719355       0.04195
  14     297.5      143.5180        9.9155      138.2062      148.1217       4.603726       0.03429
  13     328.5      143.3687       10.9025      136.9574      147.8599       4.491137       0.03061
  12     361.9      143.2039       11.9591      135.6265      147.5856       4.381705       0.02769
  11     398.1      143.0230       13.0894      134.2081      147.2975       4.274507       0.02497
  10     437.6      142.8271       14.2953      132.6981      146.9934       4.166347       0.02313
   9     480.5      142.6157       15.5790      131.0935      146.6726       4.056878       0.02150
   8     533.0      142.3559       17.1469      129.1351      146.2820       3.926060       0.02104
   7     589.8      142.0805       18.8220      127.0392      145.8612       3.780735       0.02157
   6     651.6      141.7961       20.6060      124.7944      145.4004       3.604243       0.02414
   5     718.7      141.5098       22.5005      122.3908      144.8913       3.381547       0.02799
   4     792.3      141.2393       24.5035      119.8121      144.3156       3.076243       0.03501
   3     825.4      115.9156      118.4140        0.1569      118.5709       2.655278       0.10745
   2     858.4      110.4357      112.7608        0.0002      112.7611       2.325332       0.08422
   1     891.5       95.7694       97.8371        0.0000       97.8371       2.067736       0.06578
   0    1013.0       95.9091       97.6472        0.0000       97.6472       1.738120       0.02289



 Wavenumbers: 22650. - 29000. cm-1, ATM      1
 LEVEL PRESSURE   UPWARD FLUX   DIFDOWN FLUX  DIRDOWN FLUX  DOWNWARD FLUX   NET FLUX    HEATING RATE
          mb          W/m2          W/m2          W/m2        W/m2          W/m2       degree/day
  51    .06700       58.5447        0.0000       59.0156       59.0156       0.470871       0.00000
  50    .07753       58.5446        0.0005       59.0151       59.0155       0.470871      -0.00000
  49    .09103       58.5445        0.0010       59.0144       59.0154       0.470871      -0.00000
  48    0.1069       58.5444        0.0017       59.0136       59.0153       0.470871       0.00000
  47    0.1255       58.5443        0.0025       59.0127       59.0151       0.470871       0.00000
  46    0.1487       58.5441        0.0034       59.0115       59.0149       0.470871       0.00000
  45    0.1794       58.5438        0.0048       59.0099       59.0147       0.470871      -0.00000
  44    0.2165       58.5435        0.0063       59.0080       59.0144       0.470871       0.00000
  43    0.2613       58.5432        0.0082       59.0058       59.0140       0.470871       0.00000
  42    0.3336       58.5426        0.0113       59.0022       59.0134       0.470871       0.00000
  41    0.4307       58.5418        0.0153       58.9973       59.0126       0.470871      -0.00000
  40    0.5894       58.5405        0.0220       58.9894       59.0114       0.470871      -0.00000
  39     1.339       58.5344        0.0535       58.9518       59.0053       0.470871       0.00000
  38     1.782       58.5308        0.0720       58.9297       59.0017       0.470871       0.00000
  37     2.292       58.5267        0.0934       58.9042       58.9975       0.470871       0.00000
  36     5.035       58.5195        0.1305       58.8599       58.9903       0.470871       0.00000
  35     6.613       58.5067        0.1963       58.7812       58.9776       0.470871       0.00000
  34     8.786       58.4895        0.2850       58.6754       58.9604       0.470871       0.00000
  33     11.80       58.4650        0.4117       58.5242       58.9359       0.470871      -0.00000
  32     15.07       58.4387        0.5475       58.3621       58.9096       0.470871       0.00000
  31     18.79       58.4091        0.7006       58.1794       58.8799       0.470871       0.00000
  30     23.16       58.3745        0.8789       57.9665       58.8454       0.470871       0.00000
  29     28.12       58.3351        1.0823       57.7237       58.8060       0.470871      -0.00000
  28     33.73       58.2912        1.3091       57.4530       58.7620       0.470871       0.00000
  27     40.54       58.2383        1.5820       57.1272       58.7092       0.470871      -0.00000
  26     48.69       58.1749        1.9092       56.7366       58.6458       0.470871      -0.00000
  25     57.69       58.1056        2.2665       56.3100       58.5765       0.470871      -0.00000
  24     68.43       58.0237        2.6890       55.8057       58.4946       0.470871       0.00000
  23     81.20       57.9270        3.1879       55.2100       58.3979       0.470871      -0.00000
  22     96.49       57.8129        3.7761       54.5077       58.2838       0.470871       0.00000
  21     114.6       57.6791        4.4655       53.6845       58.1500       0.470871       0.00000
  20     136.5       57.5230        5.2702       52.7236       57.9938       0.470871      -0.00000
  19     162.9       57.3403        6.2108       51.6003       57.8112       0.470871      -0.00000
  18     196.4       57.1087        7.4026       50.1770       57.5796       0.470871       0.00000
  17     218.7       56.9598        8.1684       49.2623       57.4307       0.470871      -0.00000
  16     243.0       56.8008        8.9860       48.2857       57.2717       0.470871       0.00000
  15     269.0       56.6317        9.8549       47.2476       57.1025       0.470871      -0.00000
  14     297.5       56.4526       10.7744       46.1491       56.9235       0.470871       0.00000
  13     328.5       56.2633       11.7457       44.9884       56.7342       0.470871      -0.00000
  12     361.9       56.0642       12.7664       43.7687       56.5351       0.470871      -0.00000
  11     398.1       55.8553       13.8364       42.4898       56.3262       0.470871       0.00000
  10     437.6       55.6370       14.9537       41.1542       56.1079       0.470871      -0.00000
   9     480.5       55.4097       16.1158       39.7647       55.8806       0.470871       0.00000
   8     533.0       55.1390       17.4981       38.1118       55.6099       0.470871      -0.00000
   7     589.8       54.8579       18.9310       36.3978       55.3288       0.470871      -0.00000
   6     651.6       54.5678       20.4073       34.6314       55.0387       0.470871       0.00000
   5     718.7       54.2697       21.9214       32.8192       54.7406       0.470871       0.00000
   4     792.3       53.9652       23.4646       30.9715       54.4361       0.470871       0.00000
   3     825.4       47.9593       48.3910        0.0386       48.4296       0.470275       0.00015
   2     858.4       46.8826       47.3522        0.0000       47.3523       0.469703       0.00015
   1     891.5       43.7053       44.1733        0.0000       44.1733       0.468064       0.00042
   0    1013.0       43.6889       44.1570        0.0000       44.1570       0.468064       0.00000



 Wavenumbers: 29000. - 38000. cm-1, ATM      1
 LEVEL PRESSURE   UPWARD FLUX   DIFDOWN FLUX  DIRDOWN FLUX  DOWNWARD FLUX   NET FLUX    HEATING RATE
          mb          W/m2          W/m2          W/m2        W/m2          W/m2       degree/day
  51    .06700        8.8137        0.0000       20.8114       20.8114      11.997627       0.00000
  50    .07753        8.8135        0.0003       20.8070       20.8074      11.993819       3.05180
  49    .09103        8.8133        0.0007       20.8009       20.8016      11.988282       3.46113
  48    0.1069        8.8131        0.0012       20.7928       20.7939      11.980871       3.94462
  47    0.1255        8.8128        0.0017       20.7820       20.7837      11.970965       4.49071
  46    0.1487        8.8124        0.0024       20.7665       20.7688      11.956401       5.30889
  45    0.1794        8.8120        0.0033       20.7424       20.7457      11.933734       6.22258
  44    0.2165        8.8115        0.0044       20.7103       20.7147      11.903209       6.94401
  43    0.2613        8.8109        0.0056       20.6675       20.6731      11.862210       7.72802
  42    0.3336        8.8100        0.0077       20.5880       20.5957      11.785642       8.92708
  41    0.4307        8.8089        0.0104       20.4722       20.4826      11.673679       9.73497
  40    0.5894        8.8074        0.0147       20.2637       20.2784      11.470974      10.77958
  39     1.339        8.8042        0.0332       19.0984       19.1315      10.327340      12.87524
  38     1.782        8.8048        0.0428       18.4394       18.4821       9.677286      12.37598
  37     2.292        8.8077        0.0531       17.7714       17.8245       9.016763      10.93998
  36     5.035        8.8206        0.0693       16.7265       16.7957       7.975091       3.20495
  35     6.613        8.8509        0.0965       15.5186       15.6151       6.764125       6.47383
  34     8.786        8.8914        0.1318       14.5590       14.6908       5.799390       3.74668
  33     11.80        8.9446        0.1807       13.7000       13.8807       4.936101       2.41694
  32     15.07        8.9960        0.2309       13.0749       13.3058       4.309797       1.61700
  31     18.79        9.0493        0.2863       12.5486       12.8349       3.785565       1.18860
  30     23.16        9.1061        0.3492       12.0732       12.4224       3.316282       0.90744
  29     28.12        9.1643        0.4194       11.6423       12.0617       2.897392       0.71208
  28     33.73        9.2181        0.4966       11.2628       11.7594       2.541265       0.53545
  27     40.54        9.2692        0.5887       10.8969       11.4856       2.216335       0.40311
  26     48.69        9.3175        0.6979       10.5353       11.2331       1.915613       0.31120
  25     57.69        9.3572        0.8159       10.2040       11.0199       1.662745       0.23703
  24     68.43        9.3893        0.9543        9.8713       10.8256       1.436289       0.17802
  23     81.20        9.4047        1.1176        9.5431       10.6607       1.256040       0.11911
  22     96.49        9.4012        1.3095        9.2107       10.5202       1.119014       0.07563
  21     114.6        9.3872        1.5311        8.8533       10.3844       0.997177       0.05689
  20     136.5        9.3658        1.7844        8.4618       10.2462       0.880398       0.04490
  19     162.9        9.3370        2.0729        8.0302       10.1031       0.766168       0.03651
  18     196.4        9.2886        2.4303        7.5240        9.9543       0.665725       0.02528
  17     218.7        9.2537        2.6550        7.2154        9.8704       0.616779       0.01858
  16     243.0        9.2154        2.8899        6.8972        9.7870       0.571613       0.01567
  15     269.0        9.1736        3.1340        6.5707        9.7047       0.531083       0.01315
  14     297.5        9.1283        3.3863        6.2374        9.6237       0.495377       0.01059
  13     328.5        9.0810        3.6458        5.8964        9.5422       0.461213       0.00929
  12     361.9        9.0321        3.9099        5.5509        9.4608       0.428744       0.00822
  11     398.1        8.9817        4.1781        5.2016        9.3797       0.397994       0.00716
  10     437.6        8.9305        4.4489        4.8500        9.2989       0.368371       0.00633
   9     480.5        8.8787        4.7200        4.4990        9.2190       0.340272       0.00552
   8     533.0        8.8192        5.0290        4.0999        9.1288       0.309665       0.00492
   7     589.8        8.7604        5.3334        3.7070        9.0404       0.280055       0.00440
   6     651.6        8.7032        5.6296        3.3248        8.9543       0.251110       0.00396
   5     718.7        8.6482        5.9159        2.9551        8.8710       0.222784       0.00356
   4     792.3        8.5962        6.1889        2.6023        8.7912       0.195083       0.00318
   3     825.4        7.7825        7.9436        0.0030        7.9465       0.164015       0.00793
   2     858.4        7.4492        7.5854        0.0000        7.5854       0.136219       0.00710
   1     891.5        6.6175        6.7295        0.0000        6.7295       0.112056       0.00617
   0    1013.0        6.6221        6.7101        0.0000        6.7101       0.087902       0.00168



 Wavenumbers: 38000. - 50000. cm-1, ATM      1
 LEVEL PRESSURE   UPWARD FLUX   DIFDOWN FLUX  DIRDOWN FLUX  DOWNWARD FLUX   NET FLUX    HEATING RATE
          mb          W/m2          W/m2          W/m2        W/m2          W/m2       degree/day
  51    .06700        0.0061        0.0000        1.2836        1.2836       1.277566       0.00000
  50    .07753        0.0060        0.0001        1.2812        1.2812       1.275231       1.87147
  49    .09103        0.0059        0.0002        1.2777        1.2778       1.271899       2.08243
  48    0.1069        0.0058        0.0002        1.2731        1.2734       1.267521       2.33056
  47    0.1255        0.0058        0.0004        1.2672        1.2675       1.261766       2.60905
  46    0.1487        0.0056        0.0005        1.2586        1.2591       1.253440       3.03495
  45    0.1794        0.0055        0.0007        1.2455        1.2462       1.240672       3.50516
  44    0.2165        0.0053        0.0009        1.2282        1.2291       1.223746       3.85033
  43    0.2613        0.0051        0.0011        1.2054        1.2065       1.201398       4.21256
  42    0.3336        0.0048        0.0015        1.1639        1.1654       1.160574       4.75965
  41    0.4307        0.0044        0.0020        1.1051        1.1070       1.102615       5.03937
  40    0.5894        0.0039        0.0026        1.0039        1.0064       1.002575       5.32000
  39     1.339        0.0022        0.0035        0.5438        0.5473       0.545166       5.14960
  38     1.782        0.0016        0.0032        0.3635        0.3666       0.365077       3.42860
  37     2.292        0.0011        0.0027        0.2356        0.2383       0.237147       2.11885
  36     5.035        0.0007        0.0019        0.1180        0.1199       0.119172       0.36298
  35     6.613        0.0004        0.0013        0.0504        0.0516       0.051220       0.36327
  34     8.786        0.0002        0.0009        0.0239        0.0248       0.024556       0.10355
  33     11.80        0.0001        0.0006        0.0105        0.0110       0.010913       0.03820
  32     15.07        0.0001        0.0004        0.0048        0.0052       0.005151       0.01488
  31     18.79        0.0000        0.0002        0.0022        0.0024       0.002406       0.00622
  30     23.16        0.0000        0.0001        0.0010        0.0011       0.001079       0.00257
  29     28.12        0.0000        0.0001        0.0004        0.0005       0.000469       0.00104
  28     33.73        0.0000        0.0000        0.0002        0.0002       0.000205       0.00040
  27     40.54        0.0000        0.0000        0.0001        0.0001       0.000083       0.00015
  26     48.69        0.0000        0.0000        0.0000        0.0000       0.000031       0.00005
  25     57.69        0.0000        0.0000        0.0000        0.0000       0.000011       0.00002
  24     68.43        0.0000        0.0000        0.0000        0.0000       0.000004       0.00001
  23     81.20        0.0000        0.0000        0.0000        0.0000       0.000001       0.00000
  22     96.49        0.0000        0.0000        0.0000        0.0000       0.000000       0.00000
  21     114.6        0.0000        0.0000        0.0000        0.0000       0.000000       0.00000
  20     136.5        0.0000        0.0000        0.0000        0.0000       0.000000       0.00000
  19     162.9        0.0000        0.0000        0.0000        0.0000       0.000000       0.00000
  18     196.4        0.0000        0.0000        0.0000        0.0000       0.000000       0.00000
  17     218.7        0.0000        0.0000        0.0000        0.0000       0.000000       0.00000
  16     243.0        0.0000        0.0000        0.0000        0.0000       0.000000       0.00000
  15     269.0        0.0000        0.0000        0.0000        0.0000       0.000000       0.00000
  14     297.5        0.0000        0.0000        0.0000        0.0000       0.000000       0.00000
  13     328.5        0.0000        0.0000        0.0000        0.0000       0.000000       0.00000
  12     361.9        0.0000        0.0000        0.0000        0.0000       0.000000       0.00000
  11     398.1        0.0000        0.0000        0.0000        0.0000       0.000000       0.00000
  10     437.6        0.0000        0.0000        0.0000        0.0000       0.000000       0.00000
   9     480.5        0.0000        0.0000        0.0000        0.0000       0.000000       0.00000
   8     533.0        0.0000        0.0000        0.0000        0.0000       0.000000       0.00000
   7     589.8        0.0000        0.0000        0.0000        0.0000       0.000000       0.00000
   6     651.6        0.0000        0.0000        0.0000        0.0000       0.000000       0.00000
   5     718.7        0.0000        0.0000        0.0000        0.0000       0.000000       0.00000
   4     792.3        0.0000        0.0000        0.0000        0.0000       0.000000       0.00000
   3     825.4        0.0000        0.0000        0.0000        0.0000       0.000000       0.00000
   2     858.4        0.0000        0.0000        0.0000        0.0000       0.000000       0.00000
   1     891.5        0.0000        0.0000        0.0000        0.0000       0.000000       0.00000
   0    1013.0        0.0000        0.0000        0.0000        0.0000       0.000000       0.00000



 Wavenumbers:   820. -  2600. cm-1, ATM      1
 LEVEL PRESSURE   UPWARD FLUX   DIFDOWN FLUX  DIRDOWN FLUX  DOWNWARD FLUX   NET FLUX    HEATING RATE
          mb          W/m2          W/m2          W/m2        W/m2          W/m2       degree/day
  51    .06700        1.5249        0.0000        6.0047        6.0047       4.479782       0.00000
  50    .07753        1.5249        0.0000        6.0008        6.0008       4.475929       3.08825
  49    .09103        1.5249        0.0000        5.9999        5.9999       4.475043       0.55361
  48    0.1069        1.5249        0.0000        5.9989        5.9989       4.474054       0.52656
  47    0.1255        1.5249        0.0000        5.9978        5.9978       4.472937       0.50653
  46    0.1487        1.5249        0.0000        5.9964        5.9964       4.471580       0.49461
  45    0.1794        1.5249        0.0000        5.9947        5.9947       4.469860       0.47204
  44    0.2165        1.5249        0.0000        5.9929        5.9929       4.468018       0.41914
  43    0.2613        1.5249        0.0000        5.9909        5.9909       4.466058       0.36937
  42    0.3336        1.5249        0.0000        5.9880        5.9880       4.463180       0.33560
  41    0.4307        1.5249        0.0000        5.9846        5.9846       4.459710       0.30169
  40    0.5894        1.5249        0.0000        5.9791        5.9791       4.454204       0.29281
  39     1.339        1.5249        0.0000        5.9536        5.9536       4.428712       0.28699
  38     1.782        1.5249        0.0000        5.9395        5.9395       4.414571       0.26922
  37     2.292        1.5249        0.0000        5.9237        5.9237       4.398817       0.26093
  36     5.035        1.5249        0.0000        5.8954        5.8954       4.370544       0.08699
  35     6.613        1.5249        0.0000        5.8469        5.8469       4.322036       0.25932
  34     8.786        1.5249        0.0000        5.7915        5.7915       4.266590       0.21533
  33     11.80        1.5250        0.0000        5.7245        5.7245       4.199514       0.18779
  32     15.07        1.5250        0.0000        5.6684        5.6684       4.143463       0.14471
  31     18.79        1.5250        0.0000        5.6231        5.6231       4.098041       0.10299
  30     23.16        1.5251        0.0000        5.5871        5.5871       4.062043       0.06961
  29     28.12        1.5251        0.0000        5.5583        5.5583       4.033198       0.04903
  28     33.73        1.5251        0.0000        5.5327        5.5328       4.007604       0.03848
  27     40.54        1.5252        0.0000        5.5051        5.5051       3.979864       0.03441
  26     48.69        1.5253        0.0000        5.4733        5.4733       3.948063       0.03291
  25     57.69        1.5254        0.0000        5.4393        5.4394       3.914002       0.03193
  24     68.43        1.5254        0.0000        5.3998        5.3999       3.874409       0.03113
  23     81.20        1.5256        0.0000        5.3545        5.3546       3.829003       0.03000
  22     96.49        1.5257        0.0000        5.3027        5.3028       3.777055       0.02867
  21     114.6        1.5259        0.0000        5.2431        5.2431       3.717227       0.02794
  20     136.5        1.5261        0.0000        5.1754        5.1755       3.649382       0.02609
  19     162.9        1.5264        0.0000        5.0924        5.0924       3.566000       0.02665
  18     196.4        1.5269        0.0000        4.9695        4.9695       3.442608       0.03106
  17     218.7        1.5274        0.0000        4.8606        4.8606       3.333197       0.04154
  16     243.0        1.5283        0.0000        4.7093        4.7093       3.181089       0.05276
  15     269.0        1.5295        0.0000        4.5352        4.5352       3.005711       0.05689
  14     297.5        1.5314        0.0000        4.3425        4.3426       2.811136       0.05771
  13     328.5        1.5341        0.0000        4.1286        4.1286       2.594565       0.05889
  12     361.9        1.5376        0.0000        3.8790        3.8791       2.341498       0.06403
  11     398.1        1.5421        0.0000        3.6162        3.6163       2.074134       0.06229
  10     437.6        1.5480        0.0000        3.3761        3.3761       1.828102       0.05260
   9     480.5        1.5552        0.0000        3.1959        3.1960       1.640726       0.03680
   8     533.0        1.5662        0.0000        3.0468        3.0468       1.480639       0.02575
   7     589.8        1.5824        0.0001        2.9024        2.9024       1.320024       0.02384
   6     651.6        1.6107        0.0001        2.7184        2.7185       1.107806       0.02902
   5     718.7        1.6596        0.0001        2.5059        2.5059       0.846334       0.03286
   4     792.3        1.7539        0.0001        2.2757        2.2757       0.521803       0.03722
   3     825.4        0.7520        0.9711        0.0027        0.9737       0.221700       0.07660
   2     858.4        0.4584        0.5574        0.0000        0.5574       0.099065       0.03130
   1     891.5        0.0003        0.0565        0.0000        0.0565       0.056197       0.01095
   0    1013.0        0.0004        0.0480        0.0000        0.0480       0.047676       0.00059

  Modules and versions used in this calculation:

       rrtmg_sw.1col.f90:  $Revision$                    rrtmg_sw_init.f90:  $Revision$        
     rrtmgsw_cldprop.f90:  $Revision$                  rrtmgsw_cldprmc.f90:  NOT USED          
     rrtmg_sw_reftra.f90:  $Revision$                  rrtmg_sw_spcvrt.f90:  NOT USED          
     rrtmg_sw_spcvmc.f90:  NOT USED                    rrtmgsw_setcoef.f90:  NOT USED          
     rrtmg_sw_taumol.f90:  $Revision$                  rrtmg_sw_vrtqdr.f90:  NOT USED          
                rrtatm.f:  NOT USED                             util_xxx.f:  NOT USED          
                 extra.f:  NOT USED                       rrtmg_sw_k_g.f90:  $Revision$        

