

 Wavenumbers:   820. - 50000. cm-1, ATM      1
 LEVEL PRESSURE   UPWARD FLUX   DIFDOWN FLUX  DIRDOWN FLUX  DOWNWARD FLUX   NET FLUX    HEATING RATE
          mb          W/m2          W/m2          W/m2        W/m2          W/m2       degree/day
  51    .06700      286.1098        0.0000      397.8738      397.8738     111.763961       0.00000
  50    .07753      286.1092        0.0012      397.8577      397.8589     111.749666      11.45807
  49    .09103      286.1085        0.0027      397.8418      397.8445     111.735971       8.55954
  48    0.1069      286.1077        0.0044      397.8230      397.8274     111.719615       8.70640
  47    0.1255      286.1068        0.0064      397.7997      397.8060     111.699162       9.27255
  46    0.1487      286.1058        0.0088      397.7676      397.7765     111.670689      10.37865
  45    0.1794      286.1043        0.0122      397.7205      397.7327     111.628373      11.61664
  44    0.2165      286.1027        0.0162      397.6602      397.6764     111.573694      12.43869
  43    0.2613      286.1009        0.0209      397.5829      397.6038     111.502854      13.35287
  42    0.3336      286.0982        0.0286      397.4449      397.4735     111.375336      14.86735
  41    0.4307      286.0948        0.0387      397.2524      397.2911     111.196349      15.56256
  40    0.5894      286.0899        0.0550      396.9253      396.9803     110.890407      16.26958
  39     1.339      286.0793        0.1280      395.4254      395.5533     109.474043      15.94570
  38     1.782      286.0813        0.1689      394.7288      394.8977     108.816421      12.52005
  37     2.292      286.0908        0.2155      394.0572      394.2727     108.181877      10.50971
  36     5.035      286.1360        0.2947      392.9737      393.2684     107.132408       3.22894
  35     6.613      286.2434        0.4341      391.5147      391.9488     105.705452       7.62851
  34     8.786      286.3827        0.6205      390.0651      390.6856     104.302851       5.44719
  33     11.80      286.5571        0.8845      388.4308      389.3153     102.758209       4.32451
  32     15.07      286.7149        1.1654      386.9684      388.1338     101.418887       3.45787
  31     18.79      286.8667        1.4800      385.5161      386.9961     100.129377       2.92372
  30     23.16      287.0136        1.8444      383.9979      385.8423      98.828686       2.51512
  29     28.12      287.1459        2.2575      382.4324      384.6899      97.544022       2.18384
  28     33.73      287.2418        2.7164      380.8732      383.5896      96.347860       1.79846
  27     40.54      287.2970        3.2666      379.1908      382.4574      95.160465       1.47310
  26     48.69      287.3055        3.9241      377.3525      381.2766      93.971093       1.23081
  25     57.69      287.2592        4.6395      375.5075      380.1471      92.887872       1.01536
  24     68.43      287.1443        5.4831      373.4913      378.9743      91.829973       0.83165
  23     81.20      286.9249        6.4775      371.3223      377.7998      90.874842       0.63114
  22     96.49      286.5889        7.6477      368.9646      376.6122      90.023312       0.46998
  21     114.6      286.1656        9.0151      366.3022      375.3173      89.151629       0.40701
  20     136.5      285.6476       10.6039      363.2911      373.8949      88.247300       0.34774
  19     162.9      285.0219       12.4520      359.8610      372.3130      87.291082       0.30565
  18     196.4      284.1796       14.7838      355.6426      370.4264      86.246743       0.26287
  17     218.7      283.6216       16.2765      352.9205      369.1969      85.575369       0.25490
  16     243.0      283.0196       17.8653      349.8543      367.7195      84.699939       0.30363
  15     269.0      282.3739       19.5490      346.3248      365.8737      83.499865       0.38930
  14     297.5      281.6868       21.3254      342.1128      363.4382      81.751474       0.51855
  13     328.5      280.9679       23.1962      336.7471      359.9433      78.975477       0.75479
  12     361.9      280.2257       25.1562      330.5592      355.7154      75.489750       0.88192
  11     398.1      279.4706       27.2057      323.5580      350.7637      71.293084       0.97773
  10     437.6      278.7202       29.3392      315.8703      345.2095      66.489227       1.02709
   9     480.5      277.9954       31.5537      307.7574      339.3110      61.315694       1.01606
   8     533.0      277.2419       34.1804      298.0405      332.2209      54.978970       1.01938
   7     589.8      276.6628       36.8976      287.7671      324.6646      48.001850       1.03563
   6     651.6      276.3803       39.6939      277.2151      316.9090      40.528686       1.02198
   5     718.7      276.5891       42.5568      266.4705      309.0273      32.438129       1.01676
   4     792.3      277.6699       45.4710      255.4291      300.9001      23.230238       1.05604
   3     825.4      163.0814      181.0560        0.0085      181.0645      17.983041       1.33932
   2     858.4      126.6681      142.1585        0.0000      142.1585      15.490430       0.63628
   1     891.5       27.0068       41.4449        0.0000       41.4449      14.438036       0.26872
   0    1013.0       26.9504       41.0750        0.0000       41.0750      14.124606       0.02176



 Wavenumbers:  2600. -  3250. cm-1, ATM      1
 LEVEL PRESSURE   UPWARD FLUX   DIFDOWN FLUX  DIRDOWN FLUX  DOWNWARD FLUX   NET FLUX    HEATING RATE
          mb          W/m2          W/m2          W/m2        W/m2          W/m2       degree/day
  51    .06700        1.2937        0.0000        3.5066        3.5066       2.212895       0.00000
  50    .07753        1.2937        0.0000        3.5066        3.5066       2.212887       0.00640
  49    .09103        1.2937        0.0000        3.5066        3.5066       2.212877       0.00627
  48    0.1069        1.2937        0.0000        3.5066        3.5066       2.212866       0.00613
  47    0.1255        1.2937        0.0000        3.5066        3.5066       2.212853       0.00599
  46    0.1487        1.2937        0.0000        3.5066        3.5066       2.212836       0.00607
  45    0.1794        1.2937        0.0000        3.5065        3.5065       2.212813       0.00624
  44    0.2165        1.2937        0.0000        3.5065        3.5065       2.212786       0.00611
  43    0.2613        1.2937        0.0000        3.5065        3.5065       2.212755       0.00598
  42    0.3336        1.2937        0.0000        3.5064        3.5064       2.212702       0.00615
  41    0.4307        1.2937        0.0000        3.5064        3.5064       2.212631       0.00618
  40    0.5894        1.2937        0.0000        3.5062        3.5062       2.212512       0.00633
  39     1.339        1.2937        0.0000        3.5055        3.5055       2.211813       0.00787
  38     1.782        1.2937        0.0000        3.5050        3.5050       2.211282       0.01011
  37     2.292        1.2937        0.0000        3.5043        3.5043       2.210590       0.01147
  36     5.035        1.2937        0.0000        3.5029        3.5029       2.209142       0.00446
  35     6.613        1.2937        0.0000        3.5001        3.5001       2.206334       0.01501
  34     8.786        1.2937        0.0000        3.4966        3.4966       2.202901       0.01333
  33     11.80        1.2937        0.0000        3.4925        3.4925       2.198759       0.01160
  32     15.07        1.2937        0.0000        3.4889        3.4889       2.195172       0.00926
  31     18.79        1.2937        0.0000        3.4856        3.4856       2.191858       0.00751
  30     23.16        1.2937        0.0000        3.4822        3.4822       2.188481       0.00653
  29     28.12        1.2937        0.0000        3.4785        3.4785       2.184775       0.00630
  28     33.73        1.2937        0.0000        3.4740        3.4740       2.180259       0.00679
  27     40.54        1.2938        0.0000        3.4676        3.4677       2.173895       0.00789
  26     48.69        1.2938        0.0000        3.4587        3.4587       2.164960       0.00925
  25     57.69        1.2938        0.0000        3.4476        3.4477       2.153862       0.01040
  24     68.43        1.2938        0.0000        3.4333        3.4334       2.139535       0.01126
  23     81.20        1.2939        0.0000        3.4156        3.4156       2.121716       0.01177
  22     96.49        1.2940        0.0000        3.3944        3.3944       2.100454       0.01174
  21     114.6        1.2941        0.0000        3.3694        3.3695       2.075420       0.01169
  20     136.5        1.2942        0.0001        3.3424        3.3424       2.048218       0.01046
  19     162.9        1.2944        0.0001        3.3142        3.3143       2.019830       0.00907
  18     196.4        1.2948        0.0001        3.2837        3.2838       1.988973       0.00777
  17     218.7        1.2951        0.0001        3.2661        3.2662       1.971182       0.00675
  16     243.0        1.2954        0.0001        3.2476        3.2477       1.952220       0.00658
  15     269.0        1.2960        0.0001        3.2258        3.2259       1.929919       0.00723
  14     297.5        1.2969        0.0001        3.1981        3.1982       1.901249       0.00850
  13     328.5        1.2984        0.0001        3.1576        3.1577       1.859294       0.01141
  12     361.9        1.3007        0.0001        3.0995        3.0996       1.798941       0.01527
  11     398.1        1.3040        0.0002        3.0172        3.0173       1.713280       0.01996
  10     437.6        1.3090        0.0002        2.9065        2.9067       1.597669       0.02472
   9     480.5        1.3163        0.0002        2.7693        2.7695       1.453182       0.02838
   8     533.0        1.3285        0.0002        2.5905        2.5907       1.262149       0.03073
   7     589.8        1.3479        0.0002        2.3956        2.3958       1.047952       0.03179
   6     651.6        1.3774        0.0002        2.1976        2.1978       0.820433       0.03111
   5     718.7        1.4224        0.0002        1.9940        1.9942       0.571750       0.03125
   4     792.3        1.4938        0.0002        1.7824        1.7826       0.288846       0.03245
   3     825.4        0.6169        0.7560        0.0001        0.7561       0.139173       0.03820
   2     858.4        0.4100        0.4860        0.0000        0.4860       0.075907       0.01615
   1     891.5        0.0147        0.0666        0.0000        0.0666       0.051927       0.00612
   0    1013.0        0.0156        0.0623        0.0000        0.0623       0.046657       0.00037



 Wavenumbers:  3250. -  4000. cm-1, ATM      1
 LEVEL PRESSURE   UPWARD FLUX   DIFDOWN FLUX  DIRDOWN FLUX  DOWNWARD FLUX   NET FLUX    HEATING RATE
          mb          W/m2          W/m2          W/m2        W/m2          W/m2       degree/day
  51    .06700        0.0362        0.0000        5.9117        5.9117       5.875408       0.00000
  50    .07753        0.0362        0.0000        5.9075        5.9075       5.871219       3.35808
  49    .09103        0.0362        0.0000        5.9050        5.9050       5.868776       1.52677
  48    0.1069        0.0362        0.0000        5.9032        5.9032       5.866909       0.99346
  47    0.1255        0.0362        0.0000        5.9014        5.9014       5.865151       0.79708
  46    0.1487        0.0362        0.0000        5.8995        5.8995       5.863262       0.68848
  45    0.1794        0.0362        0.0000        5.8974        5.8974       5.861114       0.58983
  44    0.2165        0.0362        0.0000        5.8952        5.8952       5.858997       0.48155
  43    0.2613        0.0362        0.0000        5.8931        5.8931       5.856838       0.40696
  42    0.3336        0.0362        0.0000        5.8899        5.8899       5.853680       0.36820
  41    0.4307        0.0362        0.0000        5.8861        5.8861       5.849843       0.33365
  40    0.5894        0.0362        0.0000        5.8803        5.8803       5.844040       0.30857
  39     1.339        0.0362        0.0000        5.8597        5.8597       5.823443       0.23189
  38     1.782        0.0362        0.0000        5.8513        5.8513       5.815018       0.16039
  37     2.292        0.0362        0.0000        5.8431        5.8431       5.806847       0.13533
  36     5.035        0.0362        0.0000        5.8296        5.8296       5.793403       0.04136
  35     6.613        0.0362        0.0000        5.8046        5.8046       5.768384       0.13375
  34     8.786        0.0362        0.0000        5.7713        5.7713       5.735079       0.12934
  33     11.80        0.0362        0.0000        5.7240        5.7240       5.687747       0.13251
  32     15.07        0.0362        0.0000        5.6738        5.6738       5.637563       0.12957
  31     18.79        0.0362        0.0000        5.6190        5.6191       5.582829       0.12410
  30     23.16        0.0362        0.0000        5.5597        5.5597       5.523465       0.11479
  29     28.12        0.0362        0.0000        5.4987        5.4988       5.462557       0.10354
  28     33.73        0.0362        0.0000        5.4384        5.4384       5.402218       0.09072
  27     40.54        0.0362        0.0001        5.3729        5.3730       5.336798       0.08116
  26     48.69        0.0362        0.0001        5.2997        5.2997       5.263542       0.07581
  25     57.69        0.0362        0.0001        5.2217        5.2218       5.185591       0.07307
  24     68.43        0.0362        0.0001        5.1305        5.1306       5.094476       0.07163
  23     81.20        0.0361        0.0001        5.0257        5.0258       4.989621       0.06929
  22     96.49        0.0361        0.0001        4.9093        4.9094       4.873258       0.06422
  21     114.6        0.0361        0.0001        4.7764        4.7765       4.740403       0.06203
  20     136.5        0.0361        0.0002        4.6356        4.6358       4.599723       0.05409
  19     162.9        0.0361        0.0002        4.4859        4.4861       4.449998       0.04786
  18     196.4        0.0360        0.0002        4.3105        4.3107       4.274679       0.04413
  17     218.7        0.0360        0.0002        4.1899        4.1901       4.154096       0.04578
  16     243.0        0.0360        0.0003        4.0235        4.0238       3.987788       0.05768
  15     269.0        0.0360        0.0003        3.8212        3.8214       3.785476       0.06563
  14     297.5        0.0360        0.0003        3.5532        3.5535       3.517486       0.07948
  13     328.5        0.0360        0.0003        3.1444        3.1447       3.108666       0.11116
  12     361.9        0.0362        0.0003        2.6688        2.6691       2.632954       0.12036
  11     398.1        0.0364        0.0003        2.2142        2.2144       2.177975       0.10600
  10     437.6        0.0370        0.0002        1.8156        1.8159       1.778889       0.08533
   9     480.5        0.0379        0.0002        1.4745        1.4747       1.436806       0.06718
   8     533.0        0.0399        0.0002        1.1319        1.1320       1.092162       0.05544
   7     589.8        0.0436        0.0002        0.8183        0.8185       0.774860       0.04710
   6     651.6        0.0507        0.0001        0.5439        0.5440       0.493296       0.03850
   5     718.7        0.0646        0.0001        0.3279        0.3279       0.263392       0.02889
   4     792.3        0.0945        0.0001        0.1664        0.1664       0.071929       0.02196
   3     825.4        0.0078        0.0172        0.0000        0.0172       0.009404       0.01596
   2     858.4        0.0015        0.0026        0.0000        0.0026       0.001010       0.00214
   1     891.5        0.0000        0.0000        0.0000        0.0000       0.000047       0.00025
   0    1013.0        0.0000        0.0000        0.0000        0.0000       0.000008       0.00000



 Wavenumbers:  4000. -  4650. cm-1, ATM      1
 LEVEL PRESSURE   UPWARD FLUX   DIFDOWN FLUX  DIRDOWN FLUX  DOWNWARD FLUX   NET FLUX    HEATING RATE
          mb          W/m2          W/m2          W/m2        W/m2          W/m2       degree/day
  51    .06700        4.3543        0.0000        6.9421        6.9421       2.587750       0.00000
  50    .07753        4.3543        0.0000        6.9421        6.9421       2.587749       0.00080
  49    .09103        4.3543        0.0000        6.9421        6.9421       2.587748       0.00078
  48    0.1069        4.3543        0.0000        6.9421        6.9421       2.587747       0.00077
  47    0.1255        4.3543        0.0000        6.9421        6.9421       2.587745       0.00075
  46    0.1487        4.3543        0.0000        6.9421        6.9421       2.587743       0.00076
  45    0.1794        4.3543        0.0000        6.9421        6.9421       2.587740       0.00078
  44    0.2165        4.3543        0.0000        6.9421        6.9421       2.587737       0.00077
  43    0.2613        4.3543        0.0000        6.9421        6.9421       2.587733       0.00075
  42    0.3336        4.3543        0.0000        6.9420        6.9420       2.587726       0.00077
  41    0.4307        4.3543        0.0000        6.9420        6.9420       2.587717       0.00078
  40    0.5894        4.3543        0.0000        6.9420        6.9420       2.587702       0.00080
  39     1.339        4.3543        0.0000        6.9419        6.9419       2.587613       0.00101
  38     1.782        4.3543        0.0000        6.9418        6.9419       2.587542       0.00133
  37     2.292        4.3543        0.0000        6.9418        6.9418       2.587448       0.00156
  36     5.035        4.3543        0.0000        6.9415        6.9416       2.587239       0.00064
  35     6.613        4.3543        0.0000        6.9411        6.9411       2.586786       0.00242
  34     8.786        4.3543        0.0000        6.9404        6.9404       2.586117       0.00260
  33     11.80        4.3543        0.0000        6.9393        6.9394       2.585068       0.00294
  32     15.07        4.3543        0.0001        6.9381        6.9381       2.583841       0.00317
  31     18.79        4.3543        0.0001        6.9366        6.9367       2.582361       0.00336
  30     23.16        4.3543        0.0001        6.9347        6.9348       2.580529       0.00354
  29     28.12        4.3543        0.0001        6.9325        6.9326       2.578319       0.00376
  28     33.73        4.3543        0.0001        6.9298        6.9299       2.575605       0.00408
  27     40.54        4.3543        0.0002        6.9261        6.9263       2.571941       0.00455
  26     48.69        4.3544        0.0002        6.9212        6.9214       2.567085       0.00503
  25     57.69        4.3544        0.0003        6.9155        6.9158       2.561363       0.00536
  24     68.43        4.3545        0.0003        6.9084        6.9087       2.554237       0.00560
  23     81.20        4.3546        0.0004        6.8998        6.9001       2.545504       0.00577
  22     96.49        4.3548        0.0004        6.8893        6.8897       2.534931       0.00584
  21     114.6        4.3551        0.0005        6.8763        6.8768       2.521673       0.00619
  20     136.5        4.3555        0.0006        6.8607        6.8613       2.505795       0.00611
  19     162.9        4.3561        0.0007        6.8420        6.8427       2.486662       0.00612
  18     196.4        4.3570        0.0009        6.8175        6.8183       2.461331       0.00638
  17     218.7        4.3578        0.0010        6.8006        6.8016       2.443820       0.00665
  16     243.0        4.3588        0.0011        6.7808        6.7818       2.423068       0.00720
  15     269.0        4.3602        0.0012        6.7567        6.7579       2.397661       0.00824
  14     297.5        4.3622        0.0013        6.7263        6.7276       2.365449       0.00955
  13     328.5        4.3653        0.0014        6.6838        6.6853       2.319935       0.01238
  12     361.9        4.3699        0.0016        6.6248        6.6263       2.256471       0.01606
  11     398.1        4.3762        0.0017        6.5426        6.5443       2.168117       0.02058
  10     437.6        4.3845        0.0019        6.4366        6.4385       2.053963       0.02441
   9     480.5        4.3955        0.0020        6.3129        6.3149       1.919414       0.02643
   8     533.0        4.4128        0.0022        6.1571        6.1594       1.746544       0.02781
   7     589.8        4.4386        0.0024        5.9755        5.9779       1.539234       0.03077
   6     651.6        4.4775        0.0026        5.7522        5.7548       1.277340       0.03581
   5     718.7        4.5373        0.0028        5.4867        5.4895       0.952217       0.04086
   4     792.3        4.6339        0.0029        5.1977        5.2006       0.566686       0.04422
   3     825.4        2.2821        2.6388        0.0002        2.6390       0.356888       0.05355
   2     858.4        1.6394        1.9003        0.0000        1.9003       0.260887       0.02451
   1     891.5        0.0694        0.2910        0.0000        0.2910       0.221577       0.01004
   0    1013.0        0.0711        0.2834        0.0000        0.2834       0.212370       0.00064



 Wavenumbers:  4650. -  5150. cm-1, ATM      1
 LEVEL PRESSURE   UPWARD FLUX   DIFDOWN FLUX  DIRDOWN FLUX  DOWNWARD FLUX   NET FLUX    HEATING RATE
          mb          W/m2          W/m2          W/m2        W/m2          W/m2       degree/day
  51    .06700        3.0403        0.0000        6.5710        6.5710       3.530675       0.00000
  50    .07753        3.0403        0.0000        6.5708        6.5708       3.530440       0.18861
  49    .09103        3.0403        0.0000        6.5705        6.5705       3.530146       0.18337
  48    0.1069        3.0403        0.0000        6.5701        6.5701       3.529812       0.17782
  47    0.1255        3.0403        0.0000        6.5698        6.5698       3.529433       0.17215
  46    0.1487        3.0403        0.0000        6.5693        6.5693       3.528959       0.17245
  45    0.1794        3.0403        0.0000        6.5686        6.5686       3.528324       0.17450
  44    0.2165        3.0403        0.0000        6.5679        6.5679       3.527587       0.16765
  43    0.2613        3.0403        0.0000        6.5671        6.5671       3.526735       0.16056
  42    0.3336        3.0403        0.0000        6.5657        6.5657       3.525374       0.15872
  41    0.4307        3.0403        0.0000        6.5640        6.5640       3.523654       0.14951
  40    0.5894        3.0403        0.0000        6.5614        6.5614       3.521042       0.13894
  39     1.339        3.0403        0.0000        6.5516        6.5516       3.511277       0.10993
  38     1.782        3.0403        0.0000        6.5474        6.5474       3.507067       0.08016
  37     2.292        3.0403        0.0000        6.5435        6.5435       3.503185       0.06430
  36     5.035        3.0403        0.0000        6.5385        6.5385       3.498165       0.01544
  35     6.613        3.0403        0.0000        6.5323        6.5323       3.491991       0.03301
  34     8.786        3.0403        0.0000        6.5260        6.5260       3.485706       0.02441
  33     11.80        3.0403        0.0001        6.5176        6.5176       3.477328       0.02346
  32     15.07        3.0403        0.0001        6.5081        6.5082       3.467832       0.02452
  31     18.79        3.0403        0.0001        6.4964        6.4965       3.456192       0.02639
  30     23.16        3.0404        0.0001        6.4817        6.4818       3.441446       0.02851
  29     28.12        3.0404        0.0002        6.4635        6.4637       3.423278       0.03088
  28     33.73        3.0405        0.0002        6.4419        6.4421       3.401613       0.03257
  27     40.54        3.0406        0.0003        6.4145        6.4147       3.374184       0.03403
  26     48.69        3.0407        0.0003        6.3805        6.3809       3.340161       0.03521
  25     57.69        3.0409        0.0004        6.3431        6.3435       3.302629       0.03518
  24     68.43        3.0411        0.0004        6.2996        6.3000       3.258902       0.03438
  23     81.20        3.0415        0.0005        6.2504        6.2509       3.209442       0.03268
  22     96.49        3.0420        0.0006        6.1967        6.1973       3.155306       0.02988
  21     114.6        3.0427        0.0007        6.1397        6.1404       3.097769       0.02687
  20     136.5        3.0436        0.0008        6.0804        6.0812       3.037614       0.02313
  19     162.9        3.0450        0.0010        6.0175        6.0185       2.973537       0.02048
  18     196.4        3.0471        0.0012        5.9421        5.9433       2.896255       0.01945
  17     218.7        3.0487        0.0013        5.8932        5.8945       2.845824       0.01915
  16     243.0        3.0507        0.0015        5.8387        5.8401       2.789450       0.01955
  15     269.0        3.0532        0.0016        5.7771        5.7787       2.725563       0.02072
  14     297.5        3.0564        0.0018        5.7061        5.7078       2.651426       0.02199
  13     328.5        3.0609        0.0019        5.6199        5.6219       2.560960       0.02460
  12     361.9        3.0672        0.0021        5.5155        5.5176       2.450348       0.02799
  11     398.1        3.0757        0.0023        5.3907        5.3930       2.317259       0.03101
  10     437.6        3.0871        0.0025        5.2442        5.2467       2.159588       0.03371
   9     480.5        3.1023        0.0026        5.0761        5.0787       1.976460       0.03597
   8     533.0        3.1259        0.0029        4.8600        4.8628       1.736909       0.03854
   7     589.8        3.1593        0.0031        4.6210        4.6240       1.464766       0.04039
   6     651.6        3.2064        0.0032        4.3682        4.3714       1.164997       0.04099
   5     718.7        3.2735        0.0034        4.1089        4.1123       0.838791       0.04100
   4     792.3        3.3713        0.0036        3.8442        3.8478       0.476458       0.04156
   3     825.4        1.5814        1.8578        0.0001        1.8579       0.276593       0.05101
   2     858.4        1.1137        1.2978        0.0000        1.2978       0.184098       0.02361
   1     891.5        0.0455        0.1937        0.0000        0.1937       0.148187       0.00917
   0    1013.0        0.0469        0.1872        0.0000        0.1872       0.140232       0.00055



 Wavenumbers:  5150. -  6150. cm-1, ATM      1
 LEVEL PRESSURE   UPWARD FLUX   DIFDOWN FLUX  DIRDOWN FLUX  DOWNWARD FLUX   NET FLUX    HEATING RATE
          mb          W/m2          W/m2          W/m2        W/m2          W/m2       degree/day
  51    .06700        7.5538        0.0000       16.4735       16.4735       8.919753       0.00000
  50    .07753        7.5538        0.0000       16.4735       16.4735       8.919719       0.02765
  49    .09103        7.5538        0.0000       16.4734       16.4734       8.919674       0.02814
  48    0.1069        7.5538        0.0000       16.4734       16.4734       8.919620       0.02863
  47    0.1255        7.5538        0.0000       16.4733       16.4733       8.919556       0.02908
  46    0.1487        7.5538        0.0000       16.4732       16.4732       8.919472       0.03063
  45    0.1794        7.5538        0.0000       16.4731       16.4731       8.919353       0.03273
  44    0.2165        7.5538        0.0000       16.4730       16.4730       8.919206       0.03335
  43    0.2613        7.5538        0.0000       16.4728       16.4728       8.919027       0.03380
  42    0.3336        7.5538        0.0000       16.4725       16.4725       8.918721       0.03568
  41    0.4307        7.5537        0.0000       16.4720       16.4720       8.918301       0.03649
  40    0.5894        7.5537        0.0000       16.4713       16.4713       8.917599       0.03733
  39     1.339        7.5537        0.0000       16.4679       16.4679       8.914186       0.03843
  38     1.782        7.5537        0.0001       16.4659       16.4659       8.912183       0.03813
  37     2.292        7.5537        0.0001       16.4635       16.4636       8.909887       0.03803
  36     5.035        7.5537        0.0001       16.4596       16.4597       8.905954       0.01210
  35     6.613        7.5537        0.0001       16.4527       16.4529       8.899151       0.03637
  34     8.786        7.5537        0.0002       16.4439       16.4441       8.890378       0.03407
  33     11.80        7.5537        0.0003       16.4320       16.4323       8.878584       0.03302
  32     15.07        7.5537        0.0004       16.4202       16.4205       8.866816       0.03038
  31     18.79        7.5537        0.0005       16.4078       16.4083       8.854563       0.02778
  30     23.16        7.5538        0.0006       16.3947       16.3953       8.841513       0.02523
  29     28.12        7.5538        0.0008       16.3811       16.3818       8.828035       0.02291
  28     33.73        7.5539        0.0009       16.3674       16.3683       8.814459       0.02041
  27     40.54        7.5540        0.0011       16.3526       16.3537       8.799757       0.01824
  26     48.69        7.5541        0.0014       16.3368       16.3382       8.784030       0.01627
  25     57.69        7.5543        0.0017       16.3215       16.3231       8.768809       0.01427
  24     68.43        7.5546        0.0020       16.3054       16.3073       8.752737       0.01263
  23     81.20        7.5549        0.0023       16.2884       16.2907       8.735782       0.01120
  22     96.49        7.5554        0.0028       16.2704       16.2732       8.717820       0.00991
  21     114.6        7.5559        0.0033       16.2506       16.2539       8.697972       0.00927
  20     136.5        7.5566        0.0040       16.2277       16.2317       8.675067       0.00881
  19     162.9        7.5575        0.0047       16.1999       16.2046       8.647151       0.00892
  18     196.4        7.5586        0.0057       16.1571       16.1628       8.604148       0.01082
  17     218.7        7.5594        0.0063       16.1115       16.1178       8.558387       0.01737
  16     243.0        7.5603        0.0070       16.0130       16.0200       8.459667       0.03424
  15     269.0        7.5614        0.0077       15.8150       15.8228       8.261349       0.06433
  14     297.5        7.5628        0.0084       15.4733       15.4818       7.918983       0.10154
  13     328.5        7.5647        0.0091       14.9375       14.9466       7.381897       0.14603
  12     361.9        7.5676        0.0097       14.2928       14.3025       6.734950       0.16368
  11     398.1        7.5718        0.0103       13.4968       13.5071       5.935301       0.18630
  10     437.6        7.5782        0.0108       12.6406       12.6514       5.073234       0.18432
   9     480.5        7.5875        0.0113       11.8031       11.8144       4.226847       0.16623
   8     533.0        7.6043        0.0118       10.9312       10.9430       3.338719       0.14287
   7     589.8        7.6326        0.0124       10.1889       10.2013       2.568675       0.11430
   6     651.6        7.6797        0.0130        9.6118        9.6249       1.945140       0.08527
   5     718.7        7.7582        0.0138        9.1585        9.1723       1.414035       0.06675
   4     792.3        7.8922        0.0147        8.7459        8.7606       0.868423       0.06258
   3     825.4        4.0270        4.5975        0.0003        4.5978       0.570796       0.07597
   2     858.4        2.9480        3.3972        0.0000        3.3972       0.449253       0.03103
   1     891.5        0.1305        0.5356        0.0000        0.5356       0.405106       0.01127
   0    1013.0        0.1322        0.5274        0.0000        0.5274       0.395217       0.00069



 Wavenumbers:  6150. -  7700. cm-1, ATM      1
 LEVEL PRESSURE   UPWARD FLUX   DIFDOWN FLUX  DIRDOWN FLUX  DOWNWARD FLUX   NET FLUX    HEATING RATE
          mb          W/m2          W/m2          W/m2        W/m2          W/m2       degree/day
  51    .06700       12.0635        0.0000       30.4684       30.4684      18.404895       0.00000
  50    .07753       12.0635        0.0000       30.4683       30.4683      18.404843       0.04144
  49    .09103       12.0635        0.0000       30.4683       30.4683      18.404777       0.04173
  48    0.1069       12.0635        0.0000       30.4682       30.4682      18.404698       0.04202
  47    0.1255       12.0635        0.0000       30.4681       30.4681      18.404604       0.04227
  46    0.1487       12.0635        0.0000       30.4680       30.4680      18.404483       0.04411
  45    0.1794       12.0635        0.0000       30.4678       30.4678      18.404313       0.04669
  44    0.2165       12.0635        0.0000       30.4676       30.4676      18.404106       0.04715
  43    0.2613       12.0635        0.0000       30.4673       30.4673      18.403854       0.04744
  42    0.3336       12.0635        0.0000       30.4669       30.4669      18.403428       0.04974
  41    0.4307       12.0635        0.0000       30.4663       30.4663      18.402847       0.05052
  40    0.5894       12.0634        0.0001       30.4653       30.4653      18.401879       0.05146
  39     1.339       12.0634        0.0002       30.4604       30.4606      18.397196       0.05273
  38     1.782       12.0633        0.0002       30.4576       30.4578      18.394446       0.05235
  37     2.292       12.0633        0.0003       30.4543       30.4546      18.391288       0.05231
  36     5.035       12.0632        0.0004       30.4487       30.4491      18.385871       0.01667
  35     6.613       12.0631        0.0006       30.4389       30.4395      18.376443       0.05040
  34     8.786       12.0629        0.0008       30.4262       30.4270      18.364105       0.04792
  33     11.80       12.0626        0.0012       30.4086       30.4098      18.347149       0.04747
  32     15.07       12.0624        0.0016       30.3906       30.3922      18.329819       0.04474
  31     18.79       12.0620        0.0021       30.3713       30.3733      18.311298       0.04199
  30     23.16       12.0617        0.0026       30.3499       30.3525      18.290871       0.03950
  29     28.12       12.0612        0.0032       30.3270       30.3303      18.269022       0.03714
  28     33.73       12.0608        0.0039       30.3031       30.3070      18.246202       0.03431
  27     40.54       12.0602        0.0047       30.2762       30.2809      18.220697       0.03164
  26     48.69       12.0595        0.0057       30.2463       30.2520      18.192479       0.02920
  25     57.69       12.0588        0.0068       30.2162       30.2230      18.164260       0.02645
  24     68.43       12.0579        0.0081       30.1834       30.1916      18.133701       0.02402
  23     81.20       12.0568        0.0097       30.1480       30.1577      18.100904       0.02167
  22     96.49       12.0555        0.0115       30.1099       30.1214      18.065924       0.01931
  21     114.6       12.0540        0.0137       30.0679       30.0816      18.027587       0.01790
  20     136.5       12.0522        0.0164       30.0202       30.0365      17.984302       0.01664
  19     162.9       12.0501        0.0195       29.9637       29.9831      17.933026       0.01639
  18     196.4       12.0474        0.0235       29.8817       29.9053      17.857847       0.01892
  17     218.7       12.0457        0.0261       29.8045       29.8307      17.785000       0.02766
  16     243.0       12.0439        0.0290       29.6618       29.6907      17.646807       0.04793
  15     269.0       12.0422        0.0320       29.3983       29.4303      17.388099       0.08392
  14     297.5       12.0407        0.0350       28.9198       28.9548      16.914068       0.14059
  13     328.5       12.0402        0.0379       28.0356       28.0736      16.033363       0.23946
  12     361.9       12.0416        0.0407       26.9241       26.9648      14.923209       0.28088
  11     398.1       12.0462        0.0432       25.6009       25.6441      13.597941       0.30876
  10     437.6       12.0562        0.0455       24.0714       24.1169      12.060683       0.32868
   9     480.5       12.0746        0.0476       22.4859       22.5335      10.458897       0.31458
   8     533.0       12.1121        0.0496       20.6982       20.7478       8.635728       0.29329
   7     589.8       12.1810        0.0515       18.9642       19.0156       6.834595       0.26735
   6     651.6       12.3011        0.0532       17.3775       17.4307       5.129572       0.23317
   5     718.7       12.5075        0.0550       15.9421       15.9970       3.489505       0.20611
   4     792.3       12.8747        0.0567       14.6387       14.6954       1.820703       0.19139
   3     825.4        6.1567        7.1709        0.0005        7.1713       1.014587       0.20576
   2     858.4        4.3944        5.0999        0.0000        5.0999       0.705554       0.07889
   1     891.5        0.1856        0.7782        0.0000        0.7782       0.592586       0.02885
   0    1013.0        0.1899        0.7574        0.0000        0.7574       0.567551       0.00174



 Wavenumbers:  7700. -  8050. cm-1, ATM      1
 LEVEL PRESSURE   UPWARD FLUX   DIFDOWN FLUX  DIRDOWN FLUX  DOWNWARD FLUX   NET FLUX    HEATING RATE
          mb          W/m2          W/m2          W/m2        W/m2          W/m2       degree/day
  51    .06700        5.3991        0.0000        7.2006        7.2006       1.801446       0.00000
  50    .07753        5.3991        0.0000        7.2006        7.2006       1.801425       0.01710
  49    .09103        5.3991        0.0000        7.2005        7.2005       1.801398       0.01676
  48    0.1069        5.3992        0.0000        7.2005        7.2005       1.801367       0.01641
  47    0.1255        5.3992        0.0000        7.2005        7.2005       1.801332       0.01606
  46    0.1487        5.3992        0.0000        7.2004        7.2005       1.801287       0.01629
  45    0.1794        5.3992        0.0000        7.2004        7.2004       1.801226       0.01677
  44    0.2165        5.3992        0.0000        7.2003        7.2003       1.801154       0.01645
  43    0.2613        5.3992        0.0000        7.2003        7.2003       1.801068       0.01614
  42    0.3336        5.3992        0.0000        7.2001        7.2001       1.800927       0.01651
  41    0.4307        5.3992        0.0000        7.2000        7.2000       1.800739       0.01633
  40    0.5894        5.3993        0.0000        7.1997        7.1997       1.800432       0.01631
  39     1.339        5.3995        0.0001        7.1984        7.1985       1.798981       0.01633
  38     1.782        5.3997        0.0001        7.1977        7.1978       1.798129       0.01622
  37     2.292        5.3998        0.0001        7.1968        7.1970       1.797143       0.01633
  36     5.035        5.4001        0.0002        7.1953        7.1955       1.795433       0.00526
  35     6.613        5.4005        0.0003        7.1927        7.1929       1.792397       0.01623
  34     8.786        5.4012        0.0004        7.1891        7.1895       1.788311       0.01587
  33     11.80        5.4021        0.0005        7.1841        7.1846       1.782476       0.01634
  32     15.07        5.4031        0.0007        7.1786        7.1793       1.776225       0.01614
  31     18.79        5.4042        0.0009        7.1725        7.1734       1.769182       0.01597
  30     23.16        5.4055        0.0011        7.1654        7.1665       1.760979       0.01586
  29     28.12        5.4070        0.0014        7.1573        7.1587       1.751633       0.01589
  28     33.73        5.4087        0.0017        7.1482        7.1499       1.741216       0.01566
  27     40.54        5.4108        0.0021        7.1374        7.1395       1.728691       0.01554
  26     48.69        5.4133        0.0025        7.1244        7.1270       1.713681       0.01553
  25     57.69        5.4160        0.0030        7.1103        7.1133       1.697305       0.01535
  24     68.43        5.4193        0.0036        7.0937        7.0973       1.677952       0.01521
  23     81.20        5.4233        0.0042        7.0742        7.0784       1.655108       0.01509
  22     96.49        5.4280        0.0050        7.0512        7.0562       1.628182       0.01486
  21     114.6        5.4338        0.0060        7.0244        7.0304       1.596611       0.01474
  20     136.5        5.4406        0.0071        6.9932        7.0003       1.559730       0.01418
  19     162.9        5.4489        0.0085        6.9570        6.9654       1.516525       0.01381
  18     196.4        5.4598        0.0102        6.9112        6.9214       1.461588       0.01383
  17     218.7        5.4671        0.0113        6.8819        6.8932       1.426082       0.01348
  16     243.0        5.4752        0.0126        6.8506        6.8631       1.387960       0.01322
  15     269.0        5.4840        0.0139        6.8173        6.8311       1.347143       0.01324
  14     297.5        5.4938        0.0153        6.7819        6.7972       1.303466       0.01295
  13     328.5        5.5045        0.0169        6.7443        6.7612       1.256643       0.01273
  12     361.9        5.5165        0.0185        6.7044        6.7229       1.206385       0.01272
  11     398.1        5.5298        0.0203        6.6617        6.6820       1.152188       0.01263
  10     437.6        5.5449        0.0222        6.6160        6.6383       1.093423       0.01256
   9     480.5        5.5618        0.0243        6.5670        6.5912       1.029418       0.01257
   8     533.0        5.5840        0.0268        6.5060        6.5327       0.948696       0.01299
   7     589.8        5.6101        0.0295        6.4385        6.4679       0.857775       0.01350
   6     651.6        5.6410        0.0323        6.3634        6.3958       0.754746       0.01409
   5     718.7        5.6780        0.0354        6.2792        6.3146       0.636563       0.01485
   4     792.3        5.7227        0.0386        6.1840        6.2226       0.499972       0.01567
   3     825.4        3.0295        3.4326        0.0002        3.4328       0.403327       0.02467
   2     858.4        2.2301        2.5678        0.0000        2.5678       0.337732       0.01674
   1     891.5        0.0984        0.4048        0.0000        0.4048       0.306409       0.00800
   0    1013.0        0.0998        0.3983        0.0000        0.3983       0.298421       0.00055



 Wavenumbers:  8050. - 12850. cm-1, ATM      1
 LEVEL PRESSURE   UPWARD FLUX   DIFDOWN FLUX  DIRDOWN FLUX  DOWNWARD FLUX   NET FLUX    HEATING RATE
          mb          W/m2          W/m2          W/m2        W/m2          W/m2       degree/day
  51    .06700       72.5895        0.0000      100.8135      100.8135      28.224031       0.00000
  50    .07753       72.5895        0.0000      100.8135      100.8135      28.224031       0.00000
  49    .09103       72.5895        0.0001      100.8134      100.8135      28.224031       0.00000
  48    0.1069       72.5894        0.0001      100.8134      100.8135      28.224031       0.00000
  47    0.1255       72.5894        0.0002      100.8133      100.8134      28.224031      -0.00000
  46    0.1487       72.5894        0.0002      100.8132      100.8134      28.224031       0.00000
  45    0.1794       72.5893        0.0003      100.8131      100.8134      28.224031       0.00000
  44    0.2165       72.5893        0.0004      100.8129      100.8133      28.224031       0.00000
  43    0.2613       72.5892        0.0005      100.8127      100.8133      28.224031      -0.00000
  42    0.3336       72.5891        0.0007      100.8125      100.8132      28.224031       0.00000
  41    0.4307       72.5890        0.0010      100.8121      100.8130      28.224031       0.00000
  40    0.5894       72.5888        0.0014      100.8115      100.8128      28.224031      -0.00000
  39     1.339       72.5878        0.0034      100.8085      100.8118      28.224031       0.00000
  38     1.782       72.5872        0.0045      100.8068      100.8113      28.224031       0.00000
  37     2.292       72.5866        0.0059      100.8047      100.8106      28.224031      -0.00000
  36     5.035       72.5854        0.0082      100.8013      100.8094      28.224031       0.00000
  35     6.613       72.5833        0.0123      100.7951      100.8074      28.224031      -0.00000
  34     8.786       72.5806        0.0179      100.7867      100.8046      28.224031       0.00000
  33     11.80       72.5766        0.0259      100.7747      100.8006      28.224031       0.00000
  32     15.07       72.5723        0.0345      100.7618      100.7963      28.224031      -0.00000
  31     18.79       72.5674        0.0442      100.7473      100.7915      28.224031       0.00000
  30     23.16       72.5618        0.0556      100.7303      100.7858      28.224031      -0.00000
  29     28.12       72.5553        0.0686      100.7108      100.7793      28.224031       0.00000
  28     33.73       72.5480        0.0831      100.6889      100.7721      28.224031       0.00000
  27     40.54       72.5392        0.1008      100.6625      100.7633      28.224031      -0.00000
  26     48.69       72.5286        0.1220      100.6306      100.7527      28.224031       0.00000
  25     57.69       72.5170        0.1455      100.5955      100.7410      28.224031      -0.00000
  24     68.43       72.5030        0.1734      100.5537      100.7271      28.224031       0.00000
  23     81.20       72.4864        0.2067      100.5038      100.7105      28.224031       0.00000
  22     96.49       72.4666        0.2464      100.4442      100.6906      28.224031       0.00000
  21     114.6       72.4432        0.2937      100.3660      100.6597      28.216433       0.00355
  20     136.5       72.4154        0.3498      100.2732      100.6230      28.207531       0.00342
  19     162.9       72.3823        0.4168      100.1621      100.5789      28.196662       0.00347
  18     196.4       72.3390        0.5039      100.0149      100.5187      28.179683       0.00427
  17     218.7       72.3106        0.5612       99.9102      100.4713      28.160715       0.00720
  16     243.0       72.2799        0.6235       99.7741      100.3976      28.117652       0.01494
  15     269.0       72.2471        0.6911       99.5827      100.2738      28.026720       0.02950
  14     297.5       72.2128        0.7640       99.2988      100.0628      27.850025       0.05241
  13     328.5       72.1795        0.8425       98.8294       99.6718      27.492303       0.09726
  12     361.9       72.1503        0.9263       98.1872       99.1135      26.963158       0.13388
  11     398.1       72.1305        1.0156       97.3203       98.3359      26.205468       0.17652
  10     437.6       72.1277        1.1102       96.1652       97.2754      25.147762       0.22614
   9     480.5       72.1525        1.2096       94.7102       95.9198      23.767336       0.27111
   8     533.0       72.2361        1.3287       92.6607       93.9894      21.753255       0.32400
   7     589.8       72.4242        1.4522       90.1354       91.5876      19.163446       0.38441
   6     651.6       72.7768        1.5795       87.2636       88.8432      16.066402       0.42353
   5     718.7       73.3944        1.7102       84.1144       85.8246      12.430141       0.45698
   4     792.3       74.4672        1.8428       80.6691       82.5119       8.044636       0.50297
   3     825.4       38.3429       43.8345        0.0027       43.8371       5.494234       0.65098
   2     858.4       27.9664       32.2735        0.0000       32.2735       4.307095       0.30304
   1     891.5        1.2260        5.0541        0.0000        5.0541       3.828088       0.12231
   0    1013.0        1.2426        4.9565        0.0000        4.9565       3.713921       0.00793



 Wavenumbers: 12850. - 16000. cm-1, ATM      1
 LEVEL PRESSURE   UPWARD FLUX   DIFDOWN FLUX  DIRDOWN FLUX  DOWNWARD FLUX   NET FLUX    HEATING RATE
          mb          W/m2          W/m2          W/m2        W/m2          W/m2       degree/day
  51    .06700       51.1428        0.0000       63.1686       63.1686      12.025788       0.00000
  50    .07753       51.1428        0.0001       63.1677       63.1678      12.025005       0.62814
  49    .09103       51.1428        0.0001       63.1666       63.1668      12.024027       0.61099
  48    0.1069       51.1427        0.0002       63.1654       63.1656      12.022913       0.59312
  47    0.1255       51.1427        0.0003       63.1640       63.1644      12.021644       0.57526
  46    0.1487       51.1427        0.0005       63.1623       63.1628      12.020059       0.57773
  45    0.1794       51.1427        0.0006       63.1600       63.1606      12.017930       0.58442
  44    0.2165       51.1427        0.0008       63.1573       63.1581      12.015463       0.56114
  43    0.2613       51.1427        0.0011       63.1542       63.1553      12.012611       0.53759
  42    0.3336       51.1427        0.0015       63.1493       63.1508      12.008053       0.53141
  41    0.4307       51.1429        0.0021       63.1431       63.1452      12.002331       0.49753
  40    0.5894       51.1432        0.0029       63.1338       63.1368      11.993613       0.46362
  39     1.339       51.1465        0.0072       63.0956       63.1027      11.956221       0.42096
  38     1.782       51.1499        0.0096       63.0740       63.0837      11.933745       0.42791
  37     2.292       51.1552        0.0125       63.0477       63.0602      11.904970       0.47659
  36     5.035       51.1700        0.0175       62.9905       63.0080      11.838041       0.20592
  35     6.613       51.2013        0.0263       62.8788       62.9051      11.703816       0.71757
  34     8.786       51.2421        0.0382       62.7339       62.7720      11.529950       0.67523
  33     11.80       51.2948        0.0551       62.5425       62.5976      11.302819       0.63590
  32     15.07       51.3448        0.0733       62.3553       62.4285      11.083711       0.56569
  31     18.79       51.3955        0.0937       62.1605       62.2542      10.858689       0.51020
  30     23.16       51.4479        0.1175       61.9520       62.0696      10.621685       0.45829
  29     28.12       51.4999        0.1448       61.7358       61.8805      10.380618       0.40980
  28     33.73       51.5468        0.1751       61.5241       61.6992      10.152397       0.34314
  27     40.54       51.5904        0.2118       61.3031       61.5149       9.924525       0.28270
  26     48.69       51.6302        0.2560       61.0712       61.3272       9.696973       0.23548
  25     57.69       51.6617        0.3044       60.8497       61.1542       9.492434       0.19172
  24     68.43       51.6859        0.3621       60.6209       60.9830       9.297105       0.15356
  23     81.20       51.6965        0.4308       60.3935       60.8243       9.127839       0.11185
  22     96.49       51.6922        0.5126       60.1631       60.6758       8.983514       0.07966
  21     114.6       51.6862        0.6105       59.9059       60.5164       8.830231       0.07157
  20     136.5       51.6718        0.7262       59.6132       60.3395       8.667644       0.06252
  19     162.9       51.6482        0.8638       59.2740       60.1378       8.489619       0.05690
  18     196.4       51.6036        1.0418       58.8571       59.8989       8.295296       0.04891
  17     218.7       51.5694        1.1585       58.5919       59.7504       8.180973       0.04340
  16     243.0       51.5301        1.2851       58.3075       59.5926       8.062511       0.04109
  15     269.0       51.4854        1.4221       58.0041       59.4262       7.940770       0.03949
  14     297.5       51.4353        1.5698       57.6802       59.2501       7.814720       0.03739
  13     328.5       51.3815        1.7292       57.3298       59.0590       7.677519       0.03730
  12     361.9       51.3246        1.9004       56.9493       58.8497       7.525040       0.03858
  11     398.1       51.2661        2.0842       56.5328       58.6170       7.350887       0.04057
  10     437.6       51.2080        2.2809       56.0726       58.3535       7.145491       0.04392
   9     480.5       51.1531        2.4910       55.5619       58.0530       6.899886       0.04824
   8     533.0       51.0994        2.7483       54.9030       57.6513       6.551959       0.05597
   7     589.8       51.0667        3.0234       54.1438       57.1672       6.100515       0.06701
   6     651.6       51.0680        3.3161       53.2742       56.5903       5.522388       0.07906
   5     718.7       51.1159        3.6256       52.3013       55.9269       4.810993       0.08940
   4     792.3       51.2386        3.9502       51.2172       55.1674       3.928713       0.10119
   3     825.4       29.0885       32.4042        0.0017       32.4060       3.317426       0.15603
   2     858.4       22.2271       25.1743        0.0000       25.1743       2.947204       0.09451
   1     891.5        3.1659        5.9311        0.0000        5.9311       2.765272       0.04646
   0    1013.0        3.1815        5.8721        0.0000        5.8721       2.690604       0.00518



 Wavenumbers: 16000. - 22650. cm-1, ATM      1
 LEVEL PRESSURE   UPWARD FLUX   DIFDOWN FLUX  DIRDOWN FLUX  DOWNWARD FLUX   NET FLUX    HEATING RATE
          mb          W/m2          W/m2          W/m2        W/m2          W/m2       degree/day
  51    .06700       86.0029        0.0000      100.7153      100.7153      14.712444       0.00000
  50    .07753       86.0027        0.0003      100.7147      100.7151      14.712322       0.09795
  49    .09103       86.0026        0.0008      100.7140      100.7148      14.712144       0.11109
  48    0.1069       86.0025        0.0012      100.7131      100.7144      14.711906       0.12668
  47    0.1255       86.0023        0.0018      100.7121      100.7139      14.711588       0.14440
  46    0.1487       86.0022        0.0025      100.7108      100.7133      14.711118       0.17111
  45    0.1794       86.0020        0.0035      100.7089      100.7124      14.710384       0.20147
  44    0.2165       86.0018        0.0046      100.7066      100.7112      14.709389       0.22643
  43    0.2613       86.0016        0.0060      100.7037      100.7096      14.708039       0.25455
  42    0.3336       86.0014        0.0082      100.6987      100.7069      14.705471       0.29935
  41    0.4307       86.0014        0.0112      100.6918      100.7030      14.701601       0.33649
  40    0.5894       86.0016        0.0160      100.6797      100.6958      14.694221       0.39249
  39     1.339       86.0088        0.0390      100.6095      100.6485      14.639702       0.61378
  38     1.782       86.0176        0.0524      100.5585      100.6109      14.593272       0.88396
  37     2.292       86.0322        0.0680      100.4903      100.5583      14.526082       1.11283
  36     5.035       86.0755        0.0950      100.3339      100.4289      14.353435       0.53119
  35     6.613       86.1692        0.1429      100.0220      100.1650      13.995783       1.91201
  34     8.786       86.2906        0.2073       99.6146       99.8219      13.531259       1.80404
  33     11.80       86.4464        0.2990       99.0740       99.3730      12.926651       1.69271
  32     15.07       86.5927        0.3972       98.5421       98.9393      12.346625       1.49751
  31     18.79       86.7392        0.5078       97.9852       98.4930      11.753784       1.34415
  30     23.16       86.8887        0.6364       97.3849       98.0213      11.132660       1.20105
  29     28.12       87.0343        0.7830       96.7559       97.5389      10.504648       1.06758
  28     33.73       87.1608        0.9465       96.1309       97.0774       9.916548       0.88422
  27     40.54       87.2717        1.1434       95.4654       96.6088       9.337067       0.71891
  26     48.69       87.3646        1.3798       94.7499       96.1298       8.765190       0.59180
  25     57.69       87.4273        1.6385       94.0471       95.6856       8.258339       0.47510
  24     68.43       87.4597        1.9455       93.2983       95.2437       7.784021       0.37288
  23     81.20       87.4404        2.3098       92.5235       94.8333       7.392871       0.25847
  22     96.49       87.3639        2.7420       91.7088       94.4507       7.086853       0.16890
  21     114.6       87.2464        3.2518       90.8020       94.0538       6.807408       0.13048
  20     136.5       87.0899        3.8512       89.7721       93.6234       6.533440       0.10535
  19     162.9       86.8887        4.5582       88.5906       93.1488       6.260066       0.08738
  18     196.4       86.5945        5.4650       87.1449       92.6098       6.015343       0.06160
  17     218.7       86.3899        6.0543       86.2309       92.2852       5.895371       0.04555
  16     243.0       86.1630        6.6893       85.2582       91.9476       5.784513       0.03845
  15     269.0       85.9128        7.3711       84.2265       91.5976       5.684816       0.03234
  14     297.5       85.6386        8.1005       83.1349       91.2354       5.596770       0.02611
  13     328.5       85.3423        8.8802       81.9737       90.8539       5.511589       0.02316
  12     361.9       85.0239        9.7099       80.7431       90.4530       5.429132       0.02086
  11     398.1       84.6828       10.5918       79.4393       90.0311       5.348350       0.01882
  10     437.6       84.3196       11.5263       78.0600       89.5863       5.266665       0.01746
   9     480.5       83.9343       12.5138       76.6040       89.1178       5.183453       0.01634
   8     533.0       83.4669       13.7095       74.8404       88.5499       5.082982       0.01616
   7     589.8       82.9740       14.9745       72.9694       87.9439       4.969899       0.01679
   6     651.6       82.4579       16.3070       70.9899       87.2970       4.839119       0.01788
   5     718.7       81.9215       17.7054       68.9010       86.6064       4.684961       0.01937
   4     792.3       81.3715       19.1649       66.7022       85.8672       4.495697       0.02171
   3     825.4       52.7628       57.0986        0.0022       57.1008       4.338077       0.04023
   2     858.4       43.1570       47.3752        0.0000       47.3752       4.218248       0.03059
   1     891.5       14.9447       19.0883        0.0000       19.0883       4.143601       0.01906
   0    1013.0       14.9181       19.0112        0.0000       19.0112       4.093101       0.00351



 Wavenumbers: 22650. - 29000. cm-1, ATM      1
 LEVEL PRESSURE   UPWARD FLUX   DIFDOWN FLUX  DIRDOWN FLUX  DOWNWARD FLUX   NET FLUX    HEATING RATE
          mb          W/m2          W/m2          W/m2        W/m2          W/m2       degree/day
  51    .06700       36.3222        0.0000       38.0063       38.0063       1.684062       0.00000
  50    .07753       36.3221        0.0004       38.0057       38.0061       1.684062       0.00000
  49    .09103       36.3219        0.0009       38.0050       38.0059       1.684062       0.00000
  48    0.1069       36.3216        0.0014       38.0042       38.0057       1.684062      -0.00000
  47    0.1255       36.3214        0.0021       38.0033       38.0054       1.684062       0.00000
  46    0.1487       36.3210        0.0029       38.0022       38.0051       1.684062       0.00000
  45    0.1794       36.3206        0.0040       38.0006       38.0046       1.684062      -0.00000
  44    0.2165       36.3200        0.0054       37.9987       38.0041       1.684062       0.00000
  43    0.2613       36.3194        0.0069       37.9965       38.0034       1.684062      -0.00000
  42    0.3336       36.3183        0.0095       37.9928       38.0024       1.684062      -0.00000
  41    0.4307       36.3169        0.0130       37.9880       38.0010       1.684062       0.00000
  40    0.5894       36.3146        0.0186       37.9800       37.9987       1.684062       0.00000
  39     1.339       36.3037        0.0453       37.9425       37.9878       1.684062       0.00000
  38     1.782       36.2973        0.0609       37.9204       37.9814       1.684062       0.00000
  37     2.292       36.2899        0.0790       37.8949       37.9739       1.684062       0.00000
  36     5.035       36.2770        0.1104       37.8507       37.9611       1.684062       0.00000
  35     6.613       36.2542        0.1661       37.7722       37.9383       1.684062      -0.00000
  34     8.786       36.2236        0.2410       37.6667       37.9076       1.684062       0.00000
  33     11.80       36.1798        0.3478       37.5161       37.8639       1.684062       0.00000
  32     15.07       36.1330        0.4621       37.3549       37.8171       1.684062      -0.00000
  31     18.79       36.0803        0.5908       37.1736       37.7644       1.684062       0.00000
  30     23.16       36.0190        0.7403       36.9628       37.7031       1.684062      -0.00000
  29     28.12       35.9493        0.9104       36.7229       37.6333       1.684062       0.00000
  28     33.73       35.8717        1.0996       36.4561       37.5557       1.684062      -0.00000
  27     40.54       35.7786        1.3265       36.1361       37.4627       1.684062       0.00000
  26     48.69       35.6673        1.5976       35.7538       37.3514       1.684062       0.00000
  25     57.69       35.5463        1.8922       35.3382       37.2304       1.684062      -0.00000
  24     68.43       35.4039        2.2388       34.8491       37.0879       1.684062       0.00000
  23     81.20       35.2365        2.6456       34.2749       36.9205       1.684062       0.00000
  22     96.49       35.0404        3.1218       33.6027       36.7245       1.684062       0.00000
  21     114.6       34.8123        3.6751       32.8212       36.4963       1.684062       0.00000
  20     136.5       34.5483        4.3143       31.9181       36.2324       1.684062       0.00000
  19     162.9       34.2429        5.0524       30.8746       35.9270       1.684062       0.00000
  18     196.4       33.8608        5.9737       29.5711       35.5448       1.684062       0.00000
  17     218.7       33.6182        6.5572       28.7450       35.3022       1.684062       0.00000
  16     243.0       33.3617        7.1728       27.8729       35.0458       1.684062       0.00000
  15     269.0       33.0920        7.8188       26.9572       34.7760       1.684062       0.00000
  14     297.5       32.8098        8.4929       26.0010       34.4939       1.684062       0.00000
  13     328.5       32.5152        9.1947       25.0045       34.1992       1.684062      -0.00000
  12     361.9       32.2095        9.9204       23.9732       33.8936       1.684062       0.00000
  11     398.1       31.8934       10.6683       22.9091       33.5774       1.684062      -0.00000
  10     437.6       31.5682       11.4343       21.8179       33.2523       1.684062      -0.00000
   9     480.5       31.2351       12.2155       20.7036       32.9191       1.684062      -0.00000
   8     533.0       30.8461       13.1225       19.4077       32.5301       1.684062      -0.00000
   7     589.8       30.4504       14.0387       18.0958       32.1345       1.684062       0.00000
   6     651.6       30.0508       14.9566       16.7783       31.7349       1.684062       0.00000
   5     718.7       29.6506       15.8672       15.4675       31.3346       1.684062       0.00000
   4     792.3       29.2520       16.7639       14.1722       30.9361       1.684062       0.00000
   3     825.4       21.4374       23.1207        0.0004       23.1212       1.683761       0.00008
   2     858.4       17.6015       19.2850        0.0000       19.2850       1.683517       0.00006
   1     891.5        6.1925        7.8755        0.0000        7.8755       1.683058       0.00012
   0    1013.0        6.1342        7.8173        0.0000        7.8173       1.683058      -0.00000



 Wavenumbers: 29000. - 38000. cm-1, ATM      1
 LEVEL PRESSURE   UPWARD FLUX   DIFDOWN FLUX  DIRDOWN FLUX  DOWNWARD FLUX   NET FLUX    HEATING RATE
          mb          W/m2          W/m2          W/m2        W/m2          W/m2       degree/day
  51    .06700        5.2597        0.0000       13.4026       13.4026       8.142946       0.00000
  50    .07753        5.2594        0.0003       13.3983       13.3986       8.139147       3.04484
  49    .09103        5.2592        0.0007       13.3921       13.3928       8.133627       3.45018
  48    0.1069        5.2589        0.0011       13.3840       13.3851       8.126249       3.92736
  47    0.1255        5.2585        0.0016       13.3733       13.3749       8.116402       4.46387
  46    0.1487        5.2581        0.0022       13.3579       13.3601       8.101958       5.26521
  45    0.1794        5.2575        0.0030       13.3340       13.3371       8.079554       6.15026
  44    0.2165        5.2569        0.0040       13.3024       13.3064       8.049530       6.82990
  43    0.2613        5.2561        0.0052       13.2604       13.2656       8.009469       7.55141
  42    0.3336        5.2549        0.0071       13.1833       13.1904       7.935449       8.62998
  41    0.4307        5.2534        0.0096       13.0729       13.0825       7.829057       9.25059
  40    0.5894        5.2511        0.0135       12.8796       12.8931       7.641974       9.94884
  39     1.339        5.2431        0.0299       11.9165       11.9465       6.703334      10.56738
  38     1.782        5.2402        0.0383       11.4399       11.4783       6.238101       8.85729
  37     2.292        5.2381        0.0473       10.9796       11.0269       5.788814       7.44137
  36     5.035        5.2394        0.0614       10.2614       10.3228       5.083428       2.17029
  35     6.613        5.2464        0.0845        9.4301        9.5146       4.268136       4.35855
  34     8.786        5.2567        0.1140        8.7697        8.8837       3.627052       2.48974
  33     11.80        5.2697        0.1541        8.1778        8.3319       3.062220       1.58135
  32     15.07        5.2815        0.1952        7.7446        7.9398       2.658284       1.04289
  31     18.79        5.2928        0.2397        7.3756        7.6153       2.322503       0.76132
  30     23.16        5.3038        0.2898        7.0377        7.3274       2.023644       0.57790
  29     28.12        5.3135        0.3450        6.7285        7.0735       1.759925       0.44830
  28     33.73        5.3194        0.4050        6.4540        6.8590       1.539666       0.33117
  27     40.54        5.3203        0.4757        6.1874        6.6631       1.342820       0.24421
  26     48.69        5.3158        0.5584        5.9224        6.4808       1.165029       0.18399
  25     57.69        5.3055        0.6467        5.6779        6.3246       1.019158       0.13673
  24     68.43        5.2873        0.7488        5.4299        6.1787       0.891390       0.10044
  23     81.20        5.2568        0.8673        5.1814        6.0488       0.792019       0.06566
  22     96.49        5.2126        1.0043        4.9264        5.9307       0.718035       0.04083
  21     114.6        5.1585        1.1596        4.6525        5.8121       0.653620       0.03008
  20     136.5        5.0956        1.3333        4.3555        5.6888       0.593206       0.02323
  19     162.9        5.0239        1.5262        4.0333        5.5595       0.535549       0.01843
  18     196.4        4.9329        1.7577        3.6614        5.4191       0.486180       0.01243
  17     218.7        4.8755        1.8989        3.4393        5.3382       0.462638       0.00894
  16     243.0        4.8161        2.0430        3.2143        5.2573       0.441250       0.00742
  15     269.0        4.7549        2.1891        2.9881        5.1772       0.422352       0.00613
  14     297.5        4.6923        2.3359        2.7624        5.0982       0.405970       0.00486
  13     328.5        4.6292        2.4820        2.5378        5.0198       0.390548       0.00419
  12     361.9        4.5662        2.6262        2.3161        4.9423       0.376110       0.00365
  11     398.1        4.5037        2.7674        2.0990        4.8663       0.362649       0.00314
  10     437.6        4.4423        2.9040        1.8881        4.7922       0.349881       0.00273
   9     480.5        4.3822        3.0355        1.6847        4.7202       0.337942       0.00234
   8     533.0        4.3159        3.1777        1.4634        4.6410       0.325129       0.00206
   7     589.8        4.2527        3.3096        1.2560        4.5656       0.312915       0.00181
   6     651.6        4.1934        3.4299        1.0647        4.4945       0.301138       0.00161
   5     718.7        4.1382        3.5377        0.8902        4.4279       0.289752       0.00143
   4     792.3        4.0874        3.6322        0.7339        4.3661       0.278737       0.00126
   3     825.4        3.2574        3.5246        0.0000        3.5246       0.267214       0.00294
   2     858.4        2.6563        2.9142        0.0000        2.9142       0.257905       0.00238
   1     891.5        0.9232        1.1754        0.0000        1.1754       0.252197       0.00146
   0    1013.0        0.9069        1.1558        0.0000        1.1558       0.248836       0.00023



 Wavenumbers: 38000. - 50000. cm-1, ATM      1
 LEVEL PRESSURE   UPWARD FLUX   DIFDOWN FLUX  DIRDOWN FLUX  DOWNWARD FLUX   NET FLUX    HEATING RATE
          mb          W/m2          W/m2          W/m2        W/m2          W/m2       degree/day
  51    .06700        0.0051        0.0000        0.8267        0.8267       0.821561       0.00000
  50    .07753        0.0050        0.0001        0.8242        0.8243       0.819229       1.86934
  49    .09103        0.0050        0.0002        0.8207        0.8209       0.815906       2.07703
  48    0.1069        0.0049        0.0002        0.8162        0.8164       0.811547       2.31982
  47    0.1255        0.0048        0.0004        0.8103        0.8106       0.805834       2.59003
  46    0.1487        0.0047        0.0005        0.8018        0.8023       0.797600       3.00140
  45    0.1794        0.0045        0.0007        0.7889        0.7896       0.785046       3.44645
  44    0.2165        0.0043        0.0009        0.7720        0.7729       0.768541       3.75471
  43    0.2613        0.0041        0.0011        0.7500        0.7511       0.746989       4.06243
  42    0.3336        0.0038        0.0015        0.7106        0.7121       0.708300       4.51067
  41    0.4307        0.0034        0.0019        0.6566        0.6584       0.655006       4.63383
  40    0.5894        0.0029        0.0024        0.5680        0.5704       0.567499       4.65353
  39     1.339        0.0014        0.0030        0.2422        0.2452       0.243761       3.64470
  38     1.782        0.0010        0.0026        0.1493        0.1519       0.150935       1.76726
  37     2.292        0.0007        0.0022        0.0924        0.0946       0.093986       0.94322
  36     5.035        0.0004        0.0015        0.0426        0.0441       0.043767       0.15451
  35     6.613        0.0002        0.0010        0.0161        0.0170       0.016860       0.14384
  34     8.786        0.0001        0.0006        0.0061        0.0067       0.006664       0.03960
  33     11.80        0.0000        0.0004        0.0019        0.0022       0.002211       0.01247
  32     15.07        0.0000        0.0002        0.0006        0.0008       0.000812       0.00361
  31     18.79        0.0000        0.0001        0.0002        0.0003       0.000305       0.00115
  30     23.16        0.0000        0.0001        0.0001        0.0001       0.000114       0.00037
  29     28.12        0.0000        0.0000        0.0000        0.0000       0.000043       0.00012
  28     33.73        0.0000        0.0000        0.0000        0.0000       0.000017       0.00004
  27     40.54        0.0000        0.0000        0.0000        0.0000       0.000007       0.00001
  26     48.69        0.0000        0.0000        0.0000        0.0000       0.000003       0.00000
  25     57.69        0.0000        0.0000        0.0000        0.0000       0.000001       0.00000
  24     68.43        0.0000        0.0000        0.0000        0.0000       0.000000       0.00000
  23     81.20        0.0000        0.0000        0.0000        0.0000       0.000000       0.00000
  22     96.49        0.0000        0.0000        0.0000        0.0000       0.000000       0.00000
  21     114.6        0.0000        0.0000        0.0000        0.0000       0.000000       0.00000
  20     136.5        0.0000        0.0000        0.0000        0.0000       0.000000       0.00000
  19     162.9        0.0000        0.0000        0.0000        0.0000       0.000000       0.00000
  18     196.4        0.0000        0.0000        0.0000        0.0000       0.000000       0.00000
  17     218.7        0.0000        0.0000        0.0000        0.0000       0.000000       0.00000
  16     243.0        0.0000        0.0000        0.0000        0.0000       0.000000       0.00000
  15     269.0        0.0000        0.0000        0.0000        0.0000       0.000000       0.00000
  14     297.5        0.0000        0.0000        0.0000        0.0000       0.000000       0.00000
  13     328.5        0.0000        0.0000        0.0000        0.0000       0.000000       0.00000
  12     361.9        0.0000        0.0000        0.0000        0.0000       0.000000       0.00000
  11     398.1        0.0000        0.0000        0.0000        0.0000       0.000000       0.00000
  10     437.6        0.0000        0.0000        0.0000        0.0000       0.000000       0.00000
   9     480.5        0.0000        0.0000        0.0000        0.0000       0.000000       0.00000
   8     533.0        0.0000        0.0000        0.0000        0.0000       0.000000       0.00000
   7     589.8        0.0000        0.0000        0.0000        0.0000       0.000000       0.00000
   6     651.6        0.0000        0.0000        0.0000        0.0000       0.000000       0.00000
   5     718.7        0.0000        0.0000        0.0000        0.0000       0.000000       0.00000
   4     792.3        0.0000        0.0000        0.0000        0.0000       0.000000       0.00000
   3     825.4        0.0000        0.0000        0.0000        0.0000       0.000000       0.00000
   2     858.4        0.0000        0.0000        0.0000        0.0000       0.000000       0.00000
   1     891.5        0.0000        0.0000        0.0000        0.0000       0.000000       0.00000
   0    1013.0        0.0000        0.0000        0.0000        0.0000       0.000000       0.00000



 Wavenumbers:   820. -  2600. cm-1, ATM      1
 LEVEL PRESSURE   UPWARD FLUX   DIFDOWN FLUX  DIRDOWN FLUX  DOWNWARD FLUX   NET FLUX    HEATING RATE
          mb          W/m2          W/m2          W/m2        W/m2          W/m2       degree/day
  51    .06700        1.0467        0.0000        3.8670        3.8670       2.820306       0.00000
  50    .07753        1.0467        0.0000        3.8643        3.8643       2.817589       2.17773
  49    .09103        1.0467        0.0000        3.8635        3.8635       2.816779       0.50641
  48    0.1069        1.0467        0.0000        3.8626        3.8626       2.815888       0.47418
  47    0.1255        1.0467        0.0000        3.8616        3.8616       2.814927       0.43562
  46    0.1487        1.0467        0.0000        3.8605        3.8605       2.813818       0.40441
  45    0.1794        1.0467        0.0000        3.8592        3.8592       2.812483       0.36651
  44    0.2165        1.0467        0.0000        3.8578        3.8578       2.811105       0.31350
  43    0.2613        1.0467        0.0000        3.8564        3.8564       2.809644       0.27526
  42    0.3336        1.0467        0.0000        3.8541        3.8541       2.807413       0.26016
  41    0.4307        1.0467        0.0000        3.8512        3.8512       2.804530       0.25067
  40    0.5894        1.0467        0.0000        3.8465        3.8465       2.799803       0.25138
  39     1.339        1.0467        0.0000        3.8251        3.8251       2.778424       0.24069
  38     1.782        1.0467        0.0000        3.8133        3.8133       2.766609       0.22494
  37     2.292        1.0467        0.0000        3.8003        3.8003       2.753545       0.21637
  36     5.035        1.0467        0.0000        3.7772        3.7772       2.730438       0.07109
  35     6.613        1.0467        0.0000        3.7380        3.7380       2.691277       0.20935
  34     8.786        1.0468        0.0000        3.6940        3.6940       2.647235       0.17104
  33     11.80        1.0468        0.0000        3.6459        3.6459       2.599102       0.13476
  32     15.07        1.0468        0.0000        3.6109        3.6109       2.564094       0.09038
  31     18.79        1.0468        0.0000        3.5845        3.5845       2.537721       0.05980
  30     23.16        1.0468        0.0000        3.5620        3.5621       2.515206       0.04354
  29     28.12        1.0469        0.0000        3.5399        3.5400       2.493076       0.03762
  28     33.73        1.0469        0.0000        3.5165        3.5165       2.469567       0.03535
  27     40.54        1.0470        0.0000        3.4889        3.4890       2.441990       0.03421
  26     48.69        1.0470        0.0000        3.4569        3.4569       2.409868       0.03324
  25     57.69        1.0471        0.0000        3.4231        3.4231       2.376029       0.03172
  24     68.43        1.0472        0.0000        3.3850        3.3850       2.337825       0.03003
  23     81.20        1.0473        0.0000        3.3432        3.3432       2.295943       0.02768
  22     96.49        1.0474        0.0000        3.2983        3.2983       2.250944       0.02484
  21     114.6        1.0475        0.0000        3.2499        3.2499       2.202441       0.02265
  20     136.5        1.0477        0.0000        3.1986        3.1986       2.150966       0.01979
  19     162.9        1.0478        0.0000        3.1462        3.1462       2.098394       0.01680
  18     196.4        1.0481        0.0000        3.0894        3.0894       2.041358       0.01436
  17     218.7        1.0482        0.0000        3.0554        3.0554       2.007219       0.01296
  16     243.0        1.0484        0.0000        3.0114        3.0114       1.962993       0.01534
  15     269.0        1.0487        0.0000        2.9546        2.9546       1.905934       0.01851
  14     297.5        1.0492        0.0000        2.8769        2.8770       1.827801       0.02317
  13     328.5        1.0501        0.0000        2.7487        2.7488       1.698699       0.03510
  12     361.9        1.0516        0.0000        2.5606        2.5606       1.508989       0.04800
  11     398.1        1.0541        0.0000        2.3336        2.3337       1.279607       0.05344
  10     437.6        1.0576        0.0000        2.1355        2.1355       1.077919       0.04312
   9     480.5        1.0623        0.0000        2.0042        2.0043       0.941993       0.02670
   8     533.0        1.0699        0.0000        1.8905        1.8906       0.820676       0.01952
   7     589.8        1.0816        0.0000        1.7648        1.7648       0.683156       0.02041
   6     651.6        1.0997        0.0000        1.6297        1.6297       0.530053       0.02094
   5     718.7        1.1270        0.0001        1.4990        1.4990       0.371967       0.01987
   4     792.3        1.1701        0.0001        1.3754        1.3755       0.205376       0.01911
   3     825.4        0.4910        0.6026        0.0000        0.6026       0.111562       0.02395
   2     858.4        0.3226        0.3847        0.0000        0.3847       0.062020       0.01265
   1     891.5        0.0106        0.0506        0.0000        0.0506       0.039983       0.00563
   0    1013.0        0.0116        0.0462        0.0000        0.0462       0.034630       0.00037

  Modules and versions used in this calculation:

       rrtmg_sw.1col.f90:  $Revision$                    rrtmg_sw_init.f90:  $Revision$        
     rrtmgsw_cldprop.f90:  $Revision$                  rrtmgsw_cldprmc.f90:  NOT USED          
     rrtmg_sw_reftra.f90:  $Revision$                  rrtmg_sw_spcvrt.f90:  NOT USED          
     rrtmg_sw_spcvmc.f90:  NOT USED                    rrtmgsw_setcoef.f90:  NOT USED          
     rrtmg_sw_taumol.f90:  $Revision$                  rrtmg_sw_vrtqdr.f90:  NOT USED          
                rrtatm.f:  NOT USED                             util_xxx.f:  NOT USED          
                 extra.f:  NOT USED                       rrtmg_sw_k_g.f90:  $Revision$        

