

 Wavenumbers:   820. - 50000. cm-1, ATM      1
 LEVEL PRESSURE   UPWARD FLUX   DIFDOWN FLUX  DIRDOWN FLUX  DOWNWARD FLUX   NET FLUX    HEATING RATE
          mb          W/m2          W/m2          W/m2        W/m2          W/m2       degree/day
  51    .06700      286.4240        0.0000      397.8738      397.8738     111.449812       0.00000
  50    .07753      286.4234        0.0012      397.8577      397.8589     111.435517      11.45811
  49    .09103      286.4227        0.0027      397.8418      397.8445     111.421822       8.55959
  48    0.1069      286.4219        0.0044      397.8230      397.8274     111.405466       8.70646
  47    0.1255      286.4210        0.0064      397.7997      397.8060     111.385012       9.27261
  46    0.1487      286.4199        0.0088      397.7676      397.7765     111.356539      10.37873
  45    0.1794      286.4185        0.0122      397.7205      397.7327     111.314223      11.61674
  44    0.2165      286.4169        0.0162      397.6602      397.6764     111.259543      12.43879
  43    0.2613      286.4151        0.0209      397.5829      397.6038     111.188703      13.35299
  42    0.3336      286.4123        0.0286      397.4449      397.4735     111.061184      14.86749
  41    0.4307      286.4090        0.0388      397.2524      397.2912     110.882195      15.56272
  40    0.5894      286.4041        0.0551      396.9253      396.9804     110.576250      16.26977
  39     1.339      286.3936        0.1281      395.4254      395.5535     109.159857      15.94601
  38     1.782      286.3956        0.1690      394.7288      394.8978     108.502213      12.52049
  37     2.292      286.4052        0.2157      394.0572      394.2729     107.867635      10.51027
  36     5.035      286.4506        0.2950      392.9737      393.2687     106.818081       3.22920
  35     6.613      286.5583        0.4346      391.5147      391.9493     105.390950       7.62944
  34     8.786      286.6981        0.6211      390.0651      390.6862     103.988123       5.44808
  33     11.80      286.8731        0.8855      388.4308      389.3163     102.443183       4.32534
  32     15.07      287.0314        1.1666      386.9684      388.1350     101.103575       3.45861
  31     18.79      287.1839        1.4816      385.5161      386.9977      99.813768       2.92439
  30     23.16      287.3315        1.8464      383.9979      385.8443      98.512763       2.51572
  29     28.12      287.4647        2.2600      382.4324      384.6924      97.227776       2.18439
  28     33.73      287.5613        2.7194      380.8732      383.5926      96.031308       1.79892
  27     40.54      287.6175        3.2703      379.1908      382.4611      94.843607       1.47348
  26     48.69      287.6271        3.9286      377.3525      381.2810      93.653929       1.23113
  25     57.69      287.5819        4.6448      375.5075      380.1524      92.570432       1.01562
  24     68.43      287.4684        5.4894      373.4913      378.9807      91.512272       0.83186
  23     81.20      287.2504        6.4850      371.3223      377.8073      90.556921       0.63128
  22     96.49      286.9161        7.6567      368.9646      376.6213      89.705219       0.47008
  21     114.6      286.4947        9.0259      366.3022      375.3281      88.833376       0.40709
  20     136.5      285.9789       10.6168      363.2911      373.9078      87.928888       0.34780
  19     162.9      285.3558       12.4673      359.8610      372.3284      86.972509       0.30570
  18     196.4      284.5169       14.8024      355.6426      370.4450      85.928026       0.26291
  17     218.7      283.9611       16.2972      352.9205      369.2177      85.256580       0.25492
  16     243.0      283.3615       17.8883      349.8543      367.7426      84.381084       0.30365
  15     269.0      282.7184       19.5745      346.3248      365.8993      83.180951       0.38932
  14     297.5      282.0341       21.3538      342.1128      363.4666      81.432509       0.51857
  13     328.5      281.3182       23.2275      336.7471      359.9747      78.656464       0.75480
  12     361.9      280.5793       25.1908      330.5592      355.7500      75.170694       0.88193
  11     398.1      279.8278       27.2437      323.5580      350.8017      70.973989       0.97774
  10     437.6      279.0812       29.3810      315.8703      345.2513      66.170101       1.02710
   9     480.5      278.3604       31.5996      307.7574      339.3569      60.996542       1.01607
   8     533.0      277.6120       34.2313      298.0405      332.2718      54.659803       1.01938
   7     589.8      277.0384       36.9540      287.7671      324.7211      47.682686       1.03563
   6     651.6      276.7618       39.7563      277.2151      316.9714      40.209550       1.02197
   5     718.7      276.9770       42.6256      266.4705      309.0961      32.119059       1.01675
   4     792.3      278.0647       45.5468      255.4291      300.9760      22.911286       1.05603
   3     825.4      164.2022      181.8586        0.0085      181.8671      17.664893       1.33911
   2     858.4      128.5105      143.6852        0.0000      143.6852      15.174684       0.63567
   1     891.5       30.9654       45.0956        0.0000       45.0956      14.130124       0.26672
   0    1013.0       30.9088       44.7468        0.0000       44.7468      13.837994       0.02028



 Wavenumbers:  2600. -  3250. cm-1, ATM      1
 LEVEL PRESSURE   UPWARD FLUX   DIFDOWN FLUX  DIRDOWN FLUX  DOWNWARD FLUX   NET FLUX    HEATING RATE
          mb          W/m2          W/m2          W/m2        W/m2          W/m2       degree/day
  51    .06700        1.2931        0.0000        3.5066        3.5066       2.213482       0.00000
  50    .07753        1.2931        0.0000        3.5066        3.5066       2.213474       0.00640
  49    .09103        1.2931        0.0000        3.5066        3.5066       2.213464       0.00627
  48    0.1069        1.2931        0.0000        3.5066        3.5066       2.213453       0.00613
  47    0.1255        1.2931        0.0000        3.5066        3.5066       2.213439       0.00599
  46    0.1487        1.2931        0.0000        3.5066        3.5066       2.213423       0.00607
  45    0.1794        1.2931        0.0000        3.5065        3.5065       2.213400       0.00624
  44    0.2165        1.2931        0.0000        3.5065        3.5065       2.213373       0.00611
  43    0.2613        1.2931        0.0000        3.5065        3.5065       2.213342       0.00598
  42    0.3336        1.2931        0.0000        3.5064        3.5064       2.213289       0.00615
  41    0.4307        1.2931        0.0000        3.5064        3.5064       2.213218       0.00618
  40    0.5894        1.2931        0.0000        3.5062        3.5062       2.213099       0.00633
  39     1.339        1.2931        0.0000        3.5055        3.5055       2.212400       0.00787
  38     1.782        1.2931        0.0000        3.5050        3.5050       2.211869       0.01011
  37     2.292        1.2931        0.0000        3.5043        3.5043       2.211177       0.01147
  36     5.035        1.2931        0.0000        3.5029        3.5029       2.209729       0.00446
  35     6.613        1.2931        0.0000        3.5001        3.5001       2.206921       0.01501
  34     8.786        1.2931        0.0000        3.4966        3.4966       2.203488       0.01333
  33     11.80        1.2931        0.0000        3.4925        3.4925       2.199346       0.01160
  32     15.07        1.2931        0.0000        3.4889        3.4889       2.195759       0.00926
  31     18.79        1.2931        0.0000        3.4856        3.4856       2.192445       0.00751
  30     23.16        1.2931        0.0000        3.4822        3.4822       2.189068       0.00653
  29     28.12        1.2932        0.0000        3.4785        3.4785       2.185362       0.00630
  28     33.73        1.2932        0.0000        3.4740        3.4740       2.180846       0.00679
  27     40.54        1.2932        0.0000        3.4676        3.4677       2.174482       0.00789
  26     48.69        1.2932        0.0000        3.4587        3.4587       2.165546       0.00925
  25     57.69        1.2932        0.0000        3.4476        3.4477       2.154449       0.01040
  24     68.43        1.2932        0.0000        3.4333        3.4334       2.140121       0.01126
  23     81.20        1.2933        0.0000        3.4156        3.4156       2.122303       0.01177
  22     96.49        1.2934        0.0000        3.3944        3.3944       2.101041       0.01174
  21     114.6        1.2935        0.0000        3.3694        3.3695       2.076006       0.01169
  20     136.5        1.2936        0.0001        3.3424        3.3424       2.048805       0.01046
  19     162.9        1.2939        0.0001        3.3142        3.3143       2.020417       0.00907
  18     196.4        1.2942        0.0001        3.2837        3.2838       1.989560       0.00777
  17     218.7        1.2945        0.0001        3.2661        3.2662       1.971769       0.00675
  16     243.0        1.2948        0.0001        3.2476        3.2477       1.952807       0.00658
  15     269.0        1.2954        0.0001        3.2258        3.2259       1.930506       0.00723
  14     297.5        1.2963        0.0001        3.1981        3.1982       1.901837       0.00850
  13     328.5        1.2978        0.0001        3.1576        3.1577       1.859882       0.01141
  12     361.9        1.3001        0.0001        3.0995        3.0996       1.799530       0.01527
  11     398.1        1.3034        0.0002        3.0172        3.0173       1.713869       0.01996
  10     437.6        1.3084        0.0002        2.9065        2.9067       1.598259       0.02472
   9     480.5        1.3157        0.0002        2.7693        2.7695       1.453773       0.02838
   8     533.0        1.3280        0.0002        2.5905        2.5907       1.262743       0.03073
   7     589.8        1.3473        0.0002        2.3956        2.3958       1.048549       0.03179
   6     651.6        1.3768        0.0002        2.1976        2.1978       0.821034       0.03111
   5     718.7        1.4218        0.0002        1.9940        1.9942       0.572358       0.03125
   4     792.3        1.4932        0.0002        1.7824        1.7826       0.289464       0.03244
   3     825.4        0.6148        0.7546        0.0001        0.7547       0.139841       0.03819
   2     858.4        0.4062        0.4830        0.0000        0.4830       0.076718       0.01611
   1     891.5        0.0039        0.0571        0.0000        0.0571       0.053205       0.00600
   0    1013.0        0.0041        0.0533        0.0000        0.0533       0.049141       0.00028



 Wavenumbers:  3250. -  4000. cm-1, ATM      1
 LEVEL PRESSURE   UPWARD FLUX   DIFDOWN FLUX  DIRDOWN FLUX  DOWNWARD FLUX   NET FLUX    HEATING RATE
          mb          W/m2          W/m2          W/m2        W/m2          W/m2       degree/day
  51    .06700        0.0362        0.0000        5.9117        5.9117       5.875408       0.00000
  50    .07753        0.0362        0.0000        5.9075        5.9075       5.871219       3.35808
  49    .09103        0.0362        0.0000        5.9050        5.9050       5.868776       1.52677
  48    0.1069        0.0362        0.0000        5.9032        5.9032       5.866909       0.99346
  47    0.1255        0.0362        0.0000        5.9014        5.9014       5.865151       0.79708
  46    0.1487        0.0362        0.0000        5.8995        5.8995       5.863262       0.68848
  45    0.1794        0.0362        0.0000        5.8974        5.8974       5.861114       0.58983
  44    0.2165        0.0362        0.0000        5.8952        5.8952       5.858997       0.48155
  43    0.2613        0.0362        0.0000        5.8931        5.8931       5.856838       0.40696
  42    0.3336        0.0362        0.0000        5.8899        5.8899       5.853680       0.36820
  41    0.4307        0.0362        0.0000        5.8861        5.8861       5.849843       0.33365
  40    0.5894        0.0362        0.0000        5.8803        5.8803       5.844040       0.30857
  39     1.339        0.0362        0.0000        5.8597        5.8597       5.823443       0.23189
  38     1.782        0.0362        0.0000        5.8513        5.8513       5.815018       0.16039
  37     2.292        0.0362        0.0000        5.8431        5.8431       5.806847       0.13533
  36     5.035        0.0362        0.0000        5.8296        5.8296       5.793403       0.04136
  35     6.613        0.0362        0.0000        5.8046        5.8046       5.768384       0.13375
  34     8.786        0.0362        0.0000        5.7713        5.7713       5.735079       0.12934
  33     11.80        0.0362        0.0000        5.7240        5.7240       5.687747       0.13251
  32     15.07        0.0362        0.0000        5.6738        5.6738       5.637563       0.12957
  31     18.79        0.0362        0.0000        5.6190        5.6191       5.582829       0.12410
  30     23.16        0.0362        0.0000        5.5597        5.5597       5.523465       0.11479
  29     28.12        0.0362        0.0000        5.4987        5.4988       5.462557       0.10354
  28     33.73        0.0362        0.0000        5.4384        5.4384       5.402218       0.09072
  27     40.54        0.0362        0.0001        5.3729        5.3730       5.336798       0.08116
  26     48.69        0.0362        0.0001        5.2997        5.2997       5.263542       0.07581
  25     57.69        0.0362        0.0001        5.2217        5.2218       5.185591       0.07307
  24     68.43        0.0362        0.0001        5.1305        5.1306       5.094476       0.07163
  23     81.20        0.0361        0.0001        5.0257        5.0258       4.989621       0.06929
  22     96.49        0.0361        0.0001        4.9093        4.9094       4.873258       0.06422
  21     114.6        0.0361        0.0001        4.7764        4.7765       4.740403       0.06203
  20     136.5        0.0361        0.0002        4.6356        4.6358       4.599723       0.05409
  19     162.9        0.0361        0.0002        4.4859        4.4861       4.449998       0.04786
  18     196.4        0.0360        0.0002        4.3105        4.3107       4.274679       0.04413
  17     218.7        0.0360        0.0002        4.1899        4.1901       4.154096       0.04578
  16     243.0        0.0360        0.0003        4.0235        4.0238       3.987788       0.05768
  15     269.0        0.0360        0.0003        3.8212        3.8214       3.785476       0.06563
  14     297.5        0.0360        0.0003        3.5532        3.5535       3.517486       0.07948
  13     328.5        0.0360        0.0003        3.1444        3.1447       3.108666       0.11116
  12     361.9        0.0362        0.0003        2.6688        2.6691       2.632954       0.12036
  11     398.1        0.0364        0.0003        2.2142        2.2144       2.177975       0.10600
  10     437.6        0.0370        0.0002        1.8156        1.8159       1.778889       0.08533
   9     480.5        0.0379        0.0002        1.4745        1.4747       1.436806       0.06718
   8     533.0        0.0399        0.0002        1.1319        1.1320       1.092162       0.05544
   7     589.8        0.0436        0.0002        0.8183        0.8185       0.774860       0.04710
   6     651.6        0.0507        0.0001        0.5439        0.5440       0.493296       0.03850
   5     718.7        0.0646        0.0001        0.3279        0.3279       0.263392       0.02889
   4     792.3        0.0945        0.0001        0.1664        0.1664       0.071929       0.02196
   3     825.4        0.0078        0.0172        0.0000        0.0172       0.009404       0.01596
   2     858.4        0.0015        0.0026        0.0000        0.0026       0.001010       0.00214
   1     891.5        0.0000        0.0000        0.0000        0.0000       0.000047       0.00025
   0    1013.0        0.0000        0.0000        0.0000        0.0000       0.000011       0.00000



 Wavenumbers:  4000. -  4650. cm-1, ATM      1
 LEVEL PRESSURE   UPWARD FLUX   DIFDOWN FLUX  DIRDOWN FLUX  DOWNWARD FLUX   NET FLUX    HEATING RATE
          mb          W/m2          W/m2          W/m2        W/m2          W/m2       degree/day
  51    .06700        4.3503        0.0000        6.9421        6.9421       2.591764       0.00000
  50    .07753        4.3503        0.0000        6.9421        6.9421       2.591763       0.00080
  49    .09103        4.3503        0.0000        6.9421        6.9421       2.591762       0.00078
  48    0.1069        4.3503        0.0000        6.9421        6.9421       2.591761       0.00077
  47    0.1255        4.3503        0.0000        6.9421        6.9421       2.591759       0.00075
  46    0.1487        4.3503        0.0000        6.9421        6.9421       2.591757       0.00076
  45    0.1794        4.3503        0.0000        6.9421        6.9421       2.591754       0.00078
  44    0.2165        4.3503        0.0000        6.9421        6.9421       2.591751       0.00077
  43    0.2613        4.3503        0.0000        6.9421        6.9421       2.591747       0.00075
  42    0.3336        4.3503        0.0000        6.9420        6.9420       2.591740       0.00077
  41    0.4307        4.3503        0.0000        6.9420        6.9420       2.591731       0.00078
  40    0.5894        4.3503        0.0000        6.9420        6.9420       2.591716       0.00080
  39     1.339        4.3503        0.0000        6.9419        6.9419       2.591627       0.00101
  38     1.782        4.3503        0.0000        6.9418        6.9419       2.591556       0.00133
  37     2.292        4.3503        0.0000        6.9418        6.9418       2.591462       0.00156
  36     5.035        4.3503        0.0000        6.9415        6.9416       2.591253       0.00064
  35     6.613        4.3503        0.0000        6.9411        6.9411       2.590800       0.00242
  34     8.786        4.3503        0.0000        6.9404        6.9404       2.590131       0.00260
  33     11.80        4.3503        0.0000        6.9393        6.9394       2.589082       0.00294
  32     15.07        4.3503        0.0001        6.9381        6.9381       2.587855       0.00317
  31     18.79        4.3503        0.0001        6.9366        6.9367       2.586375       0.00336
  30     23.16        4.3503        0.0001        6.9347        6.9348       2.584543       0.00354
  29     28.12        4.3503        0.0001        6.9325        6.9326       2.582333       0.00376
  28     33.73        4.3503        0.0001        6.9298        6.9299       2.579619       0.00408
  27     40.54        4.3503        0.0002        6.9261        6.9263       2.575955       0.00455
  26     48.69        4.3503        0.0002        6.9212        6.9214       2.571099       0.00503
  25     57.69        4.3504        0.0003        6.9155        6.9158       2.565377       0.00536
  24     68.43        4.3505        0.0003        6.9084        6.9087       2.558251       0.00560
  23     81.20        4.3506        0.0004        6.8998        6.9001       2.549518       0.00577
  22     96.49        4.3508        0.0004        6.8893        6.8897       2.538946       0.00584
  21     114.6        4.3511        0.0005        6.8763        6.8768       2.525687       0.00619
  20     136.5        4.3515        0.0006        6.8607        6.8613       2.509810       0.00611
  19     162.9        4.3521        0.0007        6.8420        6.8427       2.490677       0.00612
  18     196.4        4.3530        0.0009        6.8175        6.8183       2.465346       0.00638
  17     218.7        4.3537        0.0010        6.8006        6.8016       2.447835       0.00665
  16     243.0        4.3548        0.0011        6.7808        6.7818       2.427084       0.00720
  15     269.0        4.3562        0.0012        6.7567        6.7579       2.401677       0.00824
  14     297.5        4.3582        0.0013        6.7263        6.7276       2.369466       0.00955
  13     328.5        4.3613        0.0014        6.6838        6.6853       2.323953       0.01237
  12     361.9        4.3659        0.0016        6.6248        6.6263       2.260491       0.01606
  11     398.1        4.3722        0.0017        6.5426        6.5443       2.172140       0.02058
  10     437.6        4.3805        0.0019        6.4366        6.4385       2.057989       0.02441
   9     480.5        4.3914        0.0020        6.3129        6.3149       1.923444       0.02642
   8     533.0        4.4088        0.0022        6.1571        6.1594       1.750580       0.02781
   7     589.8        4.4346        0.0024        5.9755        5.9779       1.543278       0.03077
   6     651.6        4.4734        0.0026        5.7522        5.7548       1.281394       0.03581
   5     718.7        4.5332        0.0028        5.4867        5.4895       0.956286       0.04086
   4     792.3        4.6298        0.0029        5.1977        5.2006       0.570776       0.04421
   3     825.4        2.2686        2.6295        0.0002        2.6297       0.361086       0.05352
   2     858.4        1.6160        1.8814        0.0000        1.8814       0.265392       0.02443
   1     891.5        0.0125        0.2395        0.0000        0.2395       0.227040       0.00979
   0    1013.0        0.0128        0.2330        0.0000        0.2330       0.220244       0.00047



 Wavenumbers:  4650. -  5150. cm-1, ATM      1
 LEVEL PRESSURE   UPWARD FLUX   DIFDOWN FLUX  DIRDOWN FLUX  DOWNWARD FLUX   NET FLUX    HEATING RATE
          mb          W/m2          W/m2          W/m2        W/m2          W/m2       degree/day
  51    .06700        3.0379        0.0000        6.5710        6.5710       3.533104       0.00000
  50    .07753        3.0379        0.0000        6.5708        6.5708       3.532869       0.18861
  49    .09103        3.0379        0.0000        6.5705        6.5705       3.532576       0.18337
  48    0.1069        3.0379        0.0000        6.5701        6.5701       3.532242       0.17782
  47    0.1255        3.0379        0.0000        6.5698        6.5698       3.531862       0.17215
  46    0.1487        3.0379        0.0000        6.5693        6.5693       3.531389       0.17245
  45    0.1794        3.0379        0.0000        6.5686        6.5686       3.530753       0.17450
  44    0.2165        3.0379        0.0000        6.5679        6.5679       3.530016       0.16765
  43    0.2613        3.0379        0.0000        6.5671        6.5671       3.529164       0.16056
  42    0.3336        3.0379        0.0000        6.5657        6.5657       3.527803       0.15872
  41    0.4307        3.0379        0.0000        6.5640        6.5640       3.526084       0.14951
  40    0.5894        3.0379        0.0000        6.5614        6.5614       3.523471       0.13894
  39     1.339        3.0379        0.0000        6.5516        6.5516       3.513706       0.10993
  38     1.782        3.0379        0.0000        6.5474        6.5474       3.509496       0.08016
  37     2.292        3.0379        0.0000        6.5435        6.5435       3.505614       0.06430
  36     5.035        3.0379        0.0000        6.5385        6.5385       3.500595       0.01544
  35     6.613        3.0379        0.0000        6.5323        6.5323       3.494420       0.03301
  34     8.786        3.0379        0.0000        6.5260        6.5260       3.488136       0.02441
  33     11.80        3.0379        0.0001        6.5176        6.5176       3.479758       0.02346
  32     15.07        3.0379        0.0001        6.5081        6.5082       3.470261       0.02452
  31     18.79        3.0379        0.0001        6.4964        6.4965       3.458622       0.02639
  30     23.16        3.0379        0.0001        6.4817        6.4818       3.443875       0.02851
  29     28.12        3.0380        0.0002        6.4635        6.4637       3.425707       0.03088
  28     33.73        3.0380        0.0002        6.4419        6.4421       3.404042       0.03257
  27     40.54        3.0381        0.0003        6.4145        6.4147       3.376614       0.03403
  26     48.69        3.0383        0.0003        6.3805        6.3809       3.342591       0.03521
  25     57.69        3.0384        0.0004        6.3431        6.3435       3.305058       0.03518
  24     68.43        3.0387        0.0004        6.2996        6.3000       3.261331       0.03438
  23     81.20        3.0390        0.0005        6.2504        6.2509       3.211872       0.03268
  22     96.49        3.0395        0.0006        6.1967        6.1973       3.157735       0.02988
  21     114.6        3.0402        0.0007        6.1397        6.1404       3.100199       0.02687
  20     136.5        3.0412        0.0008        6.0804        6.0812       3.040044       0.02313
  19     162.9        3.0426        0.0010        6.0175        6.0185       2.975967       0.02048
  18     196.4        3.0446        0.0012        5.9421        5.9433       2.898685       0.01945
  17     218.7        3.0462        0.0013        5.8932        5.8945       2.848255       0.01915
  16     243.0        3.0482        0.0015        5.8387        5.8401       2.791881       0.01955
  15     269.0        3.0507        0.0016        5.7771        5.7787       2.727995       0.02072
  14     297.5        3.0540        0.0018        5.7061        5.7078       2.653859       0.02199
  13     328.5        3.0585        0.0019        5.6199        5.6219       2.563393       0.02460
  12     361.9        3.0648        0.0021        5.5155        5.5176       2.452783       0.02799
  11     398.1        3.0733        0.0023        5.3907        5.3930       2.319697       0.03101
  10     437.6        3.0847        0.0025        5.2442        5.2467       2.162028       0.03371
   9     480.5        3.0998        0.0026        5.0761        5.0787       1.978903       0.03597
   8     533.0        3.1235        0.0029        4.8600        4.8628       1.739358       0.03854
   7     589.8        3.1568        0.0031        4.6210        4.6240       1.467223       0.04039
   6     651.6        3.2040        0.0032        4.3682        4.3714       1.167464       0.04099
   5     718.7        3.2710        0.0034        4.1089        4.1123       0.841273       0.04099
   4     792.3        3.3688        0.0036        3.8442        3.8478       0.478960       0.04155
   3     825.4        1.5731        1.8521        0.0001        1.8523       0.279199       0.05099
   2     858.4        1.0991        1.2861        0.0000        1.2861       0.186992       0.02354
   1     891.5        0.0085        0.1604        0.0000        0.1604       0.151948       0.00895
   0    1013.0        0.0088        0.1549        0.0000        0.1549       0.146086       0.00041



 Wavenumbers:  5150. -  6150. cm-1, ATM      1
 LEVEL PRESSURE   UPWARD FLUX   DIFDOWN FLUX  DIRDOWN FLUX  DOWNWARD FLUX   NET FLUX    HEATING RATE
          mb          W/m2          W/m2          W/m2        W/m2          W/m2       degree/day
  51    .06700        7.5459        0.0000       16.4735       16.4735       8.927608       0.00000
  50    .07753        7.5459        0.0000       16.4735       16.4735       8.927574       0.02765
  49    .09103        7.5459        0.0000       16.4734       16.4734       8.927529       0.02814
  48    0.1069        7.5459        0.0000       16.4734       16.4734       8.927475       0.02863
  47    0.1255        7.5459        0.0000       16.4733       16.4733       8.927411       0.02908
  46    0.1487        7.5459        0.0000       16.4732       16.4732       8.927327       0.03063
  45    0.1794        7.5459        0.0000       16.4731       16.4731       8.927208       0.03273
  44    0.2165        7.5459        0.0000       16.4730       16.4730       8.927061       0.03335
  43    0.2613        7.5459        0.0000       16.4728       16.4728       8.926882       0.03380
  42    0.3336        7.5459        0.0000       16.4725       16.4725       8.926576       0.03568
  41    0.4307        7.5459        0.0000       16.4720       16.4720       8.926156       0.03649
  40    0.5894        7.5459        0.0000       16.4713       16.4713       8.925454       0.03733
  39     1.339        7.5459        0.0000       16.4679       16.4679       8.922041       0.03843
  38     1.782        7.5459        0.0001       16.4659       16.4659       8.920038       0.03813
  37     2.292        7.5459        0.0001       16.4635       16.4636       8.917742       0.03803
  36     5.035        7.5459        0.0001       16.4596       16.4597       8.913809       0.01210
  35     6.613        7.5459        0.0001       16.4527       16.4529       8.907006       0.03637
  34     8.786        7.5459        0.0002       16.4439       16.4441       8.898233       0.03407
  33     11.80        7.5459        0.0003       16.4320       16.4323       8.886439       0.03302
  32     15.07        7.5459        0.0004       16.4202       16.4205       8.874672       0.03038
  31     18.79        7.5459        0.0005       16.4078       16.4083       8.862418       0.02778
  30     23.16        7.5459        0.0006       16.3947       16.3953       8.849369       0.02523
  29     28.12        7.5460        0.0008       16.3811       16.3818       8.835891       0.02291
  28     33.73        7.5460        0.0009       16.3674       16.3683       8.822315       0.02041
  27     40.54        7.5461        0.0011       16.3526       16.3537       8.807612       0.01824
  26     48.69        7.5463        0.0014       16.3368       16.3382       8.791886       0.01627
  25     57.69        7.5465        0.0017       16.3215       16.3231       8.776665       0.01427
  24     68.43        7.5467        0.0020       16.3054       16.3073       8.760594       0.01263
  23     81.20        7.5471        0.0023       16.2884       16.2907       8.743639       0.01120
  22     96.49        7.5475        0.0028       16.2704       16.2732       8.725677       0.00991
  21     114.6        7.5481        0.0033       16.2506       16.2539       8.705830       0.00927
  20     136.5        7.5488        0.0040       16.2277       16.2317       8.682926       0.00881
  19     162.9        7.5496        0.0047       16.1999       16.2046       8.655010       0.00892
  18     196.4        7.5508        0.0057       16.1571       16.1628       8.612009       0.01082
  17     218.7        7.5516        0.0063       16.1115       16.1178       8.566248       0.01737
  16     243.0        7.5525        0.0070       16.0130       16.0200       8.467529       0.03424
  15     269.0        7.5536        0.0077       15.8150       15.8228       8.269212       0.06433
  14     297.5        7.5549        0.0084       15.4733       15.4818       7.926847       0.10154
  13     328.5        7.5569        0.0091       14.9375       14.9466       7.389762       0.14603
  12     361.9        7.5597        0.0097       14.2928       14.3025       6.742817       0.16368
  11     398.1        7.5639        0.0103       13.4968       13.5071       5.943170       0.18630
  10     437.6        7.5703        0.0108       12.6406       12.6514       5.081105       0.18431
   9     480.5        7.5797        0.0113       11.8031       11.8144       4.234722       0.16623
   8     533.0        7.5964        0.0118       10.9312       10.9430       3.346599       0.14287
   7     589.8        7.6248        0.0124       10.1889       10.2013       2.576563       0.11430
   6     651.6        7.6718        0.0130        9.6118        9.6249       1.953038       0.08527
   5     718.7        7.7503        0.0138        9.1585        9.1722       1.421949       0.06674
   4     792.3        7.8842        0.0147        8.7459        8.7606       0.876360       0.06257
   3     825.4        4.0010        4.5795        0.0003        4.5798       0.578860       0.07594
   2     858.4        2.9033        3.3610        0.0000        3.3610       0.457667       0.03094
   1     891.5        0.0257        0.4402        0.0000        0.4402       0.414517       0.01102
   0    1013.0        0.0260        0.4331        0.0000        0.4331       0.407152       0.00051



 Wavenumbers:  6150. -  7700. cm-1, ATM      1
 LEVEL PRESSURE   UPWARD FLUX   DIFDOWN FLUX  DIRDOWN FLUX  DOWNWARD FLUX   NET FLUX    HEATING RATE
          mb          W/m2          W/m2          W/m2        W/m2          W/m2       degree/day
  51    .06700       12.0529        0.0000       30.4684       30.4684      18.415529       0.00000
  50    .07753       12.0529        0.0000       30.4683       30.4683      18.415477       0.04144
  49    .09103       12.0528        0.0000       30.4683       30.4683      18.415410       0.04173
  48    0.1069       12.0528        0.0000       30.4682       30.4682      18.415331       0.04202
  47    0.1255       12.0528        0.0000       30.4681       30.4681      18.415238       0.04227
  46    0.1487       12.0528        0.0000       30.4680       30.4680      18.415117       0.04411
  45    0.1794       12.0528        0.0000       30.4678       30.4678      18.414947       0.04669
  44    0.2165       12.0528        0.0000       30.4676       30.4676      18.414740       0.04715
  43    0.2613       12.0528        0.0000       30.4673       30.4673      18.414488       0.04744
  42    0.3336       12.0528        0.0000       30.4669       30.4669      18.414061       0.04974
  41    0.4307       12.0528        0.0000       30.4663       30.4663      18.413480       0.05052
  40    0.5894       12.0528        0.0001       30.4653       30.4653      18.412513       0.05146
  39     1.339       12.0527        0.0002       30.4604       30.4606      18.407829       0.05273
  38     1.782       12.0527        0.0002       30.4576       30.4578      18.405079       0.05235
  37     2.292       12.0527        0.0003       30.4543       30.4546      18.401921       0.05231
  36     5.035       12.0526        0.0004       30.4487       30.4491      18.396505       0.01667
  35     6.613       12.0524        0.0006       30.4389       30.4395      18.387077       0.05040
  34     8.786       12.0523        0.0008       30.4262       30.4270      18.374739       0.04792
  33     11.80       12.0520        0.0012       30.4086       30.4098      18.357782       0.04747
  32     15.07       12.0517        0.0016       30.3906       30.3922      18.340452       0.04474
  31     18.79       12.0514        0.0021       30.3713       30.3733      18.321931       0.04199
  30     23.16       12.0510        0.0026       30.3499       30.3525      18.301504       0.03950
  29     28.12       12.0506        0.0032       30.3270       30.3303      18.279656       0.03714
  28     33.73       12.0501        0.0039       30.3031       30.3070      18.256836       0.03431
  27     40.54       12.0496        0.0047       30.2762       30.2809      18.231330       0.03164
  26     48.69       12.0489        0.0057       30.2463       30.2520      18.203113       0.02920
  25     57.69       12.0481        0.0068       30.2162       30.2230      18.174893       0.02645
  24     68.43       12.0472        0.0081       30.1834       30.1916      18.144335       0.02402
  23     81.20       12.0462        0.0097       30.1480       30.1577      18.111537       0.02167
  22     96.49       12.0449        0.0115       30.1099       30.1214      18.076558       0.01931
  21     114.6       12.0434        0.0137       30.0679       30.0816      18.038221       0.01790
  20     136.5       12.0416        0.0163       30.0202       30.0365      17.994936       0.01664
  19     162.9       12.0395        0.0195       29.9637       29.9831      17.943660       0.01639
  18     196.4       12.0368        0.0235       29.8817       29.9053      17.868481       0.01892
  17     218.7       12.0351        0.0261       29.8045       29.8307      17.795633       0.02766
  16     243.0       12.0333        0.0290       29.6618       29.6907      17.657441       0.04793
  15     269.0       12.0316        0.0320       29.3983       29.4303      17.398733       0.08392
  14     297.5       12.0301        0.0350       28.9198       28.9548      16.924702       0.14059
  13     328.5       12.0296        0.0379       28.0356       28.0736      16.043997       0.23946
  12     361.9       12.0309        0.0407       26.9241       26.9648      14.933844       0.28088
  11     398.1       12.0355        0.0432       25.6009       25.6441      13.608577       0.30876
  10     437.6       12.0456        0.0455       24.0714       24.1169      12.071321       0.32867
   9     480.5       12.0639        0.0475       22.4859       22.5335      10.469538       0.31458
   8     533.0       12.1014        0.0496       20.6982       20.7478       8.646375       0.29329
   7     589.8       12.1704        0.0515       18.9642       19.0156       6.845251       0.26735
   6     651.6       12.2904        0.0532       17.3775       17.4307       5.140244       0.23316
   5     718.7       12.4968        0.0550       15.9421       15.9970       3.500202       0.20611
   4     792.3       12.8640        0.0567       14.6387       14.6954       1.831439       0.19139
   3     825.4        6.1215        7.1466        0.0005        7.1471       1.025547       0.20570
   2     858.4        4.3335        5.0506        0.0000        5.0506       0.717172       0.07872
   1     891.5        0.0391        0.6455        0.0000        0.6455       0.606400       0.02829
   0    1013.0        0.0400        0.6273        0.0000        0.6273       0.587377       0.00132



 Wavenumbers:  7700. -  8050. cm-1, ATM      1
 LEVEL PRESSURE   UPWARD FLUX   DIFDOWN FLUX  DIRDOWN FLUX  DOWNWARD FLUX   NET FLUX    HEATING RATE
          mb          W/m2          W/m2          W/m2        W/m2          W/m2       degree/day
  51    .06700        5.3941        0.0000        7.2006        7.2006       1.806470       0.00000
  50    .07753        5.3941        0.0000        7.2006        7.2006       1.806448       0.01710
  49    .09103        5.3941        0.0000        7.2005        7.2005       1.806422       0.01676
  48    0.1069        5.3941        0.0000        7.2005        7.2005       1.806391       0.01641
  47    0.1255        5.3941        0.0000        7.2005        7.2005       1.806355       0.01605
  46    0.1487        5.3941        0.0000        7.2004        7.2005       1.806311       0.01629
  45    0.1794        5.3942        0.0000        7.2004        7.2004       1.806250       0.01676
  44    0.2165        5.3942        0.0000        7.2003        7.2003       1.806177       0.01644
  43    0.2613        5.3942        0.0000        7.2003        7.2003       1.806092       0.01613
  42    0.3336        5.3942        0.0000        7.2001        7.2001       1.805950       0.01651
  41    0.4307        5.3942        0.0000        7.2000        7.2000       1.805762       0.01633
  40    0.5894        5.3943        0.0000        7.1997        7.1997       1.805456       0.01631
  39     1.339        5.3945        0.0001        7.1984        7.1985       1.804005       0.01633
  38     1.782        5.3946        0.0001        7.1977        7.1978       1.803153       0.01622
  37     2.292        5.3948        0.0001        7.1968        7.1970       1.802167       0.01633
  36     5.035        5.3951        0.0002        7.1953        7.1955       1.800457       0.00526
  35     6.613        5.3955        0.0003        7.1927        7.1929       1.797422       0.01623
  34     8.786        5.3962        0.0004        7.1891        7.1895       1.793337       0.01587
  33     11.80        5.3971        0.0005        7.1841        7.1846       1.787503       0.01633
  32     15.07        5.3981        0.0007        7.1786        7.1793       1.781253       0.01614
  31     18.79        5.3992        0.0009        7.1725        7.1734       1.774210       0.01597
  30     23.16        5.4005        0.0011        7.1654        7.1665       1.766009       0.01586
  29     28.12        5.4020        0.0014        7.1573        7.1587       1.756664       0.01589
  28     33.73        5.4037        0.0017        7.1482        7.1499       1.746248       0.01566
  27     40.54        5.4057        0.0021        7.1374        7.1395       1.733726       0.01554
  26     48.69        5.4082        0.0025        7.1244        7.1270       1.718718       0.01553
  25     57.69        5.4110        0.0030        7.1103        7.1133       1.702344       0.01535
  24     68.43        5.4143        0.0035        7.0937        7.0973       1.682995       0.01521
  23     81.20        5.4182        0.0042        7.0742        7.0784       1.660154       0.01509
  22     96.49        5.4230        0.0050        7.0512        7.0562       1.633232       0.01486
  21     114.6        5.4287        0.0060        7.0244        7.0304       1.601667       0.01474
  20     136.5        5.4355        0.0071        6.9932        7.0003       1.564792       0.01418
  19     162.9        5.4438        0.0085        6.9570        6.9654       1.521595       0.01381
  18     196.4        5.4547        0.0102        6.9112        6.9214       1.466668       0.01383
  17     218.7        5.4620        0.0113        6.8819        6.8932       1.431169       0.01348
  16     243.0        5.4701        0.0125        6.8506        6.8631       1.393054       0.01322
  15     269.0        5.4789        0.0139        6.8173        6.8311       1.352245       0.01324
  14     297.5        5.4886        0.0153        6.7819        6.7972       1.308577       0.01295
  13     328.5        5.4994        0.0169        6.7443        6.7612       1.261763       0.01273
  12     361.9        5.5114        0.0185        6.7044        6.7229       1.211517       0.01271
  11     398.1        5.5247        0.0203        6.6617        6.6820       1.157331       0.01262
  10     437.6        5.5397        0.0222        6.6160        6.6383       1.098580       0.01256
   9     480.5        5.5566        0.0243        6.5670        6.5912       1.034590       0.01257
   8     533.0        5.5788        0.0268        6.5060        6.5327       0.953888       0.01298
   7     589.8        5.6049        0.0295        6.4385        6.4679       0.862990       0.01349
   6     651.6        5.6358        0.0323        6.3634        6.3958       0.759988       0.01409
   5     718.7        5.6727        0.0354        6.2792        6.3145       0.641837       0.01485
   4     792.3        5.7173        0.0386        6.1840        6.2226       0.505284       0.01566
   3     825.4        3.0120        3.4206        0.0002        3.4208       0.408825       0.02462
   2     858.4        2.1994        2.5431        0.0000        2.5431       0.343699       0.01662
   1     891.5        0.0235        0.3370        0.0000        0.3370       0.313513       0.00771
   0    1013.0        0.0238        0.3316        0.0000        0.3316       0.307784       0.00040



 Wavenumbers:  8050. - 12850. cm-1, ATM      1
 LEVEL PRESSURE   UPWARD FLUX   DIFDOWN FLUX  DIRDOWN FLUX  DOWNWARD FLUX   NET FLUX    HEATING RATE
          mb          W/m2          W/m2          W/m2        W/m2          W/m2       degree/day
  51    .06700       72.5728        0.0000      100.8135      100.8135      28.240698       0.00000
  50    .07753       72.5728        0.0000      100.8135      100.8135      28.240698       0.00000
  49    .09103       72.5728        0.0001      100.8134      100.8135      28.240698       0.00000
  48    0.1069       72.5728        0.0001      100.8134      100.8135      28.240698       0.00000
  47    0.1255       72.5727        0.0002      100.8133      100.8134      28.240698      -0.00000
  46    0.1487       72.5727        0.0002      100.8132      100.8134      28.240698       0.00000
  45    0.1794       72.5727        0.0003      100.8131      100.8134      28.240698       0.00000
  44    0.2165       72.5726        0.0004      100.8129      100.8133      28.240698      -0.00000
  43    0.2613       72.5726        0.0005      100.8127      100.8133      28.240698      -0.00000
  42    0.3336       72.5725        0.0007      100.8125      100.8132      28.240698       0.00000
  41    0.4307       72.5723        0.0010      100.8121      100.8130      28.240698       0.00000
  40    0.5894       72.5721        0.0014      100.8115      100.8128      28.240698      -0.00000
  39     1.339       72.5711        0.0034      100.8085      100.8118      28.240698       0.00000
  38     1.782       72.5706        0.0045      100.8068      100.8113      28.240698       0.00000
  37     2.292       72.5699        0.0059      100.8047      100.8106      28.240698      -0.00000
  36     5.035       72.5687        0.0082      100.8013      100.8094      28.240698       0.00000
  35     6.613       72.5667        0.0123      100.7951      100.8074      28.240698      -0.00000
  34     8.786       72.5639        0.0179      100.7867      100.8046      28.240698       0.00000
  33     11.80       72.5599        0.0259      100.7747      100.8006      28.240698       0.00000
  32     15.07       72.5556        0.0345      100.7618      100.7963      28.240698      -0.00000
  31     18.79       72.5508        0.0442      100.7473      100.7915      28.240698       0.00000
  30     23.16       72.5451        0.0556      100.7303      100.7858      28.240698       0.00000
  29     28.12       72.5386        0.0686      100.7108      100.7793      28.240698      -0.00000
  28     33.73       72.5314        0.0831      100.6889      100.7721      28.240698      -0.00000
  27     40.54       72.5226        0.1008      100.6625      100.7633      28.240698      -0.00000
  26     48.69       72.5120        0.1220      100.6306      100.7527      28.240698       0.00000
  25     57.69       72.5003        0.1454      100.5955      100.7410      28.240698      -0.00000
  24     68.43       72.4864        0.1734      100.5537      100.7271      28.240698       0.00000
  23     81.20       72.4698        0.2067      100.5038      100.7105      28.240698       0.00000
  22     96.49       72.4499        0.2464      100.4442      100.6906      28.240698       0.00000
  21     114.6       72.4265        0.2937      100.3660      100.6596      28.233100       0.00355
  20     136.5       72.3988        0.3498      100.2732      100.6230      28.224198       0.00342
  19     162.9       72.3656        0.4168      100.1621      100.5789      28.213330       0.00347
  18     196.4       72.3223        0.5038      100.0149      100.5187      28.196351       0.00427
  17     218.7       72.2939        0.5611       99.9102      100.4713      28.177382       0.00720
  16     243.0       72.2632        0.6235       99.7741      100.3975      28.134319       0.01494
  15     269.0       72.2304        0.6910       99.5827      100.2738      28.043388       0.02950
  14     297.5       72.1961        0.7640       99.2988      100.0628      27.866692       0.05241
  13     328.5       72.1628        0.8424       98.8294       99.6718      27.508970       0.09726
  12     361.9       72.1336        0.9262       98.1872       99.1134      26.979827       0.13388
  11     398.1       72.1137        1.0156       97.3203       98.3359      26.222138       0.17652
  10     437.6       72.1109        1.1101       96.1652       97.2754      25.164434       0.22614
   9     480.5       72.1357        1.2095       94.7102       95.9197      23.784012       0.27111
   8     533.0       72.2193        1.3286       92.6607       93.9893      21.769939       0.32400
   7     589.8       72.4074        1.4521       90.1354       91.5875      19.180141       0.38441
   6     651.6       72.7599        1.5794       87.2636       88.8431      16.083118       0.42353
   5     718.7       73.3776        1.7101       84.1144       85.8245      12.446890       0.45697
   4     792.3       74.4503        1.8427       80.6691       82.5117       8.061434       0.50296
   3     825.4       38.2878       43.7964        0.0027       43.7991       5.511319       0.65090
   2     858.4       27.8715       32.1965        0.0000       32.1965       4.325000       0.30283
   1     891.5        1.0020        4.8505        0.0000        4.8505       3.848519       0.12167
   0    1013.0        1.0149        4.7558        0.0000        4.7558       3.740879       0.00747



 Wavenumbers: 12850. - 16000. cm-1, ATM      1
 LEVEL PRESSURE   UPWARD FLUX   DIFDOWN FLUX  DIRDOWN FLUX  DOWNWARD FLUX   NET FLUX    HEATING RATE
          mb          W/m2          W/m2          W/m2        W/m2          W/m2       degree/day
  51    .06700       51.1398        0.0000       63.1686       63.1686      12.028784       0.00000
  50    .07753       51.1398        0.0001       63.1677       63.1678      12.028000       0.62814
  49    .09103       51.1398        0.0001       63.1666       63.1668      12.027022       0.61099
  48    0.1069       51.1397        0.0002       63.1654       63.1656      12.025908       0.59312
  47    0.1255       51.1397        0.0003       63.1640       63.1644      12.024639       0.57526
  46    0.1487       51.1397        0.0005       63.1623       63.1628      12.023054       0.57773
  45    0.1794       51.1397        0.0006       63.1600       63.1606      12.020926       0.58442
  44    0.2165       51.1397        0.0008       63.1573       63.1581      12.018459       0.56113
  43    0.2613       51.1397        0.0011       63.1542       63.1553      12.015607       0.53759
  42    0.3336       51.1398        0.0015       63.1493       63.1508      12.011049       0.53140
  41    0.4307       51.1399        0.0021       63.1431       63.1452      12.005327       0.49753
  40    0.5894       51.1402        0.0029       63.1338       63.1368      11.996609       0.46362
  39     1.339       51.1435        0.0072       63.0956       63.1027      11.959217       0.42096
  38     1.782       51.1469        0.0096       63.0740       63.0837      11.936741       0.42790
  37     2.292       51.1522        0.0125       63.0477       63.0602      11.907967       0.47658
  36     5.035       51.1670        0.0175       62.9905       63.0080      11.841038       0.20592
  35     6.613       51.1983        0.0263       62.8788       62.9051      11.706815       0.71756
  34     8.786       51.2391        0.0382       62.7339       62.7720      11.532951       0.67523
  33     11.80       51.2918        0.0551       62.5425       62.5976      11.305823       0.63589
  32     15.07       51.3418        0.0733       62.3553       62.4285      11.086718       0.56569
  31     18.79       51.3925        0.0937       62.1605       62.2542      10.861698       0.51019
  30     23.16       51.4449        0.1175       61.9520       62.0696      10.624698       0.45828
  29     28.12       51.4969        0.1447       61.7358       61.8805      10.383634       0.40979
  28     33.73       51.5438        0.1751       61.5241       61.6992      10.155415       0.34313
  27     40.54       51.5874        0.2118       61.3031       61.5149       9.927546       0.28270
  26     48.69       51.6272        0.2560       61.0712       61.3272       9.699997       0.23548
  25     57.69       51.6587        0.3044       60.8497       61.1541       9.495461       0.19172
  24     68.43       51.6829        0.3621       60.6209       60.9830       9.300134       0.15355
  23     81.20       51.6934        0.4308       60.3935       60.8243       9.130870       0.11185
  22     96.49       51.6892        0.5126       60.1631       60.6757       8.986547       0.07966
  21     114.6       51.6831        0.6104       59.9059       60.5164       8.833266       0.07157
  20     136.5       51.6688        0.7262       59.6132       60.3394       8.670682       0.06252
  19     162.9       51.6451        0.8638       59.2740       60.1378       8.492659       0.05690
  18     196.4       51.6006        1.0418       58.8571       59.8989       8.298338       0.04891
  17     218.7       51.5664        1.1585       58.5919       59.7504       8.184016       0.04340
  16     243.0       51.5271        1.2851       58.3075       59.5926       8.065554       0.04109
  15     269.0       51.4823        1.4221       58.0041       59.4262       7.943815       0.03949
  14     297.5       51.4323        1.5698       57.6802       59.2500       7.817765       0.03738
  13     328.5       51.3784        1.7292       57.3298       59.0590       7.680565       0.03730
  12     361.9       51.3215        1.9003       56.9493       58.8496       7.528087       0.03858
  11     398.1       51.2630        2.0841       56.5328       58.6169       7.353935       0.04057
  10     437.6       51.2049        2.2809       56.0726       58.3535       7.148540       0.04391
   9     480.5       51.1500        2.4910       55.5619       58.0529       6.902936       0.04824
   8     533.0       51.0963        2.7483       54.9030       57.6513       6.555010       0.05597
   7     589.8       51.0636        3.0234       54.1438       57.1671       6.103569       0.06701
   6     651.6       51.0648        3.3161       53.2742       56.5903       5.525445       0.07906
   5     718.7       51.1128        3.6256       52.3013       55.9269       4.814054       0.08940
   4     792.3       51.2355        3.9501       51.2172       55.1673       3.931781       0.10119
   3     825.4       29.0784       32.3972        0.0017       32.3990       3.320526       0.15602
   2     858.4       22.2099       25.1603        0.0000       25.1603       2.950392       0.09448
   1     891.5        3.1263        5.8950        0.0000        5.8950       2.768701       0.04639
   0    1013.0        3.1416        5.8362        0.0000        5.8362       2.694575       0.00515



 Wavenumbers: 16000. - 22650. cm-1, ATM      1
 LEVEL PRESSURE   UPWARD FLUX   DIFDOWN FLUX  DIRDOWN FLUX  DOWNWARD FLUX   NET FLUX    HEATING RATE
          mb          W/m2          W/m2          W/m2        W/m2          W/m2       degree/day
  51    .06700       86.0829        0.0000      100.7153      100.7153      14.632401       0.00000
  50    .07753       86.0828        0.0003      100.7147      100.7151      14.632279       0.09797
  49    .09103       86.0827        0.0008      100.7140      100.7148      14.632101       0.11112
  48    0.1069       86.0825        0.0012      100.7131      100.7144      14.631863       0.12672
  47    0.1255       86.0824        0.0018      100.7121      100.7139      14.631544       0.14444
  46    0.1487       86.0822        0.0025      100.7108      100.7133      14.631075       0.17116
  45    0.1794       86.0820        0.0035      100.7089      100.7124      14.630341       0.20153
  44    0.2165       86.0818        0.0046      100.7066      100.7112      14.629345       0.22649
  43    0.2613       86.0817        0.0060      100.7037      100.7097      14.627994       0.25463
  42    0.3336       86.0815        0.0082      100.6987      100.7069      14.625426       0.29943
  41    0.4307       86.0814        0.0112      100.6918      100.7030      14.621555       0.33659
  40    0.5894       86.0816        0.0160      100.6797      100.6958      14.614172       0.39260
  39     1.339       86.0888        0.0390      100.6095      100.6485      14.559638       0.61395
  38     1.782       86.0977        0.0525      100.5585      100.6109      14.513194       0.88421
  37     2.292       86.1123        0.0680      100.4903      100.5583      14.445985       1.11315
  36     5.035       86.1557        0.0951      100.3339      100.4290      14.273290       0.53134
  35     6.613       86.2495        0.1430      100.0220      100.1650      13.915534       1.91256
  34     8.786       86.3711        0.2073       99.6146       99.8219      13.450876       1.80456
  33     11.80       86.5270        0.2991       99.0740       99.3731      12.846093       1.69320
  32     15.07       86.6736        0.3973       98.5421       98.9395      12.265897       1.49795
  31     18.79       86.8203        0.5079       97.9852       98.4932      11.672881       1.34455
  30     23.16       86.9699        0.6366       97.3849       98.0215      11.051573       1.20141
  29     28.12       87.1158        0.7832       96.7559       97.5391      10.423373       1.06790
  28     33.73       87.2426        0.9467       96.1309       97.0776       9.835096       0.88449
  27     40.54       87.3536        1.1437       95.4654       96.6091       9.255438       0.71913
  26     48.69       87.4468        1.3802       94.7499       96.1301       8.683385       0.59198
  25     57.69       87.5097        1.6390       94.0471       95.6861       8.176377       0.47524
  24     68.43       87.5424        1.9460       93.2983       95.2443       7.701911       0.37299
  23     81.20       87.5233        2.3104       92.5235       94.8339       7.310638       0.25855
  22     96.49       87.4470        2.7427       91.7088       94.4515       7.004523       0.16895
  21     114.6       87.3297        3.2527       90.8020       94.0547       6.724986       0.13052
  20     136.5       87.1735        3.8523       89.7721       93.6244       6.450928       0.10538
  19     162.9       86.9726        4.5595       88.5906       93.1501       6.177463       0.08741
  18     196.4       86.6787        5.4665       87.1449       92.6114       5.932657       0.06162
  17     218.7       86.4743        6.0561       86.2309       92.2870       5.812645       0.04556
  16     243.0       86.2477        6.6913       85.2582       91.9495       5.701749       0.03846
  15     269.0       85.9978        7.3733       84.2265       91.5998       5.602018       0.03235
  14     297.5       85.7238        8.1029       83.1349       91.2378       5.513941       0.02612
  13     328.5       85.4278        8.8828       81.9737       90.8565       5.428730       0.02317
  12     361.9       85.1097        9.7128       80.7431       90.4559       5.346245       0.02087
  11     398.1       84.7689       10.5950       79.4393       90.0343       5.265435       0.01883
  10     437.6       84.4061       11.5298       78.0600       89.5898       5.183723       0.01747
   9     480.5       84.0211       12.5177       76.6040       89.1216       5.100484       0.01635
   8     533.0       83.5542       13.7138       74.8404       88.5542       4.999982       0.01617
   7     589.8       83.0617       14.9793       72.9694       87.9486       4.886865       0.01679
   6     651.6       82.5462       16.3123       70.9899       87.3022       4.756049       0.01789
   5     718.7       82.0104       17.7112       68.9010       86.6122       4.601851       0.01938
   4     792.3       81.4610       19.1713       66.7022       85.8735       4.412538       0.02171
   3     825.4       53.0405       57.2930        0.0022       57.2952       4.254692       0.04029
   2     858.4       43.6241       47.7584        0.0000       47.7584       4.134291       0.03073
   1     891.5       15.9847       20.0429        0.0000       20.0429       4.058257       0.01941
   0    1013.0       15.9605       19.9656        0.0000       19.9656       4.005090       0.00369



 Wavenumbers: 22650. - 29000. cm-1, ATM      1
 LEVEL PRESSURE   UPWARD FLUX   DIFDOWN FLUX  DIRDOWN FLUX  DOWNWARD FLUX   NET FLUX    HEATING RATE
          mb          W/m2          W/m2          W/m2        W/m2          W/m2       degree/day
  51    .06700       36.5864        0.0000       38.0063       38.0063       1.419902       0.00000
  50    .07753       36.5862        0.0004       38.0057       38.0061       1.419902       0.00000
  49    .09103       36.5860        0.0009       38.0050       38.0059       1.419902       0.00000
  48    0.1069       36.5858        0.0015       38.0042       38.0057       1.419902      -0.00000
  47    0.1255       36.5855        0.0021       38.0033       38.0054       1.419902       0.00000
  46    0.1487       36.5852        0.0029       38.0022       38.0051       1.419902       0.00000
  45    0.1794       36.5847        0.0040       38.0006       38.0046       1.419902       0.00000
  44    0.2165       36.5842        0.0054       37.9987       38.0041       1.419902      -0.00000
  43    0.2613       36.5836        0.0070       37.9965       38.0035       1.419902      -0.00000
  42    0.3336       36.5825        0.0096       37.9928       38.0024       1.419902       0.00000
  41    0.4307       36.5811        0.0130       37.9880       38.0010       1.419902       0.00000
  40    0.5894       36.5788        0.0187       37.9800       37.9987       1.419902       0.00000
  39     1.339       36.5680        0.0454       37.9425       37.9879       1.419902      -0.00000
  38     1.782       36.5616        0.0611       37.9204       37.9815       1.419902      -0.00000
  37     2.292       36.5542        0.0792       37.8949       37.9741       1.419902       0.00000
  36     5.035       36.5414        0.1107       37.8507       37.9613       1.419902      -0.00000
  35     6.613       36.5188        0.1664       37.7722       37.9387       1.419902       0.00000
  34     8.786       36.4883        0.2415       37.6667       37.9082       1.419902      -0.00000
  33     11.80       36.4447        0.3486       37.5161       37.8646       1.419902       0.00000
  32     15.07       36.3982        0.4631       37.3549       37.8181       1.419902       0.00000
  31     18.79       36.3457        0.5920       37.1736       37.7656       1.419902      -0.00000
  30     23.16       36.2848        0.7419       36.9628       37.7047       1.419902       0.00000
  29     28.12       36.2154        0.9124       36.7229       37.6353       1.419902       0.00000
  28     33.73       36.1383        1.1020       36.4561       37.5582       1.419902      -0.00000
  27     40.54       36.0457        1.3294       36.1361       37.4656       1.419902      -0.00000
  26     48.69       35.9350        1.6011       35.7538       37.3549       1.419902       0.00000
  25     57.69       35.8147        1.8964       35.3382       37.2346       1.419902       0.00000
  24     68.43       35.6730        2.2438       34.8491       37.0929       1.419902       0.00000
  23     81.20       35.5066        2.6516       34.2749       36.9265       1.419902       0.00000
  22     96.49       35.3117        3.1289       33.6027       36.7316       1.419902      -0.00000
  21     114.6       35.0849        3.6836       32.8212       36.5048       1.419902       0.00000
  20     136.5       34.8226        4.3244       31.9181       36.2425       1.419902       0.00000
  19     162.9       34.5192        5.0645       30.8746       35.9391       1.419902       0.00000
  18     196.4       34.1396        5.9884       29.5711       35.5595       1.419902       0.00000
  17     218.7       33.8987        6.5735       28.7450       35.3186       1.419902      -0.00000
  16     243.0       33.6440        7.1910       27.8729       35.0639       1.419902       0.00000
  15     269.0       33.3763        7.8389       26.9572       34.7962       1.419902       0.00000
  14     297.5       33.0962        8.5152       26.0010       34.5161       1.419902       0.00000
  13     328.5       32.8039        9.2193       25.0045       34.2238       1.419902      -0.00000
  12     361.9       32.5008        9.9475       23.9732       33.9207       1.419902       0.00000
  11     398.1       32.1874       10.6982       22.9091       33.6073       1.419902       0.00000
  10     437.6       31.8652       11.4672       21.8179       33.2851       1.419902      -0.00000
   9     480.5       31.5352       12.2515       20.7036       32.9552       1.419902       0.00000
   8     533.0       31.1502       13.1624       19.4077       32.5701       1.419902      -0.00000
   7     589.8       30.7588       14.0829       18.0958       32.1787       1.419902      -0.00000
   6     651.6       30.3639       15.0055       16.7783       31.7838       1.419902       0.00000
   5     718.7       29.9687       15.9211       15.4675       31.3886       1.419902       0.00000
   4     792.3       29.5756       16.8233       14.1722       30.9955       1.419902       0.00000
   3     825.4       22.3628       23.7820        0.0004       23.7824       1.419595       0.00008
   2     858.4       19.1288       20.5481        0.0000       20.5481       1.419337       0.00007
   1     891.5        9.5107       10.9295        0.0000       10.9295       1.418796       0.00014
   0    1013.0        9.4615       10.8803        0.0000       10.8803       1.418796      -0.00000



 Wavenumbers: 29000. - 38000. cm-1, ATM      1
 LEVEL PRESSURE   UPWARD FLUX   DIFDOWN FLUX  DIRDOWN FLUX  DOWNWARD FLUX   NET FLUX    HEATING RATE
          mb          W/m2          W/m2          W/m2        W/m2          W/m2       degree/day
  51    .06700        5.2802        0.0000       13.4026       13.4026       8.122428       0.00000
  50    .07753        5.2800        0.0003       13.3983       13.3986       8.118629       3.04486
  49    .09103        5.2797        0.0007       13.3921       13.3928       8.113109       3.45021
  48    0.1069        5.2794        0.0011       13.3840       13.3851       8.105731       3.92739
  47    0.1255        5.2790        0.0016       13.3733       13.3749       8.095884       4.46389
  46    0.1487        5.2786        0.0022       13.3579       13.3601       8.081440       5.26525
  45    0.1794        5.2781        0.0030       13.3340       13.3371       8.059036       6.15030
  44    0.2165        5.2774        0.0040       13.3024       13.3064       8.029012       6.82995
  43    0.2613        5.2767        0.0052       13.2604       13.2656       7.988951       7.55146
  42    0.3336        5.2755        0.0071       13.1833       13.1904       7.914930       8.63004
  41    0.4307        5.2740        0.0096       13.0729       13.0825       7.808537       9.25066
  40    0.5894        5.2717        0.0135       12.8796       12.8931       7.621452       9.94892
  39     1.339        5.2637        0.0299       11.9165       11.9465       6.682800      10.56752
  38     1.782        5.2607        0.0383       11.4399       11.4783       6.217557       8.85749
  37     2.292        5.2587        0.0474       10.9796       11.0270       5.768254       7.44162
  36     5.035        5.2600        0.0614       10.2614       10.3228       5.062832       2.17040
  35     6.613        5.2672        0.0845        9.4301        9.5146       4.247466       4.35894
  34     8.786        5.2775        0.1141        8.7697        8.8838       3.606287       2.49011
  33     11.80        5.2907        0.1543        8.1778        8.3321       3.041330       1.58170
  32     15.07        5.3026        0.1954        7.7446        7.9399       2.637272       1.04320
  31     18.79        5.3142        0.2399        7.3756        7.6155       2.301366       0.76160
  30     23.16        5.3253        0.2900        7.0377        7.3277       2.002373       0.57816
  29     28.12        5.3353        0.3453        6.7285        7.0738       1.738515       0.44854
  28     33.73        5.3413        0.4054        6.4540        6.8594       1.518123       0.33137
  27     40.54        5.3424        0.4761        6.1874        6.6636       1.321142       0.24438
  26     48.69        5.3381        0.5590        5.9224        6.4814       1.143214       0.18413
  25     57.69        5.3281        0.6474        5.6779        6.3253       0.997219       0.13685
  24     68.43        5.3102        0.7496        5.4299        6.1795       0.869331       0.10054
  23     81.20        5.2799        0.8683        5.1814        6.0497       0.769858       0.06573
  22     96.49        5.2360        1.0054        4.9264        5.9318       0.695793       0.04088
  21     114.6        5.1822        1.1610        4.6525        5.8135       0.631301       0.03011
  20     136.5        5.1197        1.3350        4.3555        5.6905       0.570809       0.02326
  19     162.9        5.0484        1.5282        4.0333        5.5615       0.513070       0.01846
  18     196.4        4.9579        1.7601        3.6614        5.4215       0.463625       0.01245
  17     218.7        4.9009        1.9016        3.4393        5.3409       0.440042       0.00895
  16     243.0        4.8418        2.0461        3.2143        5.2604       0.418616       0.00743
  15     269.0        4.7809        2.1925        2.9881        5.1806       0.399683       0.00614
  14     297.5        4.7187        2.3396        2.7624        5.1020       0.383267       0.00487
  13     328.5        4.6561        2.4861        2.5378        5.0239       0.367812       0.00420
  12     361.9        4.5936        2.6308        2.3161        4.9469       0.353340       0.00366
  11     398.1        4.5316        2.7725        2.0990        4.8714       0.339846       0.00314
  10     437.6        4.4707        2.9096        1.8881        4.7978       0.327045       0.00274
   9     480.5        4.4112        3.0416        1.6847        4.7263       0.315071       0.00235
   8     533.0        4.3456        3.1845        1.4634        4.6479       0.302219       0.00207
   7     589.8        4.2833        3.3172        1.2560        4.5732       0.289966       0.00182
   6     651.6        4.2248        3.4383        1.0647        4.5029       0.278146       0.00162
   5     718.7        4.1705        3.5470        0.8902        4.4372       0.266717       0.00144
   4     792.3        4.1207        3.6425        0.7339        4.3764       0.255655       0.00127
   3     825.4        3.3442        3.5882        0.0000        3.5882       0.244001       0.00297
   2     858.4        2.7971        3.0315        0.0000        3.0315       0.234417       0.00245
   1     891.5        1.2262        1.4543        0.0000        1.4543       0.228128       0.00161
   0    1013.0        1.2121        1.4359        0.0000        1.4359       0.223863       0.00030



 Wavenumbers: 38000. - 50000. cm-1, ATM      1
 LEVEL PRESSURE   UPWARD FLUX   DIFDOWN FLUX  DIRDOWN FLUX  DOWNWARD FLUX   NET FLUX    HEATING RATE
          mb          W/m2          W/m2          W/m2        W/m2          W/m2       degree/day
  51    .06700        0.0051        0.0000        0.8267        0.8267       0.821561       0.00000
  50    .07753        0.0050        0.0001        0.8242        0.8243       0.819229       1.86934
  49    .09103        0.0050        0.0002        0.8207        0.8209       0.815906       2.07703
  48    0.1069        0.0049        0.0002        0.8162        0.8164       0.811547       2.31982
  47    0.1255        0.0048        0.0004        0.8103        0.8106       0.805834       2.59003
  46    0.1487        0.0047        0.0005        0.8018        0.8023       0.797600       3.00140
  45    0.1794        0.0045        0.0007        0.7889        0.7896       0.785046       3.44645
  44    0.2165        0.0043        0.0009        0.7720        0.7729       0.768541       3.75471
  43    0.2613        0.0041        0.0011        0.7500        0.7511       0.746989       4.06243
  42    0.3336        0.0038        0.0015        0.7106        0.7121       0.708300       4.51067
  41    0.4307        0.0034        0.0019        0.6566        0.6584       0.655006       4.63383
  40    0.5894        0.0029        0.0024        0.5680        0.5704       0.567499       4.65353
  39     1.339        0.0014        0.0030        0.2422        0.2452       0.243761       3.64470
  38     1.782        0.0010        0.0026        0.1493        0.1519       0.150935       1.76726
  37     2.292        0.0007        0.0022        0.0924        0.0946       0.093986       0.94322
  36     5.035        0.0004        0.0015        0.0426        0.0441       0.043767       0.15451
  35     6.613        0.0002        0.0010        0.0161        0.0170       0.016860       0.14384
  34     8.786        0.0001        0.0006        0.0061        0.0067       0.006664       0.03960
  33     11.80        0.0000        0.0004        0.0019        0.0022       0.002211       0.01247
  32     15.07        0.0000        0.0002        0.0006        0.0008       0.000812       0.00361
  31     18.79        0.0000        0.0001        0.0002        0.0003       0.000305       0.00115
  30     23.16        0.0000        0.0001        0.0001        0.0001       0.000114       0.00037
  29     28.12        0.0000        0.0000        0.0000        0.0000       0.000043       0.00012
  28     33.73        0.0000        0.0000        0.0000        0.0000       0.000017       0.00004
  27     40.54        0.0000        0.0000        0.0000        0.0000       0.000007       0.00001
  26     48.69        0.0000        0.0000        0.0000        0.0000       0.000003       0.00000
  25     57.69        0.0000        0.0000        0.0000        0.0000       0.000001       0.00000
  24     68.43        0.0000        0.0000        0.0000        0.0000       0.000000       0.00000
  23     81.20        0.0000        0.0000        0.0000        0.0000       0.000000       0.00000
  22     96.49        0.0000        0.0000        0.0000        0.0000       0.000000       0.00000
  21     114.6        0.0000        0.0000        0.0000        0.0000       0.000000       0.00000
  20     136.5        0.0000        0.0000        0.0000        0.0000       0.000000       0.00000
  19     162.9        0.0000        0.0000        0.0000        0.0000       0.000000       0.00000
  18     196.4        0.0000        0.0000        0.0000        0.0000       0.000000       0.00000
  17     218.7        0.0000        0.0000        0.0000        0.0000       0.000000       0.00000
  16     243.0        0.0000        0.0000        0.0000        0.0000       0.000000       0.00000
  15     269.0        0.0000        0.0000        0.0000        0.0000       0.000000       0.00000
  14     297.5        0.0000        0.0000        0.0000        0.0000       0.000000       0.00000
  13     328.5        0.0000        0.0000        0.0000        0.0000       0.000000       0.00000
  12     361.9        0.0000        0.0000        0.0000        0.0000       0.000000       0.00000
  11     398.1        0.0000        0.0000        0.0000        0.0000       0.000000       0.00000
  10     437.6        0.0000        0.0000        0.0000        0.0000       0.000000       0.00000
   9     480.5        0.0000        0.0000        0.0000        0.0000       0.000000       0.00000
   8     533.0        0.0000        0.0000        0.0000        0.0000       0.000000       0.00000
   7     589.8        0.0000        0.0000        0.0000        0.0000       0.000000       0.00000
   6     651.6        0.0000        0.0000        0.0000        0.0000       0.000000       0.00000
   5     718.7        0.0000        0.0000        0.0000        0.0000       0.000000       0.00000
   4     792.3        0.0000        0.0000        0.0000        0.0000       0.000000       0.00000
   3     825.4        0.0000        0.0000        0.0000        0.0000       0.000000       0.00000
   2     858.4        0.0000        0.0000        0.0000        0.0000       0.000000       0.00000
   1     891.5        0.0000        0.0000        0.0000        0.0000       0.000000       0.00000
   0    1013.0        0.0000        0.0000        0.0000        0.0000       0.000000       0.00000



 Wavenumbers:   820. -  2600. cm-1, ATM      1
 LEVEL PRESSURE   UPWARD FLUX   DIFDOWN FLUX  DIRDOWN FLUX  DOWNWARD FLUX   NET FLUX    HEATING RATE
          mb          W/m2          W/m2          W/m2        W/m2          W/m2       degree/day
  51    .06700        1.0463        0.0000        3.8670        3.8670       2.820673       0.00000
  50    .07753        1.0463        0.0000        3.8643        3.8643       2.817956       2.17773
  49    .09103        1.0463        0.0000        3.8635        3.8635       2.817146       0.50641
  48    0.1069        1.0463        0.0000        3.8626        3.8626       2.816255       0.47418
  47    0.1255        1.0463        0.0000        3.8616        3.8616       2.815294       0.43562
  46    0.1487        1.0463        0.0000        3.8605        3.8605       2.814185       0.40441
  45    0.1794        1.0463        0.0000        3.8592        3.8592       2.812850       0.36651
  44    0.2165        1.0463        0.0000        3.8578        3.8578       2.811472       0.31350
  43    0.2613        1.0463        0.0000        3.8564        3.8564       2.810011       0.27526
  42    0.3336        1.0463        0.0000        3.8541        3.8541       2.807780       0.26016
  41    0.4307        1.0463        0.0000        3.8512        3.8512       2.804897       0.25067
  40    0.5894        1.0463        0.0000        3.8465        3.8465       2.800170       0.25138
  39     1.339        1.0464        0.0000        3.8251        3.8251       2.778791       0.24069
  38     1.782        1.0464        0.0000        3.8133        3.8133       2.766976       0.22494
  37     2.292        1.0464        0.0000        3.8003        3.8003       2.753912       0.21637
  36     5.035        1.0464        0.0000        3.7772        3.7772       2.730805       0.07109
  35     6.613        1.0464        0.0000        3.7380        3.7380       2.691644       0.20935
  34     8.786        1.0464        0.0000        3.6940        3.6940       2.647602       0.17104
  33     11.80        1.0464        0.0000        3.6459        3.6459       2.599469       0.13476
  32     15.07        1.0464        0.0000        3.6109        3.6109       2.564461       0.09038
  31     18.79        1.0464        0.0000        3.5845        3.5845       2.538088       0.05980
  30     23.16        1.0465        0.0000        3.5620        3.5621       2.515573       0.04354
  29     28.12        1.0465        0.0000        3.5399        3.5400       2.493443       0.03762
  28     33.73        1.0465        0.0000        3.5165        3.5165       2.469934       0.03535
  27     40.54        1.0466        0.0000        3.4889        3.4890       2.442357       0.03421
  26     48.69        1.0467        0.0000        3.4569        3.4569       2.410235       0.03324
  25     57.69        1.0467        0.0000        3.4231        3.4231       2.376396       0.03172
  24     68.43        1.0468        0.0000        3.3850        3.3850       2.338192       0.03003
  23     81.20        1.0469        0.0000        3.3432        3.3432       2.296310       0.02768
  22     96.49        1.0470        0.0000        3.2983        3.2983       2.251311       0.02484
  21     114.6        1.0471        0.0000        3.2499        3.2499       2.202809       0.02265
  20     136.5        1.0473        0.0000        3.1986        3.1986       2.151334       0.01979
  19     162.9        1.0475        0.0000        3.1462        3.1462       2.098762       0.01680
  18     196.4        1.0477        0.0000        3.0894        3.0894       2.041725       0.01436
  17     218.7        1.0479        0.0000        3.0554        3.0554       2.007586       0.01296
  16     243.0        1.0481        0.0000        3.0114        3.0114       1.963361       0.01534
  15     269.0        1.0483        0.0000        2.9546        2.9546       1.906301       0.01851
  14     297.5        1.0488        0.0000        2.8769        2.8770       1.828168       0.02317
  13     328.5        1.0497        0.0000        2.7487        2.7488       1.699066       0.03510
  12     361.9        1.0513        0.0000        2.5606        2.5606       1.509357       0.04800
  11     398.1        1.0537        0.0000        2.3336        2.3337       1.279975       0.05344
  10     437.6        1.0572        0.0000        2.1355        2.1355       1.078287       0.04312
   9     480.5        1.0619        0.0000        2.0042        2.0043       0.942362       0.02670
   8     533.0        1.0695        0.0000        1.8905        1.8906       0.821046       0.01952
   7     589.8        1.0813        0.0000        1.7648        1.7648       0.683529       0.02041
   6     651.6        1.0993        0.0000        1.6297        1.6297       0.530429       0.02094
   5     718.7        1.1267        0.0001        1.4990        1.4990       0.372348       0.01987
   4     792.3        1.1697        0.0001        1.3754        1.3755       0.205765       0.01911
   3     825.4        0.4897        0.6017        0.0000        0.6017       0.111997       0.02393
   2     858.4        0.3201        0.3827        0.0000        0.3827       0.062597       0.01261
   1     891.5        0.0026        0.0436        0.0000        0.0436       0.041052       0.00550
   0    1013.0        0.0028        0.0398        0.0000        0.0398       0.036996       0.00028

  Modules and versions used in this calculation:

       rrtmg_sw.1col.f90:  $Revision$                    rrtmg_sw_init.f90:  $Revision$        
     rrtmgsw_cldprop.f90:  $Revision$                  rrtmgsw_cldprmc.f90:  NOT USED          
     rrtmg_sw_reftra.f90:  $Revision$                  rrtmg_sw_spcvrt.f90:  NOT USED          
     rrtmg_sw_spcvmc.f90:  NOT USED                    rrtmgsw_setcoef.f90:  NOT USED          
     rrtmg_sw_taumol.f90:  $Revision$                  rrtmg_sw_vrtqdr.f90:  NOT USED          
                rrtatm.f:  NOT USED                             util_xxx.f:  NOT USED          
                 extra.f:  NOT USED                       rrtmg_sw_k_g.f90:  $Revision$        

