

 Wavenumbers:   820. - 50000. cm-1, ATM      1
 LEVEL PRESSURE   UPWARD FLUX   DIFDOWN FLUX  DIRDOWN FLUX  DOWNWARD FLUX   NET FLUX    HEATING RATE
          mb          W/m2          W/m2          W/m2        W/m2          W/m2       degree/day
  51    .06700      219.3792        0.0000      397.8738      397.8738     178.494580       0.00000
  50    .07753      219.3786        0.0012      397.8577      397.8589     178.480294      11.45079
  49    .09103      219.3778        0.0026      397.8418      397.8444     178.466612       8.55141
  48    0.1069      219.3770        0.0043      397.8230      397.8272     178.450273       8.69725
  47    0.1255      219.3760        0.0062      397.7997      397.8058     178.429843       9.26224
  46    0.1487      219.3748        0.0086      397.7676      397.7762     178.401403      10.36655
  45    0.1794      219.3733        0.0119      397.7205      397.7324     178.359139      11.60249
  44    0.2165      219.3715        0.0158      397.6602      397.6760     178.304529      12.42287
  43    0.2613      219.3695        0.0204      397.5829      397.6033     178.233784      13.33518
  42    0.3336      219.3663        0.0279      397.4449      397.4728     178.106443      14.84662
  41    0.4307      219.3624        0.0377      397.2524      397.2901     177.927723      15.53931
  40    0.5894      219.3566        0.0536      396.9253      396.9789     177.622290      16.24253
  39     1.339      219.3402        0.1245      395.4254      395.5498     176.209653      15.90373
  38     1.782      219.3378        0.1642      394.7288      394.8930     175.555185      12.46003
  37     2.292      219.3414        0.2094      394.0572      394.2666     174.925177      10.43456
  36     2.964      219.3555        0.2681      393.3007      393.5687     174.213222       8.93719
  35     3.853      219.3873        0.3447      392.4318      392.7765     173.389243       7.81971
  34     5.035      219.4425        0.4456      391.4441      391.8897     172.447218       6.72944
  33     6.613      219.5233        0.5792      390.3268      390.9060     171.382635       5.69126
  32     8.786      219.6272        0.7579      389.0624      389.8203     170.193051       4.61992
  31     11.80      219.7541        1.0114      387.5500      388.5614     168.807332       3.87958
  30     15.07      219.8648        1.2814      386.1556      387.4370     167.572258       3.18872
  29     18.79      219.9671        1.5840      384.7502      386.3342     166.367096       2.73247
  28     23.16      220.0603        1.9345      383.2686      385.2031     165.142742       2.36750
  27     28.12      220.1364        2.3320      381.7329      384.0648     163.928450       2.06422
  26     33.73      220.1766        2.7735      380.1982      382.9716     162.795088       1.70404
  25     40.54      220.1731        3.3029      378.5384      381.8413     161.668237       1.39799
  24     48.69      220.1191        3.9354      376.7214      380.6569     160.537810       1.16981
  23     57.69      220.0121        4.6236      374.8959      379.5195     159.507350       0.96590
  22     68.43      219.8337        5.4347      372.8999      378.3346     158.500905       0.79120
  21     81.20      219.5507        6.3906      370.7496      377.1402     157.589509       0.60224
  20     96.49      219.1500        7.5148      368.4056      375.9204     156.770441       0.45207
  19     114.6      218.6544        8.8277      365.7513      374.5790     155.924542       0.39498
  18     136.5      218.0544       10.3519      362.7231      373.0750     155.020647       0.34757
  17     162.9      217.3343       12.1232      359.1748      371.2980     153.963635       0.33786
  16     196.4      216.3774       14.3554      354.5718      368.9272     152.549807       0.35588
  15     218.7      215.7467       15.7825      351.4437      367.2262     151.479492       0.40636
  14     243.0      215.0670       17.2998      347.7111      365.0110     149.944005       0.53256
  13     269.0      214.3397       18.9056      342.9441      361.8497     147.509986       0.78958
  12     297.5      213.5674       20.5973      337.4137      358.0110     144.443638       0.90945
  11     328.5      212.7561       22.3766      331.1302      353.5069     140.750772       1.00408
  10     361.9      211.9126       24.2378      324.1219      348.3597     136.447090       1.08887
   9     398.1      211.0432       26.1800      316.6066      342.7866     131.743326       1.09587
   8     437.6      210.1624       28.1985      308.5895      336.7880     126.625607       1.09420
   7     480.5      209.2955       30.2872      299.9349      330.2221     120.926597       1.11926
   6     533.0      208.3518       32.7589      289.7021      322.4610     114.109196       1.09670
   5     589.8      207.5076       35.3069      279.3388      314.6457     107.138122       1.03474
   4     651.6      206.8478       37.9189      268.7786      306.6975      99.849704       0.99671
   3     718.7      206.4401       40.5855      258.2837      298.8692      92.429102       0.93256
   2     792.3      206.3704       43.2923      248.0774      291.3697      84.999296       0.85212
   1     891.5      101.5571      159.5245       21.4882      181.0127      79.455569       0.47174
   0    1013.0      101.7007      157.0546       20.2065      177.2610      75.560364       0.27046



 Wavenumbers:  2600. -  3250. cm-1, ATM      1
 LEVEL PRESSURE   UPWARD FLUX   DIFDOWN FLUX  DIRDOWN FLUX  DOWNWARD FLUX   NET FLUX    HEATING RATE
          mb          W/m2          W/m2          W/m2        W/m2          W/m2       degree/day
  51    .06700        0.7197        0.0000        3.5066        3.5066       2.786941       0.00000
  50    .07753        0.7197        0.0000        3.5066        3.5066       2.786933       0.00640
  49    .09103        0.7197        0.0000        3.5066        3.5066       2.786923       0.00627
  48    0.1069        0.7197        0.0000        3.5066        3.5066       2.786911       0.00613
  47    0.1255        0.7197        0.0000        3.5066        3.5066       2.786898       0.00599
  46    0.1487        0.7197        0.0000        3.5066        3.5066       2.786882       0.00607
  45    0.1794        0.7197        0.0000        3.5065        3.5065       2.786859       0.00624
  44    0.2165        0.7197        0.0000        3.5065        3.5065       2.786832       0.00611
  43    0.2613        0.7197        0.0000        3.5065        3.5065       2.786800       0.00598
  42    0.3336        0.7197        0.0000        3.5064        3.5064       2.786747       0.00615
  41    0.4307        0.7197        0.0000        3.5064        3.5064       2.786676       0.00618
  40    0.5894        0.7197        0.0000        3.5062        3.5062       2.786557       0.00633
  39     1.339        0.7197        0.0000        3.5055        3.5055       2.785859       0.00787
  38     1.782        0.7197        0.0000        3.5050        3.5050       2.785328       0.01011
  37     2.292        0.7197        0.0000        3.5043        3.5043       2.784635       0.01147
  36     2.964        0.7197        0.0000        3.5033        3.5033       2.783644       0.01245
  35     3.853        0.7197        0.0000        3.5019        3.5019       2.782267       0.01307
  34     5.035        0.7197        0.0000        3.5001        3.5001       2.780406       0.01329
  33     6.613        0.7197        0.0000        3.4977        3.4977       2.777996       0.01288
  32     8.786        0.7197        0.0000        3.4947        3.4947       2.775025       0.01154
  31     11.80        0.7197        0.0000        3.4911        3.4911       2.771389       0.01018
  30     15.07        0.7197        0.0000        3.4878        3.4878       2.768168       0.00832
  29     18.79        0.7197        0.0000        3.4848        3.4848       2.765103       0.00695
  28     23.16        0.7197        0.0000        3.4816        3.4816       2.761882       0.00623
  27     28.12        0.7197        0.0000        3.4779        3.4779       2.758263       0.00615
  26     33.73        0.7197        0.0000        3.4735        3.4735       2.753794       0.00672
  25     40.54        0.7197        0.0000        3.4671        3.4671       2.747464       0.00785
  24     48.69        0.7197        0.0000        3.4582        3.4583       2.738563       0.00921
  23     57.69        0.7197        0.0000        3.4472        3.4472       2.727506       0.01036
  22     68.43        0.7197        0.0000        3.4329        3.4329       2.713234       0.01122
  21     81.20        0.7197        0.0000        3.4152        3.4152       2.695488       0.01173
  20     96.49        0.7198        0.0000        3.3940        3.3941       2.674318       0.01168
  19     114.6        0.7198        0.0000        3.3692        3.3692       2.649392       0.01164
  18     136.5        0.7199        0.0001        3.3419        3.3420       2.622122       0.01049
  17     162.9        0.7200        0.0001        3.3129        3.3129       2.592968       0.00932
  16     196.4        0.7202        0.0001        3.2793        3.2794       2.559249       0.00849
  15     218.7        0.7204        0.0001        3.2578        3.2578       2.537491       0.00826
  14     243.0        0.7207        0.0001        3.2320        3.2321       2.511395       0.00905
  13     269.0        0.7212        0.0001        3.1968        3.1969       2.475783       0.01155
  12     297.5        0.7219        0.0001        3.1489        3.1491       2.427140       0.01443
  11     328.5        0.7231        0.0001        3.0821        3.0822       2.359106       0.01850
  10     361.9        0.7248        0.0001        2.9902        2.9904       2.265583       0.02366
   9     398.1        0.7272        0.0001        2.8715        2.8716       2.144378       0.02824
   8     437.6        0.7308        0.0001        2.7276        2.7278       1.997001       0.03151
   7     480.5        0.7361        0.0002        2.5595        2.5597       1.823555       0.03406
   6     533.0        0.7451        0.0002        2.3617        2.3619       1.616812       0.03326
   5     589.8        0.7583        0.0002        2.1649        2.1651       1.406835       0.03117
   4     651.6        0.7778        0.0002        1.9608        1.9609       1.183147       0.03059
   3     718.7        0.8056        0.0002        1.7593        1.7595       0.953917       0.02881
   2     792.3        0.8441        0.0002        1.5761        1.5762       0.732101       0.02544
   1     891.5        0.1554        0.6103        0.1251        0.7354       0.579992       0.01294
   0    1013.0        0.1700        0.5493        0.1057        0.6550       0.485063       0.00659



 Wavenumbers:  3250. -  4000. cm-1, ATM      1
 LEVEL PRESSURE   UPWARD FLUX   DIFDOWN FLUX  DIRDOWN FLUX  DOWNWARD FLUX   NET FLUX    HEATING RATE
          mb          W/m2          W/m2          W/m2        W/m2          W/m2       degree/day
  51    .06700        0.0044        0.0000        5.9117        5.9117       5.907262       0.00000
  50    .07753        0.0044        0.0000        5.9075        5.9075       5.903073       3.35808
  49    .09103        0.0044        0.0000        5.9050        5.9050       5.900630       1.52677
  48    0.1069        0.0044        0.0000        5.9032        5.9032       5.898763       0.99346
  47    0.1255        0.0044        0.0000        5.9014        5.9014       5.897005       0.79708
  46    0.1487        0.0044        0.0000        5.8995        5.8995       5.895116       0.68848
  45    0.1794        0.0044        0.0000        5.8974        5.8974       5.892968       0.58983
  44    0.2165        0.0044        0.0000        5.8952        5.8952       5.890851       0.48155
  43    0.2613        0.0044        0.0000        5.8931        5.8931       5.888692       0.40696
  42    0.3336        0.0044        0.0000        5.8899        5.8899       5.885534       0.36820
  41    0.4307        0.0044        0.0000        5.8861        5.8861       5.881697       0.33365
  40    0.5894        0.0044        0.0000        5.8803        5.8803       5.875894       0.30857
  39     1.339        0.0044        0.0000        5.8597        5.8597       5.855297       0.23189
  38     1.782        0.0044        0.0000        5.8513        5.8513       5.846872       0.16039
  37     2.292        0.0044        0.0000        5.8431        5.8431       5.838701       0.13533
  36     2.964        0.0044        0.0000        5.8334        5.8334       5.829062       0.12100
  35     3.853        0.0044        0.0000        5.8213        5.8213       5.816886       0.11555
  34     5.035        0.0044        0.0000        5.8052        5.8052       5.800791       0.11498
  33     6.613        0.0044        0.0000        5.7833        5.7834       5.778969       0.11666
  32     8.786        0.0044        0.0000        5.7531        5.7531       5.748768       0.11729
  31     11.80        0.0044        0.0000        5.7090        5.7090       5.704599       0.12366
  30     15.07        0.0044        0.0000        5.6615        5.6615       5.657135       0.12254
  29     18.79        0.0044        0.0000        5.6093        5.6094       5.604999       0.11821
  28     23.16        0.0044        0.0000        5.5524        5.5524       5.548073       0.11008
  27     28.12        0.0044        0.0000        5.4935        5.4935       5.489194       0.10009
  26     33.73        0.0043        0.0000        5.4348        5.4349       5.430505       0.08824
  25     40.54        0.0043        0.0001        5.3707        5.3708       5.366444       0.07948
  24     48.69        0.0043        0.0001        5.2985        5.2985       5.294211       0.07475
  23     57.69        0.0043        0.0001        5.2215        5.2216       5.217272       0.07212
  22     68.43        0.0043        0.0001        5.1318        5.1319       5.127612       0.07048
  21     81.20        0.0043        0.0001        5.0284        5.0285       5.024182       0.06834
  20     96.49        0.0043        0.0001        4.9122        4.9123       4.908048       0.06410
  19     114.6        0.0042        0.0001        4.7780        4.7782       4.773937       0.06262
  18     136.5        0.0042        0.0002        4.6285        4.6287       4.624459       0.05748
  17     162.9        0.0042        0.0002        4.4406        4.4407       4.436546       0.06006
  16     196.4        0.0042        0.0002        4.1548        4.1550       4.150872       0.07191
  15     218.7        0.0041        0.0002        3.9564        3.9566       3.952490       0.07532
  14     243.0        0.0041        0.0002        3.7055        3.7058       3.701654       0.08700
  13     269.0        0.0041        0.0002        3.3399        3.3401       3.336010       0.11861
  12     297.5        0.0041        0.0002        2.8954        2.8956       2.891509       0.13183
  11     328.5        0.0041        0.0002        2.4388        2.4390       2.434945       0.12414
  10     361.9        0.0041        0.0002        2.0269        2.0271       2.022964       0.10424
   9     398.1        0.0042        0.0002        1.6753        1.6755       1.671302       0.08193
   8     437.6        0.0043        0.0002        1.3592        1.3594       1.355055       0.06762
   7     480.5        0.0045        0.0002        1.0616        1.0618       1.057239       0.05849
   6     533.0        0.0050        0.0001        0.7543        0.7544       0.749424       0.04952
   5     589.8        0.0059        0.0001        0.4951        0.4952       0.489345       0.03860
   4     651.6        0.0076        0.0001        0.2943        0.2943       0.286722       0.02771
   3     718.7        0.0110        0.0001        0.1528        0.1529       0.141829       0.01821
   2     792.3        0.0180        0.0000        0.0658        0.0658       0.047832       0.01078
   1     891.5        0.0001        0.0086        0.0014        0.0101       0.009944       0.00322
   0    1013.0        0.0006        0.0021        0.0001        0.0022       0.001624       0.00058



 Wavenumbers:  4000. -  4650. cm-1, ATM      1
 LEVEL PRESSURE   UPWARD FLUX   DIFDOWN FLUX  DIRDOWN FLUX  DOWNWARD FLUX   NET FLUX    HEATING RATE
          mb          W/m2          W/m2          W/m2        W/m2          W/m2       degree/day
  51    .06700        2.6395        0.0000        6.9421        6.9421       4.302557       0.00000
  50    .07753        2.6395        0.0000        6.9421        6.9421       4.302556       0.00079
  49    .09103        2.6395        0.0000        6.9421        6.9421       4.302555       0.00078
  48    0.1069        2.6395        0.0000        6.9421        6.9421       4.302554       0.00076
  47    0.1255        2.6395        0.0000        6.9421        6.9421       4.302552       0.00074
  46    0.1487        2.6395        0.0000        6.9421        6.9421       4.302550       0.00075
  45    0.1794        2.6395        0.0000        6.9421        6.9421       4.302547       0.00077
  44    0.2165        2.6395        0.0000        6.9421        6.9421       4.302544       0.00076
  43    0.2613        2.6395        0.0000        6.9420        6.9420       4.302540       0.00074
  42    0.3336        2.6395        0.0000        6.9420        6.9420       4.302533       0.00076
  41    0.4307        2.6395        0.0000        6.9420        6.9420       4.302524       0.00077
  40    0.5894        2.6395        0.0000        6.9420        6.9420       4.302510       0.00079
  39     1.339        2.6395        0.0000        6.9419        6.9419       4.302421       0.00100
  38     1.782        2.6395        0.0000        6.9418        6.9419       4.302351       0.00132
  37     2.292        2.6395        0.0000        6.9418        6.9418       4.302258       0.00155
  36     2.964        2.6395        0.0000        6.9416        6.9416       4.302118       0.00175
  35     3.853        2.6395        0.0000        6.9414        6.9414       4.301912       0.00196
  34     5.035        2.6395        0.0000        6.9411        6.9411       4.301607       0.00218
  33     6.613        2.6395        0.0000        6.9406        6.9407       4.301159       0.00240
  32     8.786        2.6395        0.0000        6.9399        6.9400       4.300499       0.00256
  31     11.80        2.6395        0.0000        6.9389        6.9389       4.299463       0.00290
  30     15.07        2.6395        0.0001        6.9377        6.9377       4.298252       0.00313
  29     18.79        2.6395        0.0001        6.9362        6.9363       4.296792       0.00331
  28     23.16        2.6395        0.0001        6.9343        6.9344       4.294987       0.00349
  27     28.12        2.6394        0.0001        6.9321        6.9323       4.292810       0.00370
  26     33.73        2.6394        0.0001        6.9294        6.9296       4.290138       0.00402
  25     40.54        2.6394        0.0002        6.9258        6.9260       4.286535       0.00447
  24     48.69        2.6394        0.0002        6.9210        6.9212       4.281763       0.00494
  23     57.69        2.6394        0.0002        6.9154        6.9156       4.276147       0.00526
  22     68.43        2.6395        0.0003        6.9083        6.9086       4.269162       0.00549
  21     81.20        2.6395        0.0003        6.8998        6.9001       4.260616       0.00565
  20     96.49        2.6396        0.0004        6.8894        6.8898       4.250286       0.00570
  19     114.6        2.6397        0.0005        6.8765        6.8770       4.237342       0.00604
  18     136.5        2.6398        0.0006        6.8610        6.8615       4.221710       0.00601
  17     162.9        2.6401        0.0007        6.8417        6.8423       4.202232       0.00623
  16     196.4        2.6406        0.0008        6.8147        6.8155       4.174857       0.00689
  15     218.7        2.6411        0.0009        6.7948        6.7957       4.154658       0.00767
  14     243.0        2.6418        0.0010        6.7698        6.7708       4.128997       0.00890
  13     269.0        2.6429        0.0011        6.7349        6.7359       4.093041       0.01166
  12     297.5        2.6446        0.0012        6.6869        6.6880       4.043442       0.01471
  11     328.5        2.6470        0.0013        6.6194        6.6207       3.973628       0.01898
  10     361.9        2.6503        0.0014        6.5295        6.5309       3.880602       0.02354
   9     398.1        2.6546        0.0016        6.4202        6.4218       3.767203       0.02642
   8     437.6        2.6603        0.0017        6.2962        6.2978       3.637565       0.02772
   7     480.5        2.6682        0.0018        6.1555        6.1573       3.489067       0.02916
   6     533.0        2.6812        0.0020        5.9675        5.9695       3.288253       0.03230
   5     589.8        2.7004        0.0021        5.7368        5.7389       3.038504       0.03707
   4     651.6        2.7288        0.0023        5.4662        5.4685       2.739704       0.04086
   3     718.7        2.7691        0.0024        5.1912        5.1936       2.424508       0.03961
   2     792.3        2.8241        0.0026        4.9395        4.9420       2.117899       0.03516
   1     891.5        0.5924        2.0688        0.4242        2.4930       1.900581       0.01849
   0    1013.0        0.6156        1.9761        0.3940        2.3701       1.754516       0.01014



 Wavenumbers:  4650. -  5150. cm-1, ATM      1
 LEVEL PRESSURE   UPWARD FLUX   DIFDOWN FLUX  DIRDOWN FLUX  DOWNWARD FLUX   NET FLUX    HEATING RATE
          mb          W/m2          W/m2          W/m2        W/m2          W/m2       degree/day
  51    .06700        1.8377        0.0000        6.5710        6.5710       4.733273       0.00000
  50    .07753        1.8377        0.0000        6.5708        6.5708       4.733037       0.18887
  49    .09103        1.8377        0.0000        6.5705        6.5705       4.732743       0.18362
  48    0.1069        1.8377        0.0000        6.5701        6.5701       4.732409       0.17806
  47    0.1255        1.8377        0.0000        6.5697        6.5697       4.732029       0.17238
  46    0.1487        1.8377        0.0000        6.5693        6.5693       4.731555       0.17268
  45    0.1794        1.8377        0.0000        6.5686        6.5686       4.730918       0.17473
  44    0.2165        1.8377        0.0000        6.5679        6.5679       4.730180       0.16788
  43    0.2613        1.8377        0.0000        6.5670        6.5670       4.729327       0.16078
  42    0.3336        1.8377        0.0000        6.5657        6.5657       4.727964       0.15894
  41    0.4307        1.8377        0.0000        6.5640        6.5640       4.726242       0.14971
  40    0.5894        1.8377        0.0000        6.5613        6.5613       4.723626       0.13913
  39     1.339        1.8377        0.0000        6.5516        6.5516       4.713848       0.11008
  38     1.782        1.8377        0.0000        6.5473        6.5473       4.709632       0.08027
  37     2.292        1.8377        0.0000        6.5434        6.5435       4.705745       0.06438
  36     2.964        1.8377        0.0000        6.5395        6.5395       4.701790       0.04964
  35     3.853        1.8377        0.0000        6.5355        6.5356       4.697847       0.03742
  34     5.035        1.8377        0.0000        6.5315        6.5315       4.693844       0.02860
  33     6.613        1.8377        0.0000        6.5271        6.5271       4.689448       0.02350
  32     8.786        1.8377        0.0001        6.5216        6.5216       4.683950       0.02135
  31     11.80        1.8377        0.0001        6.5135        6.5136       4.675865       0.02263
  30     15.07        1.8377        0.0001        6.5041        6.5042       4.666489       0.02421
  29     18.79        1.8377        0.0001        6.4925        6.4926       4.654962       0.02613
  28     23.16        1.8377        0.0001        6.4779        6.4780       4.640355       0.02825
  27     28.12        1.8377        0.0002        6.4599        6.4600       4.622359       0.03059
  26     33.73        1.8377        0.0002        6.4384        6.4386       4.600901       0.03226
  25     40.54        1.8377        0.0002        6.4112        6.4115       4.573737       0.03370
  24     48.69        1.8378        0.0003        6.3775        6.3778       4.540046       0.03487
  23     57.69        1.8378        0.0003        6.3404        6.3407       4.502886       0.03483
  22     68.43        1.8379        0.0004        6.2971        6.2975       4.459601       0.03403
  21     81.20        1.8381        0.0005        6.2483        6.2487       4.410657       0.03234
  20     96.49        1.8383        0.0006        6.1948        6.1954       4.357108       0.02956
  19     114.6        1.8386        0.0007        6.1381        6.1388       4.300228       0.02656
  18     136.5        1.8390        0.0008        6.0790        6.0798       4.240783       0.02286
  17     162.9        1.8396        0.0009        6.0160        6.0170       4.177356       0.02027
  16     196.4        1.8406        0.0011        5.9399        5.9410       4.100389       0.01937
  15     218.7        1.8414        0.0012        5.8896        5.8909       4.049480       0.01933
  14     243.0        1.8424        0.0014        5.8322        5.8336       3.991105       0.02025
  13     269.0        1.8440        0.0015        5.7624        5.7639       3.919936       0.02309
  12     297.5        1.8461        0.0016        5.6767        5.6784       3.832227       0.02601
  11     328.5        1.8491        0.0018        5.5726        5.5744       3.725248       0.02909
  10     361.9        1.8532        0.0019        5.4473        5.4493       3.596076       0.03268
   9     398.1        1.8587        0.0021        5.2995        5.3016       3.442929       0.03568
   8     437.6        1.8660        0.0023        5.1275        5.1297       3.263729       0.03831
   7     480.5        1.8760        0.0024        4.9290        4.9314       3.055354       0.04092
   6     533.0        1.8919        0.0026        4.6794        4.6819       2.790041       0.04268
   5     589.8        1.9142        0.0027        4.4188        4.4215       2.507341       0.04196
   4     651.6        1.9458        0.0029        4.1521        4.1549       2.209176       0.04077
   3     718.7        1.9889        0.0030        3.8929        3.8960       1.907049       0.03797
   2     792.3        2.0466        0.0032        3.6469        3.6500       1.603429       0.03482
   1     891.5        0.4151        1.4946        0.3060        1.8006       1.385459       0.01855
   0    1013.0        0.4371        1.4062        0.2772        1.6834       1.246321       0.00966



 Wavenumbers:  5150. -  6150. cm-1, ATM      1
 LEVEL PRESSURE   UPWARD FLUX   DIFDOWN FLUX  DIRDOWN FLUX  DOWNWARD FLUX   NET FLUX    HEATING RATE
          mb          W/m2          W/m2          W/m2        W/m2          W/m2       degree/day
  51    .06700        4.6036        0.0000       16.4735       16.4735      11.869933       0.00000
  50    .07753        4.6036        0.0000       16.4735       16.4735      11.869898       0.02763
  49    .09103        4.6036        0.0000       16.4734       16.4734      11.869853       0.02812
  48    0.1069        4.6036        0.0000       16.4734       16.4734      11.869800       0.02861
  47    0.1255        4.6036        0.0000       16.4733       16.4733      11.869735       0.02906
  46    0.1487        4.6036        0.0000       16.4732       16.4732      11.869651       0.03061
  45    0.1794        4.6036        0.0000       16.4731       16.4731      11.869532       0.03271
  44    0.2165        4.6036        0.0000       16.4730       16.4730      11.869386       0.03333
  43    0.2613        4.6036        0.0000       16.4728       16.4728      11.869207       0.03378
  42    0.3336        4.6036        0.0000       16.4725       16.4725      11.868901       0.03566
  41    0.4307        4.6036        0.0000       16.4720       16.4720      11.868481       0.03647
  40    0.5894        4.6036        0.0000       16.4713       16.4713      11.867780       0.03730
  39     1.339        4.6036        0.0000       16.4679       16.4679      11.864369       0.03840
  38     1.782        4.6035        0.0000       16.4659       16.4659      11.862368       0.03810
  37     2.292        4.6035        0.0001       16.4635       16.4636      11.860075       0.03799
  36     2.964        4.6035        0.0001       16.4605       16.4606      11.857102       0.03731
  35     3.853        4.6035        0.0001       16.4567       16.4568      11.853244       0.03661
  34     5.035        4.6035        0.0001       16.4516       16.4517      11.848241       0.03574
  33     6.613        4.6035        0.0002       16.4451       16.4452      11.841770       0.03459
  32     8.786        4.6035        0.0002       16.4367       16.4369      11.833443       0.03234
  31     11.80        4.6034        0.0003       16.4254       16.4257      11.822269       0.03128
  30     15.07        4.6034        0.0004       16.4141       16.4145      11.811155       0.02869
  29     18.79        4.6034        0.0005       16.4024       16.4030      11.799601       0.02620
  28     23.16        4.6033        0.0006       16.3900       16.3906      11.787298       0.02379
  27     28.12        4.6033        0.0008       16.3771       16.3779      11.774584       0.02161
  26     33.73        4.6033        0.0009       16.3641       16.3650      11.761795       0.01923
  25     40.54        4.6032        0.0011       16.3502       16.3513      11.748069       0.01703
  24     48.69        4.6032        0.0013       16.3354       16.3367      11.733481       0.01510
  23     57.69        4.6032        0.0016       16.3211       16.3227      11.719444       0.01316
  22     68.43        4.6033        0.0019       16.3062       16.3081      11.704882       0.01145
  21     81.20        4.6033        0.0022       16.2903       16.2926      11.689272       0.01031
  20     96.49        4.6034        0.0027       16.2726       16.2753      11.671931       0.00957
  19     114.6        4.6034        0.0032       16.2521       16.2552      11.651790       0.00940
  18     136.5        4.6036        0.0037       16.2245       16.2283      11.624726       0.01041
  17     162.9        4.6037        0.0045       16.1747       16.1792      11.575440       0.01575
  16     196.4        4.6040        0.0053       16.0518       16.0572      11.453143       0.03078
  15     218.7        4.6043        0.0059       15.8984       15.9043      11.300011       0.05814
  14     243.0        4.6046        0.0065       15.6153       15.6217      11.017131       0.09811
  13     269.0        4.6052        0.0070       15.1390       15.1460      10.540876       0.15449
  12     297.5        4.6060        0.0076       14.5779       14.5855       9.979454       0.16651
  11     328.5        4.6074        0.0081       13.8780       13.8861       9.278741       0.19052
  10     361.9        4.6094        0.0085       13.0814       13.0900       8.480545       0.20195
   9     398.1        4.6125        0.0089       12.2728       12.2818       7.669285       0.18901
   8     437.6        4.6171        0.0093       11.4776       11.4869       6.869775       0.17094
   7     480.5        4.6242        0.0096       10.7300       10.7396       6.115362       0.14816
   6     533.0        4.6371        0.0101       10.0326       10.0427       5.405586       0.11418
   5     589.8        4.6576        0.0106        9.5050        9.5156       4.858055       0.08127
   4     651.6        4.6905        0.0112        9.0814        9.0926       4.402055       0.06236
   3     718.7        4.7410        0.0120        8.7024        8.7144       3.973378       0.05387
   2     792.3        4.8152        0.0128        8.3379        8.3507       3.535460       0.05022
   1     891.5        1.0344        3.5317        0.7215        4.2532       3.218797       0.02695
   0    1013.0        1.0613        3.4036        0.6821        4.0856       3.024337       0.01350



 Wavenumbers:  6150. -  7700. cm-1, ATM      1
 LEVEL PRESSURE   UPWARD FLUX   DIFDOWN FLUX  DIRDOWN FLUX  DOWNWARD FLUX   NET FLUX    HEATING RATE
          mb          W/m2          W/m2          W/m2        W/m2          W/m2       degree/day
  51    .06700        7.1130        0.0000       30.4684       30.4684      23.355379       0.00000
  50    .07753        7.1130        0.0000       30.4683       30.4683      23.355327       0.04144
  49    .09103        7.1130        0.0000       30.4683       30.4683      23.355260       0.04174
  48    0.1069        7.1130        0.0000       30.4682       30.4682      23.355181       0.04202
  47    0.1255        7.1130        0.0000       30.4681       30.4681      23.355088       0.04227
  46    0.1487        7.1130        0.0000       30.4680       30.4680      23.354967       0.04411
  45    0.1794        7.1130        0.0000       30.4678       30.4678      23.354797       0.04669
  44    0.2165        7.1130        0.0000       30.4676       30.4676      23.354590       0.04715
  43    0.2613        7.1130        0.0000       30.4673       30.4673      23.354338       0.04744
  42    0.3336        7.1130        0.0000       30.4669       30.4669      23.353911       0.04974
  41    0.4307        7.1130        0.0000       30.4663       30.4663      23.353330       0.05052
  40    0.5894        7.1130        0.0001       30.4653       30.4653      23.352363       0.05146
  39     1.339        7.1129        0.0001       30.4604       30.4606      23.347679       0.05273
  38     1.782        7.1128        0.0002       30.4576       30.4578      23.344929       0.05235
  37     2.292        7.1128        0.0003       30.4543       30.4546      23.341771       0.05231
  36     2.964        7.1127        0.0003       30.4501       30.4504      23.337663       0.05156
  35     3.853        7.1126        0.0004       30.4445       30.4450      23.332306       0.05084
  34     5.035        7.1125        0.0006       30.4373       30.4378      23.325307       0.05000
  33     6.613        7.1124        0.0008       30.4278       30.4285      23.316159       0.04890
  32     8.786        7.1122        0.0010       30.4154       30.4164      23.304206       0.04642
  31     11.80        7.1119        0.0014       30.3984       30.3997      23.287820       0.04587
  30     15.07        7.1116        0.0017       30.3810       30.3827      23.271107       0.04315
  29     18.79        7.1113        0.0022       30.3623       30.3645      23.253206       0.04059
  28     23.16        7.1108        0.0027       30.3417       30.3444      23.233522       0.03806
  27     28.12        7.1104        0.0032       30.3196       30.3228      23.212421       0.03587
  26     33.73        7.1099        0.0039       30.2965       30.3004      23.190502       0.03296
  25     40.54        7.1092        0.0047       30.2708       30.2754      23.166163       0.03019
  24     48.69        7.1085        0.0056       30.2423       30.2479      23.139384       0.02771
  23     57.69        7.1077        0.0066       30.2139       30.2205      23.112816       0.02490
  22     68.43        7.1067        0.0078       30.1834       30.1912      23.084537       0.02223
  21     81.20        7.1055        0.0093       30.1500       30.1593      23.053803       0.02031
  20     96.49        7.1041        0.0110       30.1126       30.1237      23.019579       0.01889
  19     114.6        7.1024        0.0131       30.0695       30.0826      22.980183       0.01839
  18     136.5        7.1005        0.0156       30.0139       30.0295      22.929012       0.01968
  17     162.9        7.0981        0.0185       29.9225       29.9409      22.842799       0.02756
  16     196.4        7.0952        0.0222       29.7333       29.7555      22.660333       0.04593
  15     218.7        7.0933        0.0246       29.5259       29.5505      22.457117       0.07715
  14     243.0        7.0914        0.0271       29.1375       29.1646      22.073126       0.13318
  13     269.0        7.0897        0.0295       28.3800       28.4095      21.319760       0.24439
  12     297.5        7.0885        0.0318       27.3895       27.4213      20.332793       0.29272
  11     328.5        7.0882        0.0340       26.2257       26.2597      19.171438       0.31577
  10     361.9        7.0895        0.0360       24.8453       24.8813      17.791842       0.34905
   9     398.1        7.0931        0.0378       23.3471       23.3848      16.291738       0.34949
   8     437.6        7.1006        0.0393       21.7966       21.8359      14.735378       0.33276
   7     480.5        7.1148        0.0406       20.1977       20.2383      13.123464       0.31657
   6     533.0        7.1435        0.0419       18.4969       18.5388      11.395325       0.27800
   5     589.8        7.1920        0.0432       16.9754       17.0186       9.826537       0.23286
   4     651.6        7.2728        0.0445       15.6022       15.6467       8.373847       0.19866
   3     718.7        7.3976        0.0460       14.4232       14.4692       7.071564       0.16366
   2     792.3        7.5819        0.0478       13.4386       13.4864       5.904436       0.13386
   1     891.5        1.5556        5.5450        1.1292        6.6742       5.118647       0.06687
   0    1013.0        1.6250        5.2284        1.0305        6.2589       4.633804       0.03367



 Wavenumbers:  7700. -  8050. cm-1, ATM      1
 LEVEL PRESSURE   UPWARD FLUX   DIFDOWN FLUX  DIRDOWN FLUX  DOWNWARD FLUX   NET FLUX    HEATING RATE
          mb          W/m2          W/m2          W/m2        W/m2          W/m2       degree/day
  51    .06700        3.4404        0.0000        7.2006        7.2006       3.760230       0.00000
  50    .07753        3.4404        0.0000        7.2006        7.2006       3.760210       0.01603
  49    .09103        3.4404        0.0000        7.2005        7.2005       3.760185       0.01571
  48    0.1069        3.4404        0.0000        7.2005        7.2005       3.760156       0.01538
  47    0.1255        3.4404        0.0000        7.2005        7.2005       3.760122       0.01505
  46    0.1487        3.4404        0.0000        7.2004        7.2005       3.760081       0.01527
  45    0.1794        3.4404        0.0000        7.2004        7.2004       3.760023       0.01571
  44    0.2165        3.4404        0.0000        7.2003        7.2003       3.759956       0.01541
  43    0.2613        3.4404        0.0000        7.2003        7.2003       3.759875       0.01513
  42    0.3336        3.4404        0.0000        7.2001        7.2001       3.759743       0.01548
  41    0.4307        3.4404        0.0000        7.2000        7.2000       3.759566       0.01531
  40    0.5894        3.4404        0.0000        7.1997        7.1997       3.759279       0.01529
  39     1.339        3.4406        0.0001        7.1984        7.1985       3.757919       0.01531
  38     1.782        3.4407        0.0001        7.1977        7.1978       3.757121       0.01520
  37     2.292        3.4407        0.0001        7.1968        7.1969       3.756197       0.01530
  36     2.964        3.4409        0.0001        7.1957        7.1958       3.754984       0.01523
  35     3.853        3.4410        0.0002        7.1942        7.1944       3.753382       0.01520
  34     5.035        3.4412        0.0002        7.1922        7.1925       3.751256       0.01519
  33     6.613        3.4415        0.0003        7.1896        7.1899       3.748419       0.01517
  32     8.786        3.4419        0.0004        7.1860        7.1865       3.744600       0.01483
  31     11.80        3.4424        0.0006        7.1810        7.1816       3.739148       0.01526
  30     15.07        3.4430        0.0007        7.1755        7.1763       3.733309       0.01507
  29     18.79        3.4436        0.0009        7.1694        7.1704       3.726732       0.01491
  28     23.16        3.4444        0.0011        7.1623        7.1635       3.719076       0.01480
  27     28.12        3.4453        0.0014        7.1542        7.1556       3.710356       0.01482
  26     33.73        3.4462        0.0016        7.1452        7.1469       3.700643       0.01460
  25     40.54        3.4474        0.0020        7.1344        7.1364       3.688972       0.01448
  24     48.69        3.4489        0.0024        7.1215        7.1239       3.674996       0.01446
  23     57.69        3.4505        0.0028        7.1074        7.1103       3.659760       0.01428
  22     68.43        3.4524        0.0033        7.0909        7.0942       3.641774       0.01414
  21     81.20        3.4547        0.0039        7.0713        7.0753       3.620568       0.01401
  20     96.49        3.4575        0.0047        7.0484        7.0531       3.595608       0.01378
  19     114.6        3.4608        0.0055        7.0217        7.0272       3.566392       0.01364
  18     136.5        3.4648        0.0066        6.9906        6.9971       3.532330       0.01310
  17     162.9        3.4696        0.0078        6.9544        6.9622       3.492519       0.01273
  16     196.4        3.4760        0.0093        6.9087        6.9181       3.442041       0.01271
  15     218.7        3.4803        0.0104        6.8794        6.8898       3.409484       0.01236
  14     243.0        3.4850        0.0115        6.8481        6.8596       3.374567       0.01211
  13     269.0        3.4902        0.0127        6.8147        6.8274       3.337146       0.01214
  12     297.5        3.4960        0.0140        6.7791        6.7930       3.297001       0.01191
  11     328.5        3.5025        0.0154        6.7409        6.7563       3.253788       0.01175
  10     361.9        3.5098        0.0169        6.7002        6.7170       3.207220       0.01178
   9     398.1        3.5180        0.0185        6.6563        6.6748       3.156721       0.01177
   8     437.6        3.5274        0.0202        6.6089        6.6291       3.101682       0.01177
   7     480.5        3.5382        0.0220        6.5570        6.5790       3.040859       0.01195
   6     533.0        3.5527        0.0243        6.4915        6.5158       2.963088       0.01251
   5     589.8        3.5700        0.0267        6.4182        6.4449       2.874925       0.01309
   4     651.6        3.5909        0.0292        6.3359        6.3651       2.774243       0.01377
   3     718.7        3.6159        0.0320        6.2441        6.2761       2.660242       0.01433
   2     792.3        3.6452        0.0348        6.1437        6.1786       2.533313       0.01456
   1     891.5        0.8141        2.6979        0.5476        3.2455       2.431400       0.00867
   0    1013.0        0.8269        2.6521        0.5313        3.1834       2.356449       0.00520



 Wavenumbers:  8050. - 12850. cm-1, ATM      1
 LEVEL PRESSURE   UPWARD FLUX   DIFDOWN FLUX  DIRDOWN FLUX  DOWNWARD FLUX   NET FLUX    HEATING RATE
          mb          W/m2          W/m2          W/m2        W/m2          W/m2       degree/day
  51    .06700       44.5353        0.0000      100.8135      100.8135      56.278233       0.00000
  50    .07753       44.5353        0.0000      100.8135      100.8135      56.278233       0.00000
  49    .09103       44.5352        0.0001      100.8134      100.8135      56.278233       0.00000
  48    0.1069       44.5352        0.0001      100.8134      100.8135      56.278233      -0.00000
  47    0.1255       44.5352        0.0001      100.8133      100.8134      56.278233       0.00000
  46    0.1487       44.5352        0.0002      100.8132      100.8134      56.278233      -0.00000
  45    0.1794       44.5351        0.0003      100.8131      100.8133      56.278233       0.00000
  44    0.2165       44.5350        0.0004      100.8129      100.8133      56.278233       0.00000
  43    0.2613       44.5350        0.0005      100.8127      100.8132      56.278233      -0.00000
  42    0.3336       44.5349        0.0006      100.8125      100.8131      56.278233      -0.00000
  41    0.4307       44.5347        0.0009      100.8121      100.8129      56.278233       0.00000
  40    0.5894       44.5345        0.0012      100.8115      100.8127      56.278233      -0.00000
  39     1.339       44.5333        0.0030      100.8085      100.8115      56.278233       0.00000
  38     1.782       44.5326        0.0041      100.8068      100.8108      56.278233       0.00000
  37     2.292       44.5318        0.0053      100.8047      100.8100      56.278233       0.00000
  36     2.964       44.5308        0.0069      100.8021      100.8090      56.278233      -0.00000
  35     3.853       44.5294        0.0090      100.7986      100.8076      56.278233       0.00000
  34     5.035       44.5275        0.0118      100.7940      100.8058      56.278233       0.00000
  33     6.613       44.5251        0.0155      100.7878      100.8033      56.278233       0.00000
  32     8.786       44.5218        0.0206      100.7794      100.8000      56.278233       0.00000
  31     11.80       44.5170        0.0278      100.7674      100.7952      56.278233      -0.00000
  30     15.07       44.5119        0.0356      100.7546      100.7901      56.278233       0.00000
  29     18.79       44.5061        0.0444      100.7400      100.7844      56.278233      -0.00000
  28     23.16       44.4994        0.0546      100.7230      100.7776      56.278233       0.00000
  27     28.12       44.4916        0.0664      100.7035      100.7699      56.278233       0.00000
  26     33.73       44.4830        0.0796      100.6817      100.7612      56.278233      -0.00000
  25     40.54       44.4725        0.0955      100.6552      100.7507      56.278233      -0.00000
  24     48.69       44.4599        0.1147      100.6234      100.7381      56.278233      -0.00000
  23     57.69       44.4459        0.1359      100.5883      100.7242      56.278233       0.00000
  22     68.43       44.4293        0.1611      100.5464      100.7076      56.278233      -0.00000
  21     81.20       44.4095        0.1912      100.4965      100.6878      56.278233      -0.00000
  20     96.49       44.3859        0.2272      100.4370      100.6641      56.278233       0.00000
  19     114.6       44.3579        0.2699      100.3585      100.6284      56.270483       0.00362
  18     136.5       44.3246        0.3206      100.2634      100.5840      56.259335       0.00429
  17     162.9       44.2850        0.3811      100.1407      100.5218      56.236738       0.00722
  16     196.4       44.2337        0.4597       99.9505      100.4102      56.176472       0.01517
  15     218.7       44.2000        0.5113       99.7889      100.3003      56.100225       0.02895
  14     243.0       44.1637        0.5674       99.5472      100.1146      55.950828       0.05182
  13     269.0       44.1256        0.6278       99.1452       99.7730      55.647453       0.09841
  12     297.5       44.0865        0.6926       98.5975       99.2901      55.203610       0.13164
  11     328.5       44.0481        0.7621       97.8659       98.6280      54.579892       0.16959
  10     361.9       44.0128        0.8359       96.8848       97.7207      53.707926       0.22062
   9     398.1       43.9839        0.9139       95.6330       96.5469      52.562978       0.26675
   8     437.6       43.9676        0.9956       94.0655       95.0611      51.093477       0.31419
   7     480.5       43.9760        1.0801       92.0807       93.1608      49.184869       0.37484
   6     533.0       44.0304        1.1800       89.4449       90.6248      46.594379       0.41673
   5     589.8       44.1563        1.2832       86.5544       87.8376      43.681241       0.43241
   4     651.6       44.3952        1.3892       83.4174       84.8066      40.411397       0.44716
   3     718.7       44.7808        1.4988       80.2037       81.7025      36.921717       0.43856
   2     792.3       45.3531        1.6127       77.0811       78.6938      33.340658       0.41071
   1     891.5        9.8721       33.8658        6.6848       40.5506      30.678515       0.22654
   0    1013.0       10.1147       32.6927        6.2905       38.9832      28.868533       0.12568



 Wavenumbers: 12850. - 16000. cm-1, ATM      1
 LEVEL PRESSURE   UPWARD FLUX   DIFDOWN FLUX  DIRDOWN FLUX  DOWNWARD FLUX   NET FLUX    HEATING RATE
          mb          W/m2          W/m2          W/m2        W/m2          W/m2       degree/day
  51    .06700       39.1239        0.0000       63.1686       63.1686      24.044681       0.00000
  50    .07753       39.1239        0.0001       63.1677       63.1678      24.043901       0.62569
  49    .09103       39.1238        0.0001       63.1666       63.1668      24.042927       0.60821
  48    0.1069       39.1238        0.0002       63.1654       63.1656      24.041819       0.58995
  47    0.1255       39.1238        0.0003       63.1640       63.1643      24.040558       0.57164
  46    0.1487       39.1237        0.0004       63.1623       63.1627      24.038985       0.57344
  45    0.1794       39.1237        0.0006       63.1600       63.1606      24.036875       0.57938
  44    0.2165       39.1237        0.0008       63.1573       63.1581      24.034433       0.55546
  43    0.2613       39.1236        0.0010       63.1542       63.1552      24.031615       0.53121
  42    0.3336       39.1236        0.0014       63.1493       63.1507      24.027121       0.52390
  41    0.4307       39.1236        0.0019       63.1431       63.1451      24.021496       0.48910
  40    0.5894       39.1236        0.0028       63.1338       63.1366      24.012963       0.45377
  39     1.339       39.1254        0.0067       63.0956       63.1023      23.976940       0.40555
  38     1.782       39.1275        0.0091       63.0740       63.0831      23.955630       0.40570
  37     2.292       39.1309        0.0117       63.0477       63.0594      23.928544       0.44862
  36     2.964       39.1369        0.0153       63.0095       63.0248      23.887924       0.50990
  35     3.853       39.1470        0.0199       62.9533       62.9732      23.826219       0.58559
  34     5.035       39.1625        0.0261       62.8725       62.8986      23.736120       0.64363
  33     6.613       39.1843        0.0344       62.7621       62.7964      23.612101       0.66301
  32     8.786       39.2126        0.0455       62.6182       62.6637      23.451100       0.62527
  31     11.80       39.2489        0.0613       62.4284       62.4897      23.240780       0.58883
  30     15.07       39.2830        0.0783       62.2426       62.3209      23.037930       0.52372
  29     18.79       39.3171        0.0974       62.0493       62.1467      22.829646       0.47224
  28     23.16       39.3518        0.1197       61.8424       61.9621      22.610313       0.42412
  27     28.12       39.3857        0.1451       61.6278       61.7729      22.387250       0.37919
  26     33.73       39.4152        0.1735       61.4177       61.5912      22.176063       0.31753
  25     40.54       39.4410        0.2078       61.1983       61.4061      21.965148       0.26166
  24     48.69       39.4626        0.2491       60.9680       61.2171      21.754456       0.21803
  23     57.69       39.4772        0.2943       60.7478       61.0421      21.564957       0.17763
  22     68.43       39.4846        0.3482       60.5202       60.8684      21.383785       0.14243
  21     81.20       39.4798        0.4123       60.2938       60.7061      21.226347       0.10403
  20     96.49       39.4615        0.4887       60.0643       60.5530      21.091479       0.07444
  19     114.6       39.4398        0.5799       59.8078       60.3877      20.947897       0.06704
  18     136.5       39.4086        0.6879       59.5157       60.2036      20.795036       0.05878
  17     162.9       39.3663        0.8161       59.1770       59.9932      20.626878       0.05375
  16     196.4       39.3006        0.9820       58.7604       59.7424      20.441807       0.04658
  15     218.7       39.2537        1.0907       58.4948       59.5855      20.331796       0.04177
  14     243.0       39.2010        1.2085       58.2089       59.4174      20.216432       0.04001
  13     269.0       39.1426        1.3360       57.9006       59.2366      20.093980       0.03972
  12     297.5       39.0787        1.4735       57.5668       59.0403      19.961584       0.03927
  11     328.5       39.0103        1.6216       57.2005       58.8221      19.811770       0.04073
  10     361.9       38.9385        1.7806       56.7963       58.5770      19.638487       0.04384
   9     398.1       38.8642        1.9512       56.3475       58.2987      19.434544       0.04751
   8     437.6       38.7897        2.1335       55.8422       57.9757      19.186033       0.05313
   7     480.5       38.7194        2.3276       55.2625       57.5902      18.870816       0.06191
   6     533.0       38.6489        2.5646       54.4972       57.0617      18.412859       0.07367
   5     589.8       38.5933        2.8166       53.6307       56.4473      17.854058       0.08294
   4     651.6       38.5619        3.0830       52.6606       55.7436      17.181693       0.09195
   3     718.7       38.5604        3.3640       51.6100       54.9740      16.413589       0.09653
   2     792.3       38.5966        3.6595       50.5019       54.1614      15.564769       0.09735
   1     891.5       17.9860       28.3372        4.4725       32.8096      14.823631       0.06307
   0    1013.0       18.1199       27.9850        4.3090       32.2941      14.174220       0.04509



 Wavenumbers: 16000. - 22650. cm-1, ATM      1
 LEVEL PRESSURE   UPWARD FLUX   DIFDOWN FLUX  DIRDOWN FLUX  DOWNWARD FLUX   NET FLUX    HEATING RATE
          mb          W/m2          W/m2          W/m2        W/m2          W/m2       degree/day
  51    .06700       77.0733        0.0000      100.7153      100.7153      23.641993       0.00000
  50    .07753       77.0732        0.0003      100.7147      100.7151      23.641875       0.09452
  49    .09103       77.0730        0.0007      100.7140      100.7147      23.641704       0.10720
  48    0.1069       77.0729        0.0012      100.7131      100.7143      23.641474       0.12225
  47    0.1255       77.0727        0.0018      100.7121      100.7139      23.641167       0.13935
  46    0.1487       77.0725        0.0024      100.7108      100.7132      23.640714       0.16512
  45    0.1794       77.0723        0.0034      100.7089      100.7123      23.640005       0.19442
  44    0.2165       77.0720        0.0045      100.7066      100.7110      23.639045       0.21850
  43    0.2613       77.0717        0.0058      100.7037      100.7095      23.637742       0.24565
  42    0.3336       77.0714        0.0080      100.6987      100.7067      23.635264       0.28887
  41    0.4307       77.0711        0.0109      100.6918      100.7026      23.631529       0.32471
  40    0.5894       77.0709        0.0156      100.6797      100.6953      23.624407       0.37875
  39     1.339       77.0756        0.0379      100.6095      100.6474      23.571798       0.59228
  38     1.782       77.0824        0.0510      100.5585      100.6094      23.526995       0.85298
  37     2.292       77.0942        0.0661      100.4903      100.5564      23.462163       1.07380
  36     2.964       77.1156        0.0860      100.3868      100.4727      23.357182       1.31783
  35     3.853       77.1521        0.1122      100.2306      100.3428      23.190722       1.57973
  34     5.035       77.2088        0.1470      100.0045      100.1514      22.942645       1.77216
  33     6.613       77.2888        0.1933       99.6939       99.8872      22.598413       1.84026
  32     8.786       77.3923        0.2556       99.2881       99.5437      22.151402       1.73603
  31     11.80       77.5244        0.3445       98.7496       99.0941      21.569723       1.62852
  30     15.07       77.6475        0.4396       98.2198       98.6594      21.011843       1.44034
  29     18.79       77.7699        0.5466       97.6651       98.2117      20.441790       1.29248
  28     23.16       77.8935        0.6711       97.0671       97.7383      19.844714       1.15455
  27     28.12       78.0124        0.8130       96.4406       97.2536      19.241197       1.02594
  26     33.73       78.1129        0.9712       95.8179       96.7891      18.676209       0.84947
  25     40.54       78.1970        1.1618       95.1548       96.3166      18.119671       0.69045
  24     48.69       78.2620        1.3906       94.4420       95.8326      17.570615       0.56819
  23     57.69       78.2984        1.6409       93.7416       95.3825      17.084147       0.45599
  22     68.43       78.3042        1.9379       92.9954       94.9332      16.629051       0.35777
  21     81.20       78.2595        2.2902       92.2231       94.5134      16.253872       0.24791
  20     96.49       78.1587        2.7082       91.4110       94.1192      15.960443       0.16195
  19     114.6       78.0156        3.2010       90.5070       93.7080      15.692426       0.12514
  18     136.5       77.8308        3.7803       89.4803       93.2605      15.429749       0.10101
  17     162.9       77.5977        4.4632       88.3022       92.7654      15.167713       0.08376
  16     196.4       77.2662        5.3387       86.8606       92.1993      14.933135       0.05905
  15     218.7       77.0385        5.9074       85.9492       91.8566      14.818049       0.04369
  14     243.0       76.7874        6.5199       84.9789       91.4989      14.711495       0.03696
  13     269.0       76.5117        7.1773       83.9493       91.1266      14.614964       0.03131
  12     297.5       76.2107        7.8804       82.8589       90.7393      14.528568       0.02562
  11     328.5       75.8860        8.6315       81.6982       90.3297      14.443701       0.02308
  10     361.9       75.5375        9.4304       80.4669       89.8973      14.359818       0.02122
   9     398.1       75.1645       10.2791       79.1611       89.4402      14.275684       0.01960
   8     437.6       74.7675       11.1777       77.7777       88.9555      14.187938       0.01876
   7     480.5       74.3470       12.1267       76.3136       88.4404      14.093363       0.01857
   6     533.0       73.8374       13.2748       74.5359       87.8107      13.973335       0.01931
   5     589.8       73.2993       14.4880       72.6469       87.1349      13.835585       0.02045
   4     651.6       72.7354       15.7641       70.6456       86.4097      13.674285       0.02206
   3     718.7       72.1462       17.1010       68.5367       85.6377      13.491527       0.02297
   2     792.3       71.5346       18.4934       66.3287       84.8221      13.287504       0.02340
   1     891.5       47.5930       54.8908        5.7857       60.6764      13.083415       0.01737
   0    1013.0       47.4477       54.8431        5.4777       60.3208      12.873137       0.01460



 Wavenumbers: 22650. - 29000. cm-1, ATM      1
 LEVEL PRESSURE   UPWARD FLUX   DIFDOWN FLUX  DIRDOWN FLUX  DOWNWARD FLUX   NET FLUX    HEATING RATE
          mb          W/m2          W/m2          W/m2        W/m2          W/m2       degree/day
  51    .06700       32.9639        0.0000       38.0063       38.0063       5.042359       0.00000
  50    .07753       32.9638        0.0004       38.0057       38.0061       5.042359       0.00000
  49    .09103       32.9635        0.0009       38.0050       38.0059       5.042359       0.00000
  48    0.1069       32.9633        0.0014       38.0042       38.0057       5.042359      -0.00000
  47    0.1255       32.9630        0.0020       38.0033       38.0054       5.042359       0.00000
  46    0.1487       32.9627        0.0028       38.0022       38.0050       5.042359       0.00000
  45    0.1794       32.9622        0.0039       38.0006       38.0045       5.042359       0.00000
  44    0.2165       32.9616        0.0052       37.9987       38.0039       5.042359      -0.00000
  43    0.2613       32.9609        0.0068       37.9965       38.0033       5.042359       0.00000
  42    0.3336       32.9598        0.0093       37.9928       38.0021       5.042359       0.00000
  41    0.4307       32.9583        0.0126       37.9880       38.0006       5.042359      -0.00000
  40    0.5894       32.9558        0.0181       37.9800       37.9982       5.042359       0.00000
  39     1.339       32.9442        0.0440       37.9425       37.9865       5.042359       0.00000
  38     1.782       32.9373        0.0593       37.9204       37.9797       5.042359      -0.00000
  37     2.292       32.9294        0.0769       37.8949       37.9718       5.042359       0.00000
  36     2.964       32.9191        0.1000       37.8614       37.9614       5.042359       0.00000
  35     3.853       32.9054        0.1305       37.8172       37.9477       5.042359       0.00000
  34     5.035       32.8872        0.1710       37.7586       37.9296       5.042359      -0.00000
  33     6.613       32.8629        0.2250       37.6803       37.9053       5.042359       0.00000
  32     8.786       32.8303        0.2976       37.5750       37.8727       5.042359       0.00000
  31     11.80       32.7837        0.4012       37.4249       37.8261       5.042359       0.00000
  30     15.07       32.7339        0.5121       37.2642       37.7762       5.042359      -0.00000
  29     18.79       32.6778        0.6368       37.0833       37.7201       5.042359      -0.00000
  28     23.16       32.6125        0.7818       36.8730       37.6548       5.042359       0.00000
  27     28.12       32.5381        0.9467       36.6338       37.5805       5.042359      -0.00000
  26     33.73       32.4554        1.1300       36.3677       37.4977       5.042359       0.00000
  25     40.54       32.3561        1.3499       36.0486       37.3984       5.042359      -0.00000
  24     48.69       32.2372        1.6124       35.6672       37.2796       5.042359       0.00000
  23     57.69       32.1079        1.8976       35.2527       37.1503       5.042359       0.00000
  22     68.43       31.9556        2.2330       34.7649       36.9979       5.042359      -0.00000
  21     81.20       31.7764        2.6265       34.1922       36.8187       5.042359       0.00000
  20     96.49       31.5662        3.0868       33.5217       36.6085       5.042359       0.00000
  19     114.6       31.3212        3.6212       32.7424       36.3635       5.042359      -0.00000
  18     136.5       31.0372        4.2380       31.8416       36.0795       5.042359       0.00000
  17     162.9       30.7078        4.9494       30.8008       35.7502       5.042359      -0.00000
  16     196.4       30.2945        5.8361       29.5007       35.3368       5.042359       0.00000
  15     218.7       30.0313        6.3969       28.6767       35.0736       5.042359      -0.00000
  14     243.0       29.7523        6.9878       27.8068       34.7946       5.042359       0.00000
  13     269.0       29.4580        7.6071       26.8933       34.5004       5.042359       0.00000
  12     297.5       29.1492        8.2523       25.9393       34.1916       5.042359      -0.00000
  11     328.5       28.8256        8.9229       24.9451       33.8680       5.042359      -0.00000
  10     361.9       28.4886        9.6149       23.9160       33.5309       5.042359       0.00000
   9     398.1       28.1384       10.3266       22.8541       33.1807       5.042359       0.00000
   8     437.6       27.7762       11.0541       21.7645       32.8186       5.042359       0.00000
   7     480.5       27.4033       11.7935       20.6521       32.4456       5.042359       0.00000
   6     533.0       26.9644       12.6498       19.3569       32.0067       5.042359      -0.00000
   5     589.8       26.5146       13.5103       18.0467       31.5570       5.042359       0.00000
   4     651.6       26.0564       14.3672       16.7316       31.0988       5.042359       0.00000
   3     718.7       25.5921       15.2131       15.4214       30.6345       5.042359      -0.00000
   2     792.3       25.1245       16.0393       14.1276       30.1669       5.042359       0.00000
   1     891.5       18.6902       22.5877        1.1448       23.7325       5.042288       0.00001
   0    1013.0       18.4734       22.5236        0.9921       23.5157       5.042288       0.00000



 Wavenumbers: 29000. - 38000. cm-1, ATM      1
 LEVEL PRESSURE   UPWARD FLUX   DIFDOWN FLUX  DIRDOWN FLUX  DOWNWARD FLUX   NET FLUX    HEATING RATE
          mb          W/m2          W/m2          W/m2        W/m2          W/m2       degree/day
  51    .06700        4.7834        0.0000       13.4026       13.4026       8.619216       0.00000
  50    .07753        4.7832        0.0003       13.3983       13.3986       8.615418       3.04429
  49    .09103        4.7829        0.0007       13.3921       13.3928       8.609899       3.44955
  48    0.1069        4.7826        0.0011       13.3840       13.3851       8.602522       3.92663
  47    0.1255        4.7822        0.0016       13.3733       13.3749       8.592678       4.46302
  46    0.1487        4.7818        0.0022       13.3579       13.3600       8.578236       5.26420
  45    0.1794        4.7812        0.0030       13.3340       13.3371       8.555837       6.14905
  44    0.2165        4.7806        0.0040       13.3024       13.3064       8.525819       6.82851
  43    0.2613        4.7798        0.0051       13.2604       13.2656       8.485766       7.54982
  42    0.3336        4.7786        0.0070       13.1833       13.1903       8.411763       8.62807
  41    0.4307        4.7770        0.0095       13.0729       13.0824       8.305396       9.24840
  40    0.5894        4.7746        0.0134       12.8796       12.8930       8.118362       9.94623
  39     1.339        4.7660        0.0296       11.9165       11.9461       7.180093      10.56320
  38     1.782        4.7626        0.0378       11.4399       11.4778       6.715172       8.85136
  37     2.292        4.7600        0.0467       10.9796       11.0263       6.266323       7.43411
  36     2.964        4.7584        0.0576       10.4786       10.5362       5.777823       6.13215
  35     3.853        4.7587        0.0710        9.9429       10.0139       5.255167       4.96011
  34     5.035        4.7617        0.0878        9.4007        9.4884       4.726726       3.77496
  33     6.613        4.7675        0.1090        8.8752        8.9842       4.216730       2.72644
  32     8.786        4.7754        0.1363        8.3786        8.5149       3.739507       1.85336
  31     11.80        4.7851        0.1739        7.8897        8.0636       3.278513       1.29064
  30     15.07        4.7933        0.2127        7.5108        7.7235       2.930235       0.89918
  29     18.79        4.8007        0.2549        7.1776        7.4325       2.631812       0.67662
  28     23.16        4.8073        0.3024        6.8664        7.1689       2.361543       0.52261
  27     28.12        4.8124        0.3550        6.5780        6.9330       2.120635       0.40953
  26     33.73        4.8135        0.4122        6.3195        6.7317       1.918217       0.30434
  25     40.54        4.8093        0.4797        6.0663        6.5460       1.736618       0.22529
  24     48.69        4.7994        0.5587        5.8128        6.3716       1.572150       0.17020
  23     57.69        4.7838        0.6431        5.5777        6.2208       1.436959       0.12672
  22     68.43        4.7601        0.7407        5.3379        6.0786       1.318417       0.09319
  21     81.20        4.7242        0.8539        5.0965        5.9504       1.226176       0.06095
  20     96.49        4.6747        0.9845        4.8476        5.8322       1.157509       0.03790
  19     114.6        4.6146        1.1325        4.5799        5.7124       1.097757       0.02790
  18     136.5        4.5451        1.2978        4.2891        5.5868       1.041774       0.02153
  17     162.9        4.4656        1.4808        3.9732        5.4540       0.988428       0.01705
  16     196.4        4.3649        1.6998        3.6080        5.3078       0.942855       0.01147
  15     218.7        4.3015        1.8329        3.3898        5.2226       0.921171       0.00823
  14     243.0        4.2354        1.9684        3.1686        5.1369       0.901509       0.00682
  13     269.0        4.1671        2.1052        2.9461        5.0513       0.884177       0.00562
  12     297.5        4.0968        2.2421        2.7239        4.9660       0.869190       0.00445
  11     328.5        4.0254        2.3777        2.5029        4.8806       0.855121       0.00383
  10     361.9        3.9534        2.5108        2.2846        4.7954       0.841992       0.00332
   9     398.1        3.8810        2.6400        2.0708        4.7108       0.829796       0.00284
   8     437.6        3.8088        2.7645        1.8626        4.6270       0.818272       0.00246
   7     480.5        3.7371        2.8825        1.6621        4.5446       0.807544       0.00211
   6     533.0        3.6562        3.0086        1.4437        4.4523       0.796091       0.00184
   5     589.8        3.5770        3.1233        1.2390        4.3623       0.785240       0.00161
   4     651.6        3.5002        3.2251        1.0500        4.2751       0.774845       0.00142
   3     718.7        3.4259        3.3130        0.8778        4.1908       0.764871       0.00125
   2     792.3        3.3545        3.3861        0.7237        4.1098       0.755298       0.00110
   1     891.5        2.7325        3.4267        0.0507        3.4774       0.744892       0.00089
   0    1013.0        2.6806        3.3782        0.0368        3.4151       0.734503       0.00072



 Wavenumbers: 38000. - 50000. cm-1, ATM      1
 LEVEL PRESSURE   UPWARD FLUX   DIFDOWN FLUX  DIRDOWN FLUX  DOWNWARD FLUX   NET FLUX    HEATING RATE
          mb          W/m2          W/m2          W/m2        W/m2          W/m2       degree/day
  51    .06700        0.0051        0.0000        0.8267        0.8267       0.821528       0.00000
  50    .07753        0.0051        0.0001        0.8242        0.8243       0.819196       1.86936
  49    .09103        0.0050        0.0002        0.8207        0.8209       0.815872       2.07705
  48    0.1069        0.0049        0.0002        0.8162        0.8164       0.811514       2.31984
  47    0.1255        0.0048        0.0004        0.8103        0.8106       0.805801       2.59006
  46    0.1487        0.0047        0.0005        0.8018        0.8023       0.797567       3.00143
  45    0.1794        0.0045        0.0007        0.7889        0.7896       0.785013       3.44648
  44    0.2165        0.0044        0.0009        0.7720        0.7729       0.768507       3.75474
  43    0.2613        0.0042        0.0011        0.7500        0.7511       0.746955       4.06246
  42    0.3336        0.0039        0.0015        0.7106        0.7121       0.708267       4.51071
  41    0.4307        0.0035        0.0019        0.6566        0.6584       0.654972       4.63387
  40    0.5894        0.0029        0.0024        0.5680        0.5704       0.567464       4.65357
  39     1.339        0.0015        0.0030        0.2422        0.2452       0.243720       3.64476
  38     1.782        0.0010        0.0026        0.1493        0.1519       0.150889       1.76735
  37     2.292        0.0007        0.0022        0.0924        0.0946       0.093932       0.94336
  36     2.964        0.0005        0.0018        0.0539        0.0557       0.055224       0.48589
  35     3.853        0.0003        0.0013        0.0295        0.0308       0.030502       0.23462
  34     5.035        0.0002        0.0010        0.0154        0.0164       0.016181       0.10230
  33     6.613        0.0001        0.0007        0.0073        0.0080       0.007912       0.04420
  32     8.786        0.0000        0.0004        0.0030        0.0034       0.003390       0.01756
  31     11.80        0.0000        0.0003        0.0010        0.0012       0.001199       0.00613
  30     15.07        0.0000        0.0001        0.0003        0.0005       0.000463       0.00190
  29     18.79        0.0000        0.0001        0.0001        0.0002       0.000182       0.00064
  28     23.16        0.0000        0.0000        0.0000        0.0001       0.000071       0.00022
  27     28.12        0.0000        0.0000        0.0000        0.0000       0.000028       0.00007
  26     33.73        0.0000        0.0000        0.0000        0.0000       0.000011       0.00002
  25     40.54        0.0000        0.0000        0.0000        0.0000       0.000005       0.00001
  24     48.69        0.0000        0.0000        0.0000        0.0000       0.000002       0.00000
  23     57.69        0.0000        0.0000        0.0000        0.0000       0.000001       0.00000
  22     68.43        0.0000        0.0000        0.0000        0.0000       0.000000       0.00000
  21     81.20        0.0000        0.0000        0.0000        0.0000       0.000000       0.00000
  20     96.49        0.0000        0.0000        0.0000        0.0000       0.000000       0.00000
  19     114.6        0.0000        0.0000        0.0000        0.0000       0.000000       0.00000
  18     136.5        0.0000        0.0000        0.0000        0.0000       0.000000       0.00000
  17     162.9        0.0000        0.0000        0.0000        0.0000       0.000000       0.00000
  16     196.4        0.0000        0.0000        0.0000        0.0000       0.000000       0.00000
  15     218.7        0.0000        0.0000        0.0000        0.0000       0.000000       0.00000
  14     243.0        0.0000        0.0000        0.0000        0.0000       0.000000       0.00000
  13     269.0        0.0000        0.0000        0.0000        0.0000       0.000000       0.00000
  12     297.5        0.0000        0.0000        0.0000        0.0000       0.000000       0.00000
  11     328.5        0.0000        0.0000        0.0000        0.0000       0.000000       0.00000
  10     361.9        0.0000        0.0000        0.0000        0.0000       0.000000       0.00000
   9     398.1        0.0000        0.0000        0.0000        0.0000       0.000000       0.00000
   8     437.6        0.0000        0.0000        0.0000        0.0000       0.000000       0.00000
   7     480.5        0.0000        0.0000        0.0000        0.0000       0.000000       0.00000
   6     533.0        0.0000        0.0000        0.0000        0.0000       0.000000       0.00000
   5     589.8        0.0000        0.0000        0.0000        0.0000       0.000000       0.00000
   4     651.6        0.0000        0.0000        0.0000        0.0000       0.000000       0.00000
   3     718.7        0.0000        0.0000        0.0000        0.0000       0.000000       0.00000
   2     792.3        0.0000        0.0000        0.0000        0.0000       0.000000       0.00000
   1     891.5        0.0000        0.0000        0.0000        0.0000       0.000000       0.00000
   0    1013.0        0.0000        0.0000        0.0000        0.0000       0.000000       0.00000



 Wavenumbers:   820. -  2600. cm-1, ATM      1
 LEVEL PRESSURE   UPWARD FLUX   DIFDOWN FLUX  DIRDOWN FLUX  DOWNWARD FLUX   NET FLUX    HEATING RATE
          mb          W/m2          W/m2          W/m2        W/m2          W/m2       degree/day
  51    .06700        0.5360        0.0000        3.8670        3.8670       3.330995       0.00000
  50    .07753        0.5360        0.0000        3.8643        3.8643       3.328278       2.17770
  49    .09103        0.5360        0.0000        3.8635        3.8635       3.327468       0.50639
  48    0.1069        0.5360        0.0000        3.8626        3.8626       3.326578       0.47416
  47    0.1255        0.5360        0.0000        3.8616        3.8616       3.325617       0.43560
  46    0.1487        0.5360        0.0000        3.8605        3.8605       3.324507       0.40438
  45    0.1794        0.5360        0.0000        3.8592        3.8592       3.323172       0.36649
  44    0.2165        0.5360        0.0000        3.8578        3.8578       3.321794       0.31347
  43    0.2613        0.5360        0.0000        3.8564        3.8564       3.320334       0.27523
  42    0.3336        0.5360        0.0000        3.8541        3.8541       3.318103       0.26014
  41    0.4307        0.5360        0.0000        3.8512        3.8512       3.315220       0.25064
  40    0.5894        0.5360        0.0000        3.8465        3.8465       3.310494       0.25135
  39     1.339        0.5360        0.0000        3.8251        3.8251       3.289118       0.24066
  38     1.782        0.5360        0.0000        3.8133        3.8133       3.277304       0.22491
  37     2.292        0.5360        0.0000        3.8003        3.8003       3.264242       0.21634
  36     2.964        0.5360        0.0000        3.7841        3.7841       3.248112       0.20248
  35     3.853        0.5360        0.0000        3.7642        3.7642       3.228197       0.18901
  34     5.035        0.5360        0.0000        3.7395        3.7395       3.203504       0.17639
  33     6.613        0.5360        0.0000        3.7090        3.7090       3.172966       0.16326
  32     8.786        0.5360        0.0000        3.6726        3.6726       3.136569       0.14135
  31     11.80        0.5360        0.0000        3.6320        3.6320       3.095970       0.11367
  30     15.07        0.5361        0.0000        3.6016        3.6016       3.065581       0.07846
  29     18.79        0.5361        0.0000        3.5777        3.5777       3.041677       0.05420
  28     23.16        0.5361        0.0000        3.5564        3.5564       3.020316       0.04130
  27     28.12        0.5361        0.0000        3.5348        3.5348       2.998762       0.03664
  26     33.73        0.5361        0.0000        3.5118        3.5118       2.975719       0.03465
  25     40.54        0.5361        0.0000        3.4849        3.4849       2.948819       0.03337
  24     48.69        0.5361        0.0000        3.4537        3.4537       2.917552       0.03236
  23     57.69        0.5362        0.0000        3.4210        3.4210       2.884863       0.03064
  22     68.43        0.5362        0.0000        3.3844        3.3844       2.848257       0.02878
  21     81.20        0.5362        0.0000        3.3441        3.3441       2.807934       0.02664
  20     96.49        0.5362        0.0000        3.2998        3.2998       2.763540       0.02450
  19     114.6        0.5363        0.0000        3.2506        3.2506       2.714355       0.02297
  18     136.5        0.5364        0.0000        3.1936        3.1936       2.657253       0.02196
  17     162.9        0.5365        0.0000        3.1181        3.1181       2.581659       0.02416
  16     196.4        0.5367        0.0000        3.0090        3.0090       2.472295       0.02753
  15     218.7        0.5368        0.0000        2.9420        2.9420       2.405160       0.02549
  14     243.0        0.5371        0.0000        2.8605        2.8605       2.323406       0.02836
  13     269.0        0.5375        0.0000        2.7419        2.7420       2.204502       0.03857
  12     297.5        0.5381        0.0000        2.5729        2.5729       2.034762       0.05034
  11     328.5        0.5392        0.0000        2.3602        2.3602       1.821033       0.05811
  10     361.9        0.5408        0.0000        2.1524        2.1524       1.611676       0.05297
   9     398.1        0.5430        0.0000        1.9974        1.9974       1.454409       0.03664
   8     437.6        0.5462        0.0000        1.8835        1.8835       1.337344       0.02503
   7     480.5        0.5507        0.0000        1.7734        1.7734       1.222748       0.02251
   6     533.0        0.5581        0.0000        1.6397        1.6398       1.081646       0.02270
   5     589.8        0.5688        0.0000        1.5068        1.5069       0.938095       0.02131
   4     651.6        0.5845        0.0000        1.3807        1.3807       0.796231       0.01940
   3     718.7        0.6055        0.0000        1.2680        1.2681       0.662552       0.01680
   2     792.3        0.6317        0.0000        1.1659        1.1660       0.534238       0.01472
   1     891.5        0.1161        0.4595        0.0946        0.5541       0.438010       0.00819
   0    1013.0        0.1281        0.4141        0.0795        0.4936       0.365569       0.00503

  Modules and versions used in this calculation:

       rrtmg_sw.1col.f90:  $Revision$                    rrtmg_sw_init.f90:  $Revision$        
     rrtmgsw_cldprop.f90:  $Revision$                  rrtmgsw_cldprmc.f90:  NOT USED          
     rrtmg_sw_reftra.f90:  $Revision$                  rrtmg_sw_spcvrt.f90:  NOT USED          
     rrtmg_sw_spcvmc.f90:  NOT USED                    rrtmgsw_setcoef.f90:  NOT USED          
     rrtmg_sw_taumol.f90:  $Revision$                  rrtmg_sw_vrtqdr.f90:  NOT USED          
                rrtatm.f:  NOT USED                             util_xxx.f:  NOT USED          
                 extra.f:  NOT USED                       rrtmg_sw_k_g.f90:  $Revision$        

