

 Wavenumbers:   820. - 50000. cm-1, ATM      1
 LEVEL PRESSURE   UPWARD FLUX   DIFDOWN FLUX  DIRDOWN FLUX  DOWNWARD FLUX   NET FLUX    HEATING RATE
          mb          W/m2          W/m2          W/m2        W/m2          W/m2       degree/day
  51    .06700      194.3189        0.0000      397.8738      397.8738     203.554856       0.00000
  50    .07753      194.3183        0.0011      397.8577      397.8589     203.540572      11.44856
  49    .09103      194.3175        0.0026      397.8418      397.8444     203.526894       8.54895
  48    0.1069      194.3167        0.0043      397.8230      397.8272     203.510561       8.69453
  47    0.1255      194.3157        0.0062      397.7997      397.8058     203.490137       9.25921
  46    0.1487      194.3145        0.0086      397.7676      397.7762     203.461707      10.36305
  45    0.1794      194.3129        0.0118      397.7205      397.7323     203.419457      11.59844
  44    0.2165      194.3111        0.0157      397.6602      397.6759     203.364867      12.41840
  43    0.2613      194.3090        0.0202      397.5829      397.6031     203.294148      13.33021
  42    0.3336      194.3057        0.0277      397.4449      397.4726     203.166857      14.84085
  41    0.4307      194.3017        0.0375      397.2524      397.2899     202.988211      15.53289
  40    0.5894      194.2957        0.0533      396.9253      396.9786     202.682917      16.23512
  39     1.339      194.2778        0.1237      395.4254      395.5491     201.271286      15.89241
  38     1.782      194.2743        0.1632      394.7288      394.8919     200.617662      12.44394
  37     2.292      194.2763        0.2081      394.0572      394.2652     199.988870      10.41444
  36     2.964      194.2881        0.2663      393.3007      393.5670     199.278873       8.91260
  35     3.853      194.3163        0.3424      392.4318      392.7743     198.457993       7.79030
  34     5.035      194.3661        0.4426      391.4441      391.8867     197.520588       6.69644
  33     6.613      194.4396        0.5753      390.3268      390.9020     196.462434       5.65689
  32     8.786      194.5338        0.7527      389.0624      389.8151     195.281246       4.58731
  31     11.80      194.6478        1.0044      387.5500      388.5544     193.906546       3.84873
  30     15.07      194.7458        1.2724      386.1556      387.4280     192.682148       3.16116
  29     18.79      194.8349        1.5727      384.7502      386.3229     191.488007       2.70748
  28     23.16      194.9138        1.9205      383.2686      385.1892     190.275331       2.34492
  27     28.12      194.9749        2.3150      381.7329      384.0479     189.072994       2.04389
  26     33.73      195.0004        2.7532      380.1982      382.9514     187.951000       1.68695
  25     40.54      194.9814        3.2785      378.5384      381.8169     186.835553       1.38384
  24     48.69      194.9110        3.9061      376.7214      380.6276     185.716614       1.15793
  23     57.69      194.7882        4.5888      374.8959      379.4847     184.696584       0.95612
  22     68.43      194.5932        5.3935      372.8999      378.2934     183.700194       0.78330
  21     81.20      194.2937        6.3416      370.7496      377.0912     182.797512       0.59648
  20     96.49      193.8763        7.4565      368.4056      375.8621     181.985807       0.44800
  19     114.6      193.3621        8.7582      365.7513      374.5095     181.147437       0.39146
  18     136.5      192.7409       10.2693      362.7231      372.9924     180.251435       0.34453
  17     162.9      191.9965       12.0247      359.1748      371.1995     179.202966       0.33513
  16     196.4      191.0098       14.2363      354.5718      368.8081     177.798317       0.35357
  15     218.7      190.3600       15.6498      351.4437      367.0935     176.733466       0.40428
  14     243.0      189.6595       17.1524      347.7111      364.8635     175.204007       0.53047
  13     269.0      188.9088       18.7420      342.9441      361.6861     172.777274       0.78722
  12     297.5      188.1097       20.4163      337.4137      357.8300     169.720294       0.90667
  11     328.5      187.2664       22.1766      331.1302      353.3068     166.040358       1.00056
  10     361.9      186.3841       24.0172      324.1219      348.1391     161.754966       1.08425
   9     398.1      185.4665       25.9372      316.6066      342.5438     157.077304       1.08979
   8     437.6      184.5234       27.9318      308.5895      336.5213     151.997879       1.08601
   7     480.5      183.5718       29.9947      299.9349      329.9296     146.357813       1.10769
   6     533.0      182.4926       32.4344      289.7021      322.1366     139.643975       1.08004
   5     589.8      181.4547       34.9479      279.3388      314.2867     132.832036       1.01112
   4     651.6      180.5114       37.5225      268.7786      306.3012     125.789783       0.96305
   3     718.7      179.7015       40.1488      258.2837      298.4324     118.730943       0.88710
   2     792.3      179.0732       42.8120      248.0774      290.8894     111.816209       0.79304
   1     891.5      128.6714      114.6548      118.8312      233.4859     104.814517       0.59581
   0    1013.0      128.3435      114.8103      111.7430      226.5533      98.209773       0.45860



 Wavenumbers:  2600. -  3250. cm-1, ATM      1
 LEVEL PRESSURE   UPWARD FLUX   DIFDOWN FLUX  DIRDOWN FLUX  DOWNWARD FLUX   NET FLUX    HEATING RATE
          mb          W/m2          W/m2          W/m2        W/m2          W/m2       degree/day
  51    .06700        0.4846        0.0000        3.5066        3.5066       3.022015       0.00000
  50    .07753        0.4846        0.0000        3.5066        3.5066       3.022007       0.00640
  49    .09103        0.4846        0.0000        3.5066        3.5066       3.021997       0.00627
  48    0.1069        0.4846        0.0000        3.5066        3.5066       3.021986       0.00613
  47    0.1255        0.4846        0.0000        3.5066        3.5066       3.021972       0.00599
  46    0.1487        0.4846        0.0000        3.5066        3.5066       3.021956       0.00607
  45    0.1794        0.4846        0.0000        3.5065        3.5065       3.021933       0.00624
  44    0.2165        0.4846        0.0000        3.5065        3.5065       3.021906       0.00611
  43    0.2613        0.4846        0.0000        3.5065        3.5065       3.021874       0.00598
  42    0.3336        0.4846        0.0000        3.5064        3.5064       3.021822       0.00615
  41    0.4307        0.4846        0.0000        3.5064        3.5064       3.021751       0.00618
  40    0.5894        0.4846        0.0000        3.5062        3.5062       3.021632       0.00633
  39     1.339        0.4846        0.0000        3.5055        3.5055       3.020933       0.00787
  38     1.782        0.4846        0.0000        3.5050        3.5050       3.020402       0.01011
  37     2.292        0.4846        0.0000        3.5043        3.5043       3.019710       0.01147
  36     2.964        0.4846        0.0000        3.5033        3.5033       3.018718       0.01245
  35     3.853        0.4846        0.0000        3.5019        3.5019       3.017341       0.01307
  34     5.035        0.4846        0.0000        3.5001        3.5001       3.015480       0.01329
  33     6.613        0.4846        0.0000        3.4977        3.4977       3.013070       0.01288
  32     8.786        0.4846        0.0000        3.4947        3.4947       3.010099       0.01154
  31     11.80        0.4846        0.0000        3.4911        3.4911       3.006464       0.01018
  30     15.07        0.4846        0.0000        3.4878        3.4878       3.003243       0.00832
  29     18.79        0.4846        0.0000        3.4848        3.4848       3.000179       0.00695
  28     23.16        0.4846        0.0000        3.4816        3.4816       2.996958       0.00623
  27     28.12        0.4846        0.0000        3.4779        3.4779       2.993340       0.00615
  26     33.73        0.4846        0.0000        3.4735        3.4735       2.988872       0.00672
  25     40.54        0.4846        0.0000        3.4671        3.4671       2.982544       0.00785
  24     48.69        0.4846        0.0000        3.4582        3.4583       2.973647       0.00921
  23     57.69        0.4846        0.0000        3.4472        3.4472       2.962595       0.01036
  22     68.43        0.4846        0.0000        3.4329        3.4329       2.948329       0.01121
  21     81.20        0.4846        0.0000        3.4152        3.4152       2.930593       0.01172
  20     96.49        0.4846        0.0000        3.3940        3.3941       2.909437       0.01168
  19     114.6        0.4847        0.0000        3.3692        3.3692       2.884530       0.01163
  18     136.5        0.4847        0.0001        3.3419        3.3420       2.857288       0.01048
  17     162.9        0.4848        0.0001        3.3129        3.3129       2.828176       0.00931
  16     196.4        0.4849        0.0001        3.2793        3.2794       2.794533       0.00847
  15     218.7        0.4850        0.0001        3.2578        3.2578       2.772847       0.00823
  14     243.0        0.4852        0.0001        3.2320        3.2321       2.746866       0.00901
  13     269.0        0.4855        0.0001        3.1968        3.1969       2.711440       0.01149
  12     297.5        0.4860        0.0001        3.1489        3.1491       2.663084       0.01434
  11     328.5        0.4867        0.0001        3.0821        3.0822       2.595486       0.01838
  10     361.9        0.4878        0.0001        2.9902        2.9904       2.502608       0.02350
   9     398.1        0.4893        0.0001        2.8715        2.8716       2.382341       0.02802
   8     437.6        0.4915        0.0001        2.7276        2.7278       2.236323       0.03122
   7     480.5        0.4947        0.0001        2.5595        2.5597       2.064934       0.03366
   6     533.0        0.5002        0.0002        2.3617        2.3619       1.861687       0.03270
   5     589.8        0.5082        0.0002        2.1649        2.1651       1.656888       0.03040
   4     651.6        0.5200        0.0002        1.9608        1.9609       1.440976       0.02953
   3     718.7        0.5365        0.0002        1.7593        1.7595       1.223014       0.02739
   2     792.3        0.5590        0.0002        1.5761        1.5762       1.017199       0.02360
   1     891.5        0.2411        0.3737        0.6920        1.0657       0.824641       0.01639
   0    1013.0        0.2626        0.3364        0.5845        0.9210       0.658353       0.01155



 Wavenumbers:  3250. -  4000. cm-1, ATM      1
 LEVEL PRESSURE   UPWARD FLUX   DIFDOWN FLUX  DIRDOWN FLUX  DOWNWARD FLUX   NET FLUX    HEATING RATE
          mb          W/m2          W/m2          W/m2        W/m2          W/m2       degree/day
  51    .06700        0.0020        0.0000        5.9117        5.9117       5.909617       0.00000
  50    .07753        0.0020        0.0000        5.9075        5.9075       5.905427       3.35808
  49    .09103        0.0020        0.0000        5.9050        5.9050       5.902985       1.52677
  48    0.1069        0.0020        0.0000        5.9032        5.9032       5.901118       0.99346
  47    0.1255        0.0020        0.0000        5.9014        5.9014       5.899360       0.79708
  46    0.1487        0.0020        0.0000        5.8995        5.8995       5.897471       0.68848
  45    0.1794        0.0020        0.0000        5.8974        5.8974       5.895323       0.58983
  44    0.2165        0.0020        0.0000        5.8952        5.8952       5.893206       0.48155
  43    0.2613        0.0020        0.0000        5.8931        5.8931       5.891047       0.40696
  42    0.3336        0.0020        0.0000        5.8899        5.8899       5.887889       0.36820
  41    0.4307        0.0020        0.0000        5.8861        5.8861       5.884051       0.33365
  40    0.5894        0.0020        0.0000        5.8803        5.8803       5.878249       0.30857
  39     1.339        0.0020        0.0000        5.8597        5.8597       5.857651       0.23189
  38     1.782        0.0020        0.0000        5.8513        5.8513       5.849227       0.16039
  37     2.292        0.0020        0.0000        5.8431        5.8431       5.841056       0.13533
  36     2.964        0.0020        0.0000        5.8334        5.8334       5.831416       0.12100
  35     3.853        0.0020        0.0000        5.8213        5.8213       5.819241       0.11555
  34     5.035        0.0020        0.0000        5.8052        5.8052       5.803145       0.11498
  33     6.613        0.0020        0.0000        5.7833        5.7834       5.781324       0.11666
  32     8.786        0.0020        0.0000        5.7531        5.7531       5.751123       0.11729
  31     11.80        0.0020        0.0000        5.7090        5.7090       5.706954       0.12366
  30     15.07        0.0020        0.0000        5.6615        5.6615       5.659489       0.12254
  29     18.79        0.0020        0.0000        5.6093        5.6094       5.607354       0.11821
  28     23.16        0.0020        0.0000        5.5524        5.5524       5.550428       0.11008
  27     28.12        0.0020        0.0000        5.4935        5.4935       5.491549       0.10009
  26     33.73        0.0020        0.0000        5.4348        5.4349       5.432860       0.08824
  25     40.54        0.0020        0.0001        5.3707        5.3708       5.368798       0.07948
  24     48.69        0.0020        0.0001        5.2985        5.2985       5.296565       0.07475
  23     57.69        0.0020        0.0001        5.2215        5.2216       5.219626       0.07212
  22     68.43        0.0019        0.0001        5.1318        5.1319       5.129966       0.07048
  21     81.20        0.0019        0.0001        5.0284        5.0285       5.026537       0.06834
  20     96.49        0.0019        0.0001        4.9122        4.9123       4.910403       0.06410
  19     114.6        0.0019        0.0001        4.7780        4.7782       4.776292       0.06262
  18     136.5        0.0019        0.0002        4.6285        4.6287       4.626814       0.05748
  17     162.9        0.0018        0.0002        4.4406        4.4407       4.438901       0.06006
  16     196.4        0.0018        0.0002        4.1548        4.1550       4.153227       0.07191
  15     218.7        0.0018        0.0002        3.9564        3.9566       3.954846       0.07532
  14     243.0        0.0018        0.0002        3.7055        3.7058       3.704011       0.08700
  13     269.0        0.0017        0.0002        3.3399        3.3401       3.338370       0.11861
  12     297.5        0.0017        0.0002        2.8954        2.8956       2.893876       0.13183
  11     328.5        0.0017        0.0002        2.4388        2.4390       2.437325       0.12413
  10     361.9        0.0017        0.0002        2.0269        2.0271       2.025370       0.10423
   9     398.1        0.0017        0.0002        1.6753        1.6755       1.673751       0.08192
   8     437.6        0.0018        0.0002        1.3592        1.3594       1.357581       0.06760
   7     480.5        0.0019        0.0002        1.0616        1.0618       1.059903       0.05846
   6     533.0        0.0021        0.0001        0.7543        0.7544       0.752374       0.04947
   5     589.8        0.0024        0.0001        0.4951        0.4952       0.492821       0.03853
   4     651.6        0.0031        0.0001        0.2943        0.2943       0.291222       0.02757
   3     718.7        0.0045        0.0001        0.1528        0.1529       0.148345       0.01796
   2     792.3        0.0074        0.0000        0.0658        0.0658       0.058479       0.01031
   1     891.5        0.0001        0.0052        0.0079        0.0131       0.013015       0.00387
   0    1013.0        0.0005        0.0012        0.0007        0.0019       0.001403       0.00081



 Wavenumbers:  4000. -  4650. cm-1, ATM      1
 LEVEL PRESSURE   UPWARD FLUX   DIFDOWN FLUX  DIRDOWN FLUX  DOWNWARD FLUX   NET FLUX    HEATING RATE
          mb          W/m2          W/m2          W/m2        W/m2          W/m2       degree/day
  51    .06700        1.8705        0.0000        6.9421        6.9421       5.071565       0.00000
  50    .07753        1.8705        0.0000        6.9421        6.9421       5.071564       0.00079
  49    .09103        1.8705        0.0000        6.9421        6.9421       5.071563       0.00078
  48    0.1069        1.8705        0.0000        6.9421        6.9421       5.071561       0.00076
  47    0.1255        1.8705        0.0000        6.9421        6.9421       5.071560       0.00074
  46    0.1487        1.8705        0.0000        6.9421        6.9421       5.071557       0.00075
  45    0.1794        1.8705        0.0000        6.9421        6.9421       5.071555       0.00077
  44    0.2165        1.8705        0.0000        6.9421        6.9421       5.071551       0.00076
  43    0.2613        1.8705        0.0000        6.9420        6.9420       5.071547       0.00074
  42    0.3336        1.8705        0.0000        6.9420        6.9420       5.071541       0.00076
  41    0.4307        1.8705        0.0000        6.9420        6.9420       5.071532       0.00077
  40    0.5894        1.8705        0.0000        6.9420        6.9420       5.071517       0.00079
  39     1.339        1.8705        0.0000        6.9419        6.9419       5.071428       0.00100
  38     1.782        1.8705        0.0000        6.9418        6.9419       5.071359       0.00132
  37     2.292        1.8705        0.0000        6.9418        6.9418       5.071265       0.00155
  36     2.964        1.8705        0.0000        6.9416        6.9416       5.071126       0.00175
  35     3.853        1.8705        0.0000        6.9414        6.9414       5.070919       0.00196
  34     5.035        1.8705        0.0000        6.9411        6.9411       5.070615       0.00218
  33     6.613        1.8705        0.0000        6.9406        6.9406       5.070167       0.00239
  32     8.786        1.8705        0.0000        6.9399        6.9400       5.069507       0.00256
  31     11.80        1.8705        0.0000        6.9389        6.9389       5.068472       0.00290
  30     15.07        1.8705        0.0001        6.9377        6.9377       5.067262       0.00312
  29     18.79        1.8704        0.0001        6.9362        6.9363       5.065803       0.00331
  28     23.16        1.8704        0.0001        6.9343        6.9344       5.063999       0.00349
  27     28.12        1.8704        0.0001        6.9321        6.9323       5.061825       0.00370
  26     33.73        1.8704        0.0001        6.9294        6.9296       5.059156       0.00401
  25     40.54        1.8704        0.0002        6.9258        6.9260       5.055559       0.00446
  24     48.69        1.8704        0.0002        6.9210        6.9212       5.050796       0.00493
  23     57.69        1.8704        0.0002        6.9154        6.9156       5.045193       0.00525
  22     68.43        1.8704        0.0003        6.9083        6.9086       5.038226       0.00548
  21     81.20        1.8704        0.0003        6.8998        6.9001       5.029706       0.00563
  20     96.49        1.8704        0.0004        6.8894        6.8898       5.019415       0.00568
  19     114.6        1.8705        0.0004        6.8765        6.8770       5.006528       0.00602
  18     136.5        1.8705        0.0005        6.8610        6.8615       4.990978       0.00598
  17     162.9        1.8707        0.0006        6.8417        6.8423       4.971627       0.00619
  16     196.4        1.8710        0.0008        6.8147        6.8154       4.944468       0.00684
  15     218.7        1.8712        0.0008        6.7948        6.7957       4.924454       0.00760
  14     243.0        1.8717        0.0009        6.7698        6.7707       4.899058       0.00881
  13     269.0        1.8724        0.0010        6.7349        6.7359       4.863518       0.01153
  12     297.5        1.8735        0.0011        6.6869        6.6880       4.814534       0.01453
  11     328.5        1.8750        0.0013        6.6194        6.6206       4.745590       0.01875
  10     361.9        1.8771        0.0014        6.5295        6.5308       4.653712       0.02325
   9     398.1        1.8799        0.0015        6.4202        6.4217       4.541831       0.02607
   8     437.6        1.8835        0.0016        6.2962        6.2978       4.414242       0.02728
   7     480.5        1.8886        0.0017        6.1555        6.1572       4.268623       0.02860
   6     533.0        1.8968        0.0019        5.9675        5.9694       4.072568       0.03154
   5     589.8        1.9089        0.0020        5.7368        5.7388       3.829886       0.03602
   4     651.6        1.9267        0.0022        5.4662        5.4684       3.541734       0.03941
   3     718.7        1.9516        0.0023        5.1912        5.1935       3.241927       0.03768
   2     792.3        1.9850        0.0024        4.9395        4.9419       2.956939       0.03268
   1     891.5        0.9335        1.2688        2.3455        3.6143       2.680844       0.02349
   0    1013.0        0.9684        1.2123        2.1786        3.3909       2.422489       0.01794



 Wavenumbers:  4650. -  5150. cm-1, ATM      1
 LEVEL PRESSURE   UPWARD FLUX   DIFDOWN FLUX  DIRDOWN FLUX  DOWNWARD FLUX   NET FLUX    HEATING RATE
          mb          W/m2          W/m2          W/m2        W/m2          W/m2       degree/day
  51    .06700        1.2889        0.0000        6.5710        6.5710       5.282050       0.00000
  50    .07753        1.2889        0.0000        6.5708        6.5708       5.281815       0.18887
  49    .09103        1.2889        0.0000        6.5705        6.5705       5.281521       0.18362
  48    0.1069        1.2889        0.0000        6.5701        6.5701       5.281186       0.17806
  47    0.1255        1.2889        0.0000        6.5697        6.5697       5.280806       0.17238
  46    0.1487        1.2889        0.0000        6.5693        6.5693       5.280332       0.17268
  45    0.1794        1.2889        0.0000        6.5686        6.5686       5.279696       0.17473
  44    0.2165        1.2889        0.0000        6.5679        6.5679       5.278958       0.16788
  43    0.2613        1.2889        0.0000        6.5670        6.5670       5.278105       0.16078
  42    0.3336        1.2889        0.0000        6.5657        6.5657       5.276742       0.15894
  41    0.4307        1.2889        0.0000        6.5640        6.5640       5.275020       0.14971
  40    0.5894        1.2889        0.0000        6.5613        6.5613       5.272404       0.13913
  39     1.339        1.2889        0.0000        6.5516        6.5516       5.262626       0.11008
  38     1.782        1.2889        0.0000        6.5473        6.5473       5.258410       0.08026
  37     2.292        1.2889        0.0000        6.5434        6.5435       5.254523       0.06438
  36     2.964        1.2889        0.0000        6.5395        6.5395       5.250568       0.04964
  35     3.853        1.2889        0.0000        6.5355        6.5356       5.246625       0.03742
  34     5.035        1.2889        0.0000        6.5315        6.5315       5.242623       0.02859
  33     6.613        1.2889        0.0000        6.5271        6.5271       5.238228       0.02350
  32     8.786        1.2889        0.0001        6.5216        6.5216       5.232732       0.02135
  31     11.80        1.2889        0.0001        6.5135        6.5135       5.224651       0.02262
  30     15.07        1.2889        0.0001        6.5041        6.5042       5.215279       0.02420
  29     18.79        1.2889        0.0001        6.4925        6.4926       5.203758       0.02612
  28     23.16        1.2889        0.0001        6.4779        6.4780       5.189160       0.02823
  27     28.12        1.2889        0.0002        6.4599        6.4600       5.171176       0.03057
  26     33.73        1.2889        0.0002        6.4384        6.4386       5.149734       0.03224
  25     40.54        1.2889        0.0002        6.4112        6.4115       5.122593       0.03367
  24     48.69        1.2889        0.0003        6.3775        6.3778       5.088934       0.03483
  23     57.69        1.2889        0.0003        6.3404        6.3407       5.051815       0.03479
  22     68.43        1.2889        0.0004        6.2971        6.2975       5.008588       0.03398
  21     81.20        1.2890        0.0005        6.2483        6.2487       4.959721       0.03229
  20     96.49        1.2891        0.0006        6.1948        6.1954       4.906280       0.02950
  19     114.6        1.2892        0.0006        6.1381        6.1388       4.849549       0.02649
  18     136.5        1.2895        0.0008        6.0790        6.0798       4.790309       0.02278
  17     162.9        1.2898        0.0009        6.0160        6.0169       4.727165       0.02018
  16     196.4        1.2903        0.0011        5.9399        5.9410       4.650635       0.01926
  15     218.7        1.2908        0.0012        5.8896        5.8908       4.600070       0.01920
  14     243.0        1.2914        0.0013        5.8322        5.8335       4.542141       0.02009
  13     269.0        1.2923        0.0014        5.7624        5.7638       4.471596       0.02288
  12     297.5        1.2936        0.0016        5.6767        5.6783       4.384763       0.02575
  11     328.5        1.2954        0.0017        5.5726        5.5743       4.278968       0.02877
  10     361.9        1.2978        0.0019        5.4473        5.4492       4.151389       0.03228
   9     398.1        1.3011        0.0020        5.2995        5.3015       4.000371       0.03518
   8     437.6        1.3056        0.0022        5.1275        5.1296       3.824025       0.03770
   7     480.5        1.3117        0.0023        4.9290        4.9313       3.619549       0.04016
   6     533.0        1.3214        0.0025        4.6794        4.6818       3.360414       0.04169
   5     589.8        1.3350        0.0026        4.4188        4.4214       3.086394       0.04067
   4     651.6        1.3542        0.0027        4.1521        4.1548       2.800625       0.03908
   3     718.7        1.3803        0.0029        3.8929        3.8958       2.515559       0.03582
   2     792.3        1.4148        0.0030        3.6469        3.6499       2.235061       0.03217
   1     891.5        0.6512        0.9165        1.6923        2.6087       1.957558       0.02361
   0    1013.0        0.6839        0.8625        1.5333        2.3958       1.711902       0.01706



 Wavenumbers:  5150. -  6150. cm-1, ATM      1
 LEVEL PRESSURE   UPWARD FLUX   DIFDOWN FLUX  DIRDOWN FLUX  DOWNWARD FLUX   NET FLUX    HEATING RATE
          mb          W/m2          W/m2          W/m2        W/m2          W/m2       degree/day
  51    .06700        3.3124        0.0000       16.4735       16.4735      13.161096       0.00000
  50    .07753        3.3124        0.0000       16.4735       16.4735      13.161062       0.02762
  49    .09103        3.3124        0.0000       16.4734       16.4734      13.161017       0.02811
  48    0.1069        3.3124        0.0000       16.4734       16.4734      13.160963       0.02860
  47    0.1255        3.3124        0.0000       16.4733       16.4733      13.160899       0.02905
  46    0.1487        3.3124        0.0000       16.4732       16.4732      13.160815       0.03060
  45    0.1794        3.3124        0.0000       16.4731       16.4731      13.160696       0.03270
  44    0.2165        3.3124        0.0000       16.4730       16.4730      13.160549       0.03332
  43    0.2613        3.3124        0.0000       16.4728       16.4728      13.160370       0.03377
  42    0.3336        3.3124        0.0000       16.4725       16.4725      13.160064       0.03565
  41    0.4307        3.3124        0.0000       16.4720       16.4720      13.159645       0.03646
  40    0.5894        3.3124        0.0000       16.4713       16.4713      13.158944       0.03730
  39     1.339        3.3124        0.0000       16.4679       16.4679      13.155534       0.03839
  38     1.782        3.3124        0.0000       16.4659       16.4659      13.153534       0.03808
  37     2.292        3.3124        0.0001       16.4635       16.4636      13.151241       0.03797
  36     2.964        3.3124        0.0001       16.4605       16.4606      13.148270       0.03730
  35     3.853        3.3123        0.0001       16.4567       16.4568      13.144415       0.03659
  34     5.035        3.3123        0.0001       16.4516       16.4517      13.139414       0.03572
  33     6.613        3.3123        0.0002       16.4451       16.4452      13.132948       0.03457
  32     8.786        3.3123        0.0002       16.4367       16.4369      13.124628       0.03231
  31     11.80        3.3122        0.0003       16.4254       16.4257      13.113465       0.03125
  30     15.07        3.3122        0.0004       16.4141       16.4145      13.102363       0.02866
  29     18.79        3.3121        0.0005       16.4024       16.4029      13.090825       0.02616
  28     23.16        3.3121        0.0006       16.3900       16.3906      13.078541       0.02375
  27     28.12        3.3120        0.0008       16.3771       16.3778      13.065851       0.02157
  26     33.73        3.3119        0.0009       16.3641       16.3650      13.053091       0.01918
  25     40.54        3.3119        0.0011       16.3502       16.3513      13.039405       0.01698
  24     48.69        3.3118        0.0013       16.3354       16.3367      13.024871       0.01504
  23     57.69        3.3117        0.0015       16.3211       16.3226      13.010898       0.01310
  22     68.43        3.3117        0.0018       16.3062       16.3081      12.996419       0.01138
  21     81.20        3.3116        0.0022       16.2903       16.2925      12.980912       0.01025
  20     96.49        3.3115        0.0026       16.2726       16.2752      12.963698       0.00950
  19     114.6        3.3114        0.0031       16.2521       16.2551      12.943712       0.00933
  18     136.5        3.3113        0.0036       16.2245       16.2282      12.916839       0.01033
  17     162.9        3.3113        0.0043       16.1747       16.1791      12.867792       0.01568
  16     196.4        3.3112        0.0052       16.0518       16.0570      12.745825       0.03070
  15     218.7        3.3112        0.0057       15.8984       15.9041      12.592923       0.05805
  14     243.0        3.3112        0.0063       15.6153       15.6215      12.310319       0.09802
  13     269.0        3.3114        0.0068       15.1390       15.1458      11.834422       0.15438
  12     297.5        3.3117        0.0073       14.5779       14.5852      11.273483       0.16637
  11     328.5        3.3124        0.0078       13.8780       13.8858      10.573448       0.19034
  10     361.9        3.3134        0.0082       13.0814       13.0897       9.776219       0.20171
   9     398.1        3.3151        0.0086       12.2728       12.2814       8.966334       0.18869
   8     437.6        3.3177        0.0089       11.4776       11.4865       8.168832       0.17051
   7     480.5        3.3217        0.0092       10.7300       10.7392       7.417497       0.14756
   6     533.0        3.3290        0.0096       10.0326       10.0422       6.713226       0.11329
   5     589.8        3.3406        0.0101        9.5050        9.5151       6.174513       0.07996
   4     651.6        3.3592        0.0107        9.0814        9.0921       5.732851       0.06040
   3     718.7        3.3873        0.0114        8.7024        8.7138       5.326441       0.05107
   2     792.3        3.4282        0.0121        8.3379        8.3500       4.921878       0.04640
   1     891.5        1.6365        2.1697        3.9896        6.1593       4.522818       0.03396
   0    1013.0        1.6747        2.0920        3.7715        5.8634       4.188669       0.02320



 Wavenumbers:  6150. -  7700. cm-1, ATM      1
 LEVEL PRESSURE   UPWARD FLUX   DIFDOWN FLUX  DIRDOWN FLUX  DOWNWARD FLUX   NET FLUX    HEATING RATE
          mb          W/m2          W/m2          W/m2        W/m2          W/m2       degree/day
  51    .06700        5.0354        0.0000       30.4684       30.4684      25.433028       0.00000
  50    .07753        5.0354        0.0000       30.4683       30.4683      25.432976       0.04144
  49    .09103        5.0354        0.0000       30.4683       30.4683      25.432910       0.04174
  48    0.1069        5.0354        0.0000       30.4682       30.4682      25.432831       0.04202
  47    0.1255        5.0353        0.0000       30.4681       30.4681      25.432737       0.04227
  46    0.1487        5.0353        0.0000       30.4680       30.4680      25.432616       0.04411
  45    0.1794        5.0353        0.0000       30.4678       30.4678      25.432446       0.04669
  44    0.2165        5.0353        0.0000       30.4676       30.4676      25.432239       0.04715
  43    0.2613        5.0353        0.0000       30.4673       30.4673      25.431987       0.04744
  42    0.3336        5.0353        0.0000       30.4669       30.4669      25.431561       0.04974
  41    0.4307        5.0353        0.0000       30.4663       30.4663      25.430980       0.05052
  40    0.5894        5.0353        0.0001       30.4653       30.4653      25.430012       0.05146
  39     1.339        5.0352        0.0001       30.4604       30.4606      25.425328       0.05273
  38     1.782        5.0352        0.0002       30.4576       30.4578      25.422579       0.05235
  37     2.292        5.0351        0.0003       30.4543       30.4546      25.419420       0.05231
  36     2.964        5.0351        0.0003       30.4501       30.4504      25.415313       0.05156
  35     3.853        5.0350        0.0004       30.4445       30.4449      25.409956       0.05084
  34     5.035        5.0349        0.0006       30.4373       30.4378      25.402956       0.05000
  33     6.613        5.0347        0.0007       30.4278       30.4285      25.393808       0.04890
  32     8.786        5.0345        0.0010       30.4154       30.4164      25.381856       0.04642
  31     11.80        5.0342        0.0013       30.3984       30.3997      25.365470       0.04587
  30     15.07        5.0339        0.0017       30.3810       30.3827      25.348756       0.04315
  29     18.79        5.0335        0.0021       30.3623       30.3644      25.330856       0.04059
  28     23.16        5.0331        0.0026       30.3417       30.3443      25.311172       0.03806
  27     28.12        5.0326        0.0032       30.3196       30.3227      25.290072       0.03587
  26     33.73        5.0321        0.0038       30.2965       30.3003      25.268153       0.03296
  25     40.54        5.0315        0.0045       30.2708       30.2753      25.243815       0.03019
  24     48.69        5.0307        0.0054       30.2423       30.2477      25.217038       0.02771
  23     57.69        5.0298        0.0064       30.2139       30.2203      25.190471       0.02490
  22     68.43        5.0288        0.0076       30.1834       30.1910      25.162195       0.02223
  21     81.20        5.0276        0.0090       30.1500       30.1590      25.131464       0.02031
  20     96.49        5.0261        0.0107       30.1126       30.1234      25.097243       0.01889
  19     114.6        5.0244        0.0127       30.0695       30.0823      25.057854       0.01839
  18     136.5        5.0224        0.0151       30.0139       30.0290      25.006692       0.01967
  17     162.9        5.0199        0.0180       29.9225       29.9404      24.920500       0.02755
  16     196.4        5.0168        0.0216       29.7333       29.7549      24.738078       0.04592
  15     218.7        5.0149        0.0239       29.5259       29.5498      24.534912       0.07713
  14     243.0        5.0128        0.0263       29.1375       29.1638      24.151013       0.13315
  13     269.0        5.0108        0.0287       28.3800       28.4087      23.397865       0.24432
  12     297.5        5.0091        0.0308       27.3895       27.4204      22.411337       0.29259
  11     328.5        5.0078        0.0329       26.2257       26.2586      21.250815       0.31554
  10     361.9        5.0075        0.0349       24.8453       24.8802      19.872690       0.34868
   9     398.1        5.0085        0.0365       23.3471       23.3836      18.375035       0.34892
   8     437.6        5.0119        0.0379       21.7966       21.8346      16.822716       0.33190
   7     480.5        5.0191        0.0391       20.1977       20.2368      15.217649       0.31523
   6     533.0        5.0347        0.0402       18.4969       18.5371      13.502483       0.27592
   5     589.8        5.0617        0.0414       16.9754       17.0167      11.955037       0.22969
   4     651.6        5.1072        0.0425       15.6022       15.6447      10.537485       0.19385
   3     718.7        5.1773        0.0438       14.4232       14.4670       9.289745       0.15681
   2     792.3        5.2796        0.0454       13.4386       13.4840       8.204441       0.12447
   1     891.5        2.4460        3.4180        6.2429        9.6608       7.214894       0.08421
   0    1013.0        2.5462        3.2255        5.6968        8.9224       6.376192       0.05824



 Wavenumbers:  7700. -  8050. cm-1, ATM      1
 LEVEL PRESSURE   UPWARD FLUX   DIFDOWN FLUX  DIRDOWN FLUX  DOWNWARD FLUX   NET FLUX    HEATING RATE
          mb          W/m2          W/m2          W/m2        W/m2          W/m2       degree/day
  51    .06700        2.4964        0.0000        7.2006        7.2006       4.704163       0.00000
  50    .07753        2.4964        0.0000        7.2006        7.2006       4.704144       0.01551
  49    .09103        2.4964        0.0000        7.2005        7.2005       4.704119       0.01520
  48    0.1069        2.4964        0.0000        7.2005        7.2005       4.704091       0.01489
  47    0.1255        2.4964        0.0000        7.2005        7.2005       4.704059       0.01457
  46    0.1487        2.4964        0.0000        7.2004        7.2005       4.704019       0.01478
  45    0.1794        2.4964        0.0000        7.2004        7.2004       4.703963       0.01521
  44    0.2165        2.4964        0.0000        7.2003        7.2003       4.703898       0.01492
  43    0.2613        2.4964        0.0000        7.2003        7.2003       4.703820       0.01464
  42    0.3336        2.4965        0.0000        7.2001        7.2001       4.703692       0.01498
  41    0.4307        2.4965        0.0000        7.2000        7.2000       4.703521       0.01481
  40    0.5894        2.4965        0.0000        7.1997        7.1997       4.703243       0.01480
  39     1.339        2.4966        0.0001        7.1984        7.1985       4.701927       0.01482
  38     1.782        2.4966        0.0001        7.1977        7.1978       4.701154       0.01471
  37     2.292        2.4967        0.0001        7.1968        7.1969       4.700260       0.01481
  36     2.964        2.4968        0.0001        7.1957        7.1958       4.699086       0.01473
  35     3.853        2.4969        0.0002        7.1942        7.1944       4.697537       0.01471
  34     5.035        2.4970        0.0002        7.1922        7.1925       4.695480       0.01470
  33     6.613        2.4972        0.0003        7.1896        7.1899       4.692734       0.01468
  32     8.786        2.4974        0.0004        7.1860        7.1864       4.689040       0.01435
  31     11.80        2.4978        0.0005        7.1810        7.1815       4.683766       0.01476
  30     15.07        2.4981        0.0007        7.1755        7.1763       4.678120       0.01458
  29     18.79        2.4986        0.0009        7.1694        7.1703       4.671760       0.01442
  28     23.16        2.4991        0.0011        7.1623        7.1634       4.664359       0.01431
  27     28.12        2.4996        0.0013        7.1542        7.1556       4.655932       0.01433
  26     33.73        2.5003        0.0016        7.1452        7.1468       4.646547       0.01411
  25     40.54        2.5010        0.0019        7.1344        7.1363       4.635275       0.01398
  24     48.69        2.5020        0.0023        7.1215        7.1238       4.621781       0.01396
  23     57.69        2.5030        0.0027        7.1074        7.1101       4.607079       0.01378
  22     68.43        2.5043        0.0032        7.0909        7.0940       4.589732       0.01364
  21     81.20        2.5058        0.0037        7.0713        7.0751       4.569294       0.01351
  20     96.49        2.5076        0.0044        7.0484        7.0529       4.545255       0.01327
  19     114.6        2.5098        0.0053        7.0217        7.0269       4.517146       0.01313
  18     136.5        2.5124        0.0062        6.9906        6.9968       4.484409       0.01259
  17     162.9        2.5156        0.0074        6.9544        6.9618       4.446199       0.01221
  16     196.4        2.5198        0.0089        6.9087        6.9176       4.397833       0.01217
  15     218.7        2.5226        0.0099        6.8794        6.8893       4.366685       0.01183
  14     243.0        2.5257        0.0109        6.8481        6.8590       4.333324       0.01157
  13     269.0        2.5291        0.0121        6.8147        6.8268       4.297621       0.01158
  12     297.5        2.5330        0.0133        6.7791        6.7924       4.259377       0.01134
  11     328.5        2.5373        0.0146        6.7409        6.7556       4.218281       0.01117
  10     361.9        2.5421        0.0160        6.7002        6.7162       4.174080       0.01118
   9     398.1        2.5476        0.0176        6.6563        6.6738       4.126242       0.01115
   8     437.6        2.5538        0.0192        6.6089        6.6280       4.074210       0.01112
   7     480.5        2.5611        0.0209        6.5570        6.5779       4.016838       0.01127
   6     533.0        2.5709        0.0231        6.4915        6.5145       3.943670       0.01177
   5     589.8        2.5826        0.0253        6.4182        6.4436       3.860969       0.01228
   4     651.6        2.5968        0.0277        6.3359        6.3636       3.766827       0.01287
   3     718.7        2.6138        0.0303        6.2441        6.2744       3.660612       0.01335
   2     792.3        2.6339        0.0330        6.1437        6.1767       3.542818       0.01351
   1     891.5        1.2890        1.6701        3.0293        4.6994       3.410462       0.01126
   0    1013.0        1.3084        1.6438        2.9388        4.5826       3.274201       0.00946



 Wavenumbers:  8050. - 12850. cm-1, ATM      1
 LEVEL PRESSURE   UPWARD FLUX   DIFDOWN FLUX  DIRDOWN FLUX  DOWNWARD FLUX   NET FLUX    HEATING RATE
          mb          W/m2          W/m2          W/m2        W/m2          W/m2       degree/day
  51    .06700       32.3329        0.0000      100.8135      100.8135      68.480634       0.00000
  50    .07753       32.3329        0.0000      100.8135      100.8135      68.480634       0.00000
  49    .09103       32.3328        0.0001      100.8134      100.8135      68.480634       0.00000
  48    0.1069       32.3328        0.0001      100.8134      100.8134      68.480634      -0.00000
  47    0.1255       32.3328        0.0001      100.8133      100.8134      68.480634       0.00000
  46    0.1487       32.3327        0.0002      100.8132      100.8134      68.480634      -0.00000
  45    0.1794       32.3327        0.0003      100.8131      100.8133      68.480634       0.00000
  44    0.2165       32.3326        0.0003      100.8129      100.8133      68.480634      -0.00000
  43    0.2613       32.3326        0.0004      100.8127      100.8132      68.480634       0.00000
  42    0.3336       32.3324        0.0006      100.8125      100.8131      68.480634      -0.00000
  41    0.4307       32.3323        0.0008      100.8121      100.8129      68.480634       0.00000
  40    0.5894       32.3320        0.0012      100.8115      100.8126      68.480634      -0.00000
  39     1.339       32.3307        0.0029      100.8085      100.8114      68.480634       0.00000
  38     1.782       32.3300        0.0039      100.8068      100.8106      68.480634      -0.00000
  37     2.292       32.3292        0.0050      100.8047      100.8098      68.480634       0.00000
  36     2.964       32.3280        0.0066      100.8021      100.8087      68.480634      -0.00000
  35     3.853       32.3266        0.0086      100.7986      100.8072      68.480634       0.00000
  34     5.035       32.3246        0.0112      100.7940      100.8052      68.480634       0.00000
  33     6.613       32.3219        0.0148      100.7878      100.8026      68.480634      -0.00000
  32     8.786       32.3184        0.0196      100.7794      100.7990      68.480634       0.00000
  31     11.80       32.3133        0.0265      100.7674      100.7939      68.480634      -0.00000
  30     15.07       32.3078        0.0339      100.7546      100.7885      68.480634       0.00000
  29     18.79       32.3017        0.0423      100.7400      100.7823      68.480634      -0.00000
  28     23.16       32.2944        0.0521      100.7230      100.7751      68.480634      -0.00000
  27     28.12       32.2862        0.0633      100.7035      100.7668      68.480634       0.00000
  26     33.73       32.2769        0.0759      100.6817      100.7575      68.480634      -0.00000
  25     40.54       32.2657        0.0911      100.6552      100.7463      68.480634       0.00000
  24     48.69       32.2521        0.1094      100.6234      100.7327      68.480634       0.00000
  23     57.69       32.2372        0.1296      100.5883      100.7178      68.480634       0.00000
  22     68.43       32.2194        0.1536      100.5464      100.7001      68.480634       0.00000
  21     81.20       32.1982        0.1823      100.4965      100.6788      68.480634       0.00000
  20     96.49       32.1729        0.2166      100.4370      100.6535      68.480634       0.00000
  19     114.6       32.1428        0.2573      100.3585      100.6158      68.472920       0.00360
  18     136.5       32.1072        0.3056      100.2634      100.5690      68.461821       0.00427
  17     162.9       32.0647        0.3633      100.1407      100.5040      68.439306       0.00720
  16     196.4       32.0095        0.4382       99.9505      100.3887      68.379194       0.01513
  15     218.7       31.9732        0.4874       99.7889      100.2763      68.303079       0.02890
  14     243.0       31.9340        0.5408       99.5472      100.0880      68.153951       0.05172
  13     269.0       31.8923        0.5983       99.1452       99.7435      67.851292       0.09818
  12     297.5       31.8485        0.6600       98.5975       99.2575      67.408991       0.13118
  11     328.5       31.8037        0.7261       97.8659       98.5920      66.788298       0.16876
  10     361.9       31.7593        0.7963       96.8848       97.6810      65.921780       0.21924
   9     398.1       31.7173        0.8703       95.6330       96.5033      64.786008       0.26461
   8     437.6       31.6814        0.9477       94.0655       95.0132      63.331758       0.31093
   7     480.5       31.6593        1.0277       92.0807       93.1084      61.449110       0.36974
   6     533.0       31.6596        1.1219       89.4449       90.5668      58.907207       0.40891
   5     589.8       31.7013        1.2191       86.5544       87.7735      56.072170       0.42081
   4     651.6       31.8092        1.3187       83.4174       84.7361      52.926851       0.43013
   3     718.7       32.0019        1.4214       80.2037       81.6251      49.623189       0.41518
   2     792.3       32.3003        1.5279       77.0811       78.6090      46.308668       0.38014
   1     891.5       15.5021       21.4781       36.9623       58.4404      42.938318       0.28680
   0    1013.0       15.8291       20.8243       34.7817       55.6060      39.776914       0.21951



 Wavenumbers: 12850. - 16000. cm-1, ATM      1
 LEVEL PRESSURE   UPWARD FLUX   DIFDOWN FLUX  DIRDOWN FLUX  DOWNWARD FLUX   NET FLUX    HEATING RATE
          mb          W/m2          W/m2          W/m2        W/m2          W/m2       degree/day
  51    .06700       34.8557        0.0000       63.1686       63.1686      28.312852       0.00000
  50    .07753       34.8557        0.0001       63.1677       63.1678      28.312073       0.62481
  49    .09103       34.8557        0.0001       63.1666       63.1668      28.311101       0.60722
  48    0.1069       34.8556        0.0002       63.1654       63.1656      28.309995       0.58882
  47    0.1255       34.8556        0.0003       63.1640       63.1643      28.308737       0.57035
  46    0.1487       34.8555        0.0004       63.1623       63.1627      28.307168       0.57192
  45    0.1794       34.8555        0.0006       63.1600       63.1606      28.305064       0.57758
  44    0.2165       34.8554        0.0008       63.1573       63.1581      28.302631       0.55344
  43    0.2613       34.8554        0.0010       63.1542       63.1552      28.299825       0.52894
  42    0.3336       34.8553        0.0014       63.1493       63.1507      28.295355       0.52123
  41    0.4307       34.8553        0.0019       63.1431       63.1450      28.289764       0.48609
  40    0.5894       34.8552        0.0027       63.1338       63.1365      28.281297       0.45027
  39     1.339       34.8564        0.0066       63.0956       63.1021      28.245762       0.40006
  38     1.782       34.8580        0.0088       63.0740       63.0829      28.224867       0.39779
  37     2.292       34.8608        0.0115       63.0477       63.0591      28.198383       0.43866
  36     2.964       34.8657        0.0149       63.0095       63.0244      28.158738       0.49766
  35     3.853       34.8741        0.0195       62.9533       62.9727      28.098581       0.57090
  34     5.035       34.8872        0.0255       62.8725       62.8980      28.010794       0.62711
  33     6.613       34.9056        0.0336       62.7621       62.7956      27.889996       0.64579
  32     8.786       34.9295        0.0444       62.6182       62.6627      27.733197       0.60895
  31     11.80       34.9598        0.0599       62.4284       62.4882      27.528380       0.57342
  30     15.07       34.9882        0.0764       62.2426       62.3190      27.330848       0.50999
  29     18.79       35.0164        0.0951       62.0493       62.1444      27.128040       0.45983
  28     23.16       35.0448        0.1169       61.8424       61.9593      26.914488       0.41294
  27     28.12       35.0722        0.1417       61.6278       61.7695      26.697319       0.36917
  26     33.73       35.0954        0.1694       61.4177       61.5871      26.491701       0.30915
  25     40.54       35.1148        0.2028       61.1983       61.4011      26.286325       0.25479
  24     48.69       35.1299        0.2431       60.9680       61.2111      26.081154       0.21232
  23     57.69       35.1384        0.2872       60.7478       61.0350      25.896604       0.17299
  22     68.43       35.1398        0.3398       60.5202       60.8599      25.720117       0.13874
  21     81.20       35.1295        0.4023       60.2938       60.6961      25.566597       0.10144
  20     96.49       35.1062        0.4768       60.0643       60.5411      25.434863       0.07271
  19     114.6       35.0790        0.5657       59.8078       60.3735      25.294538       0.06552
  18     136.5       35.0417        0.6709       59.5157       60.1867      25.144951       0.05752
  17     162.9       34.9928        0.7959       59.1770       59.9729      24.980164       0.05267
  16     196.4       34.9196        0.9575       58.7604       59.7180      24.798329       0.04577
  15     218.7       34.8681        1.0634       58.4948       59.5582      24.690055       0.04111
  14     243.0       34.8107        1.1782       58.2089       59.3871      24.576439       0.03941
  13     269.0       34.7471        1.3024       57.9006       59.2029      24.455800       0.03913
  12     297.5       34.6776        1.4362       57.5668       59.0030      24.325370       0.03868
  11     328.5       34.6030        1.5804       57.2005       58.7809      24.177920       0.04009
  10     361.9       34.5240        1.7352       56.7963       58.5316      24.007604       0.04309
   9     398.1       34.4412        1.9012       56.3475       58.2487      23.807512       0.04662
   8     437.6       34.3565        2.0786       55.8422       57.9208      23.564237       0.05201
   7     480.5       34.2734        2.2674       55.2625       57.5300      23.256544       0.06043
   6     533.0       34.1839        2.4978       54.4972       56.9950      22.811065       0.07166
   5     589.8       34.1036        2.7428       53.6307       56.3735      22.269876       0.08033
   4     651.6       34.0397        3.0016       52.6606       55.6621      21.622429       0.08854
   3     718.7       33.9961        3.2744       51.6100       54.8844      20.888249       0.09227
   2     792.3       33.9783        3.5610       50.5019       54.0629      20.084586       0.09217
   1     891.5       24.1367       18.5554       24.7322       43.2876      19.150846       0.07946
   0    1013.0       24.2322       18.5364       23.8287       42.3651      18.132815       0.07069



 Wavenumbers: 16000. - 22650. cm-1, ATM      1
 LEVEL PRESSURE   UPWARD FLUX   DIFDOWN FLUX  DIRDOWN FLUX  DOWNWARD FLUX   NET FLUX    HEATING RATE
          mb          W/m2          W/m2          W/m2        W/m2          W/m2       degree/day
  51    .06700       75.1172        0.0000      100.7153      100.7153      25.598057       0.00000
  50    .07753       75.1171        0.0003      100.7147      100.7151      25.597940       0.09373
  49    .09103       75.1170        0.0007      100.7140      100.7147      25.597770       0.10631
  48    0.1069       75.1168        0.0012      100.7131      100.7143      25.597543       0.12123
  47    0.1255       75.1166        0.0017      100.7121      100.7139      25.597238       0.13819
  46    0.1487       75.1164        0.0024      100.7108      100.7132      25.596789       0.16375
  45    0.1794       75.1161        0.0034      100.7089      100.7122      25.596086       0.19280
  44    0.2165       75.1159        0.0045      100.7066      100.7110      25.595134       0.21668
  43    0.2613       75.1156        0.0058      100.7037      100.7094      25.593841       0.24360
  42    0.3336       75.1152        0.0079      100.6987      100.7066      25.591384       0.28646
  41    0.4307       75.1149        0.0108      100.6918      100.7026      25.587681       0.32201
  40    0.5894       75.1146        0.0155      100.6797      100.6952      25.580618       0.37559
  39     1.339       75.1187        0.0376      100.6095      100.6471      25.528448       0.58734
  38     1.782       75.1251        0.0506      100.5585      100.6091      25.484018       0.84586
  37     2.292       75.1362        0.0657      100.4903      100.5559      25.419727       1.06483
  36     2.964       75.1566        0.0854      100.3868      100.4722      25.315624       1.30681
  35     3.853       75.1915        0.1115      100.2306      100.3421      25.150559       1.56650
  34     5.035       75.2459        0.1461      100.0045      100.1505      24.904565       1.75728
  33     6.613       75.3227        0.1921       99.6939       99.8860      24.563237       1.82474
  32     8.786       75.4221        0.2540       99.2881       99.5421      24.120015       1.72131
  31     11.80       75.5486        0.3423       98.7496       99.0919      23.543304       1.61461
  30     15.07       75.6664        0.4368       98.2198       98.6566      22.990226       1.42794
  29     18.79       75.7831        0.5431       97.6651       98.2083      22.425119       1.28127
  28     23.16       75.9007        0.6669       97.0671       97.7340      21.833266       1.14445
  27     28.12       76.0133        0.8078       96.4406       97.2484      21.235076       1.01688
  26     33.73       76.1078        0.9650       95.8179       96.7829      20.675119       0.84191
  25     40.54       76.1856        1.1543       95.1548       96.3092      20.123581       0.68424
  24     48.69       76.2441        1.3816       94.4420       95.8236      19.579502       0.56304
  23     57.69       76.2744        1.6303       93.7416       95.3719      19.097484       0.45182
  22     68.43       76.2740        1.9252       92.9954       94.9206      18.646588       0.35446
  21     81.20       76.2234        2.2752       92.2231       94.4983      18.274903       0.24560
  20     96.49       76.1170        2.6903       91.4110       94.1013      17.984230       0.16043
  19     114.6       75.9680        3.1797       90.5070       93.6867      17.718706       0.12398
  18     136.5       75.7767        3.7549       89.4803       93.2352      17.458494       0.10006
  17     162.9       75.5363        4.4330       88.3022       92.7352      17.198945       0.08296
  16     196.4       75.1961        5.3021       86.8606       92.1627      16.966620       0.05848
  15     218.7       74.9632        5.8666       85.9492       91.8158      16.852654       0.04327
  14     243.0       74.7064        6.4746       84.9789       91.4536      16.747148       0.03659
  13     269.0       74.4248        7.1271       83.9493       91.0764      16.651584       0.03100
  12     297.5       74.1176        7.8247       82.8589       90.6837      16.566078       0.02536
  11     328.5       73.7861        8.5700       81.6982       90.2682      16.482116       0.02283
  10     361.9       73.4304        9.3626       80.4669       89.8295      16.399171       0.02099
   9     398.1       73.0495       10.2044       79.1611       89.3655      16.316032       0.01937
   8     437.6       72.6440       11.0957       77.7777       88.8734      16.229400       0.01852
   7     480.5       72.2142       12.0367       76.3136       88.3503      16.136135       0.01832
   6     533.0       71.6929       13.1749       74.5359       87.7108      16.017929       0.01902
   5     589.8       71.1418       14.3773       72.6469       87.0242      15.882466       0.02011
   4     651.6       70.5632       15.6418       70.6456       86.2873      15.724094       0.02166
   3     718.7       69.9578       16.9660       68.5367       85.5027      15.544924       0.02252
   2     792.3       69.3283       18.3448       66.3287       84.6734      15.345159       0.02291
   1     891.5       57.3860       40.4773       32.0031       72.4804      15.094414       0.02134
   0    1013.0       56.8722       41.3737       30.2995       71.6732      14.801015       0.02037



 Wavenumbers: 22650. - 29000. cm-1, ATM      1
 LEVEL PRESSURE   UPWARD FLUX   DIFDOWN FLUX  DIRDOWN FLUX  DOWNWARD FLUX   NET FLUX    HEATING RATE
          mb          W/m2          W/m2          W/m2        W/m2          W/m2       degree/day
  51    .06700       32.4282        0.0000       38.0063       38.0063       5.578103       0.00000
  50    .07753       32.4280        0.0004       38.0057       38.0061       5.578103       0.00000
  49    .09103       32.4278        0.0009       38.0050       38.0059       5.578103       0.00000
  48    0.1069       32.4275        0.0014       38.0042       38.0057       5.578103       0.00000
  47    0.1255       32.4273        0.0020       38.0033       38.0054       5.578103      -0.00000
  46    0.1487       32.4269        0.0028       38.0022       38.0050       5.578103       0.00000
  45    0.1794       32.4264        0.0039       38.0006       38.0045       5.578103       0.00000
  44    0.2165       32.4258        0.0052       37.9987       38.0039       5.578103      -0.00000
  43    0.2613       32.4251        0.0067       37.9965       38.0032       5.578103      -0.00000
  42    0.3336       32.4240        0.0092       37.9928       38.0021       5.578103       0.00000
  41    0.4307       32.4225        0.0126       37.9880       38.0006       5.578103       0.00000
  40    0.5894       32.4200        0.0180       37.9800       37.9981       5.578103       0.00000
  39     1.339       32.4082        0.0439       37.9425       37.9863       5.578103      -0.00000
  38     1.782       32.4013        0.0590       37.9204       37.9794       5.578103       0.00000
  37     2.292       32.3934        0.0766       37.8949       37.9715       5.578103       0.00000
  36     2.964       32.3829        0.0996       37.8614       37.9610       5.578103       0.00000
  35     3.853       32.3691        0.1299       37.8172       37.9472       5.578103       0.00000
  34     5.035       32.3507        0.1702       37.7586       37.9288       5.578103      -0.00000
  33     6.613       32.3262        0.2240       37.6803       37.9043       5.578103       0.00000
  32     8.786       32.2933        0.2963       37.5750       37.8714       5.578103      -0.00000
  31     11.80       32.2463        0.3995       37.4249       37.8244       5.578103       0.00000
  30     15.07       32.1959        0.5099       37.2642       37.7740       5.578103       0.00000
  29     18.79       32.1392        0.6340       37.0833       37.7173       5.578103       0.00000
  28     23.16       32.0733        0.7784       36.8730       37.6514       5.578103       0.00000
  27     28.12       31.9982        0.9425       36.6338       37.5763       5.578103      -0.00000
  26     33.73       31.9146        1.1251       36.3677       37.4927       5.578103       0.00000
  25     40.54       31.8143        1.3439       36.0486       37.3924       5.578103      -0.00000
  24     48.69       31.6943        1.6052       35.6672       37.2724       5.578103       0.00000
  23     57.69       31.5637        1.8891       35.2527       37.1418       5.578103       0.00000
  22     68.43       31.4097        2.2229       34.7649       36.9878       5.578103       0.00000
  21     81.20       31.2286        2.6145       34.1922       36.8067       5.578103       0.00000
  20     96.49       31.0162        3.0725       33.5217       36.5943       5.578103      -0.00000
  19     114.6       30.7685        3.6042       32.7424       36.3466       5.578103       0.00000
  18     136.5       30.4813        4.2178       31.8416       36.0594       5.578103      -0.00000
  17     162.9       30.1481        4.9254       30.8008       35.7262       5.578103       0.00000
  16     196.4       29.7298        5.8072       29.5007       35.3079       5.578103      -0.00000
  15     218.7       29.4633        6.3647       28.6767       35.0414       5.578103      -0.00000
  14     243.0       29.1807        6.9521       27.8068       34.7588       5.578103       0.00000
  13     269.0       28.8826        7.5674       26.8933       34.4607       5.578103      -0.00000
  12     297.5       28.5696        8.2084       25.9393       34.1477       5.578103       0.00000
  11     328.5       28.2414        8.8744       24.9451       33.8195       5.578103       0.00000
  10     361.9       27.8994        9.5615       23.9160       33.4775       5.578103       0.00000
   9     398.1       27.5439       10.2679       22.8541       33.1220       5.578103      -0.00000
   8     437.6       27.1759       10.9896       21.7645       32.7540       5.578103       0.00000
   7     480.5       26.7968       11.7227       20.6521       32.3749       5.578103      -0.00000
   6     533.0       26.3501       12.5713       19.3569       31.9282       5.578103       0.00000
   5     589.8       25.8920       13.4233       18.0467       31.4701       5.578103      -0.00000
   4     651.6       25.4246       14.2711       16.7316       31.0027       5.578103       0.00000
   3     718.7       24.9504       15.1071       15.4214       30.5285       5.578103       0.00000
   2     792.3       24.4721       15.9226       14.1276       30.0502       5.578103      -0.00000
   1     891.5       21.2892       20.5372        6.3301       26.8673       5.578080       0.00000
   0    1013.0       20.8603       20.9530        5.4854       26.4383       5.578080      -0.00000



 Wavenumbers: 29000. - 38000. cm-1, ATM      1
 LEVEL PRESSURE   UPWARD FLUX   DIFDOWN FLUX  DIRDOWN FLUX  DOWNWARD FLUX   NET FLUX    HEATING RATE
          mb          W/m2          W/m2          W/m2        W/m2          W/m2       degree/day
  51    .06700        4.7317        0.0000       13.4026       13.4026       8.670859       0.00000
  50    .07753        4.7315        0.0003       13.3983       13.3986       8.667061       3.04424
  49    .09103        4.7312        0.0007       13.3921       13.3928       8.661542       3.44950
  48    0.1069        4.7309        0.0011       13.3840       13.3851       8.654166       3.92657
  47    0.1255        4.7306        0.0016       13.3733       13.3749       8.644321       4.46295
  46    0.1487        4.7302        0.0022       13.3579       13.3600       8.629880       5.26411
  45    0.1794        4.7296        0.0030       13.3340       13.3371       8.607481       6.14894
  44    0.2165        4.7289        0.0040       13.3024       13.3064       8.577464       6.82839
  43    0.2613        4.7281        0.0051       13.2604       13.2655       8.537412       7.54967
  42    0.3336        4.7269        0.0070       13.1833       13.1903       8.463410       8.62790
  41    0.4307        4.7253        0.0095       13.0729       13.0824       8.357045       9.24820
  40    0.5894        4.7229        0.0133       12.8796       12.8929       8.170015       9.94599
  39     1.339        4.7143        0.0295       11.9165       11.9461       7.231781      10.56281
  38     1.782        4.7108        0.0378       11.4399       11.4777       6.766888       8.85081
  37     2.292        4.7082        0.0466       10.9796       11.0262       6.318080       7.43343
  36     2.964        4.7065        0.0575       10.4786       10.5361       5.829645       6.13134
  35     3.853        4.7067        0.0709        9.9429       10.0138       5.307090       4.95914
  34     5.035        4.7095        0.0876        9.4007        9.4883       4.778798       3.77390
  33     6.613        4.7150        0.1088        8.8752        8.9840       4.269009       2.72533
  32     8.786        4.7226        0.1361        8.3786        8.5147       3.792054       1.85232
  31     11.80        4.7318        0.1736        7.8897        8.0632       3.331411       1.28965
  30     15.07        4.7396        0.2122        7.5108        7.7230       2.983476       0.89830
  29     18.79        4.7465        0.2543        7.1776        7.4320       2.685409       0.67581
  28     23.16        4.7526        0.3017        6.8664        7.1682       2.415522       0.52187
  27     28.12        4.7571        0.3541        6.5780        6.9322       2.175011       0.40885
  26     33.73        4.7577        0.4112        6.3195        6.7307       1.972976       0.30376
  25     40.54        4.7530        0.4785        6.0663        6.5447       1.791767       0.22481
  24     48.69        4.7424        0.5573        5.8128        6.3701       1.627697       0.16979
  23     57.69        4.7262        0.6413        5.5777        6.2190       1.492871       0.12638
  22     68.43        4.7018        0.7386        5.3379        6.0765       1.374682       0.09291
  21     81.20        4.6651        0.8514        5.0965        5.9478       1.282743       0.06075
  20     96.49        4.6149        0.9815        4.8476        5.8292       1.214320       0.03776
  19     114.6        4.5540        1.1289        4.5799        5.7088       1.154799       0.02779
  18     136.5        4.4835        1.2934        4.2891        5.5825       1.099052       0.02144
  17     162.9        4.4029        1.4756        3.9732        5.4488       1.045953       0.01697
  16     196.4        4.3009        1.6935        3.6080        5.3015       1.000612       0.01141
  15     218.7        4.2366        1.8259        3.3898        5.2156       0.979048       0.00819
  14     243.0        4.1696        1.9605        3.1686        5.1291       0.959504       0.00678
  13     269.0        4.1003        2.0965        2.9461        5.0425       0.942281       0.00559
  12     297.5        4.0289        2.2324        2.7239        4.9563       0.927395       0.00441
  11     328.5        3.9564        2.3669        2.5029        4.8698       0.913429       0.00380
  10     361.9        3.8831        2.4989        2.2846        4.7835       0.900402       0.00330
   9     398.1        3.8094        2.6270        2.0708        4.6977       0.888308       0.00282
   8     437.6        3.7357        2.7500        1.8626        4.6126       0.876887       0.00244
   7     480.5        3.6625        2.8667        1.6621        4.5288       0.866264       0.00209
   6     533.0        3.5797        2.9910        1.4437        4.4346       0.854930       0.00182
   5     589.8        3.4985        3.1037        1.2390        4.3427       0.844203       0.00159
   4     651.6        3.4194        3.2033        1.0500        4.2533       0.833938       0.00140
   3     718.7        3.3427        3.2890        0.8778        4.1668       0.824099       0.00124
   2     792.3        3.2686        3.3596        0.7237        4.0833       0.814667       0.00108
   1     891.5        2.9806        3.5036        0.2806        3.7843       0.803722       0.00093
   0    1013.0        2.9073        3.4958        0.2038        3.6996       0.792283       0.00079



 Wavenumbers: 38000. - 50000. cm-1, ATM      1
 LEVEL PRESSURE   UPWARD FLUX   DIFDOWN FLUX  DIRDOWN FLUX  DOWNWARD FLUX   NET FLUX    HEATING RATE
          mb          W/m2          W/m2          W/m2        W/m2          W/m2       degree/day
  51    .06700        0.0051        0.0000        0.8267        0.8267       0.821528       0.00000
  50    .07753        0.0051        0.0001        0.8242        0.8243       0.819196       1.86936
  49    .09103        0.0050        0.0002        0.8207        0.8209       0.815872       2.07705
  48    0.1069        0.0049        0.0002        0.8162        0.8164       0.811514       2.31984
  47    0.1255        0.0048        0.0004        0.8103        0.8106       0.805801       2.59006
  46    0.1487        0.0047        0.0005        0.8018        0.8023       0.797567       3.00143
  45    0.1794        0.0045        0.0007        0.7889        0.7896       0.785013       3.44648
  44    0.2165        0.0044        0.0009        0.7720        0.7729       0.768507       3.75474
  43    0.2613        0.0042        0.0011        0.7500        0.7511       0.746955       4.06246
  42    0.3336        0.0039        0.0015        0.7106        0.7121       0.708267       4.51071
  41    0.4307        0.0035        0.0019        0.6566        0.6584       0.654972       4.63387
  40    0.5894        0.0029        0.0024        0.5680        0.5704       0.567464       4.65357
  39     1.339        0.0015        0.0030        0.2422        0.2452       0.243720       3.64476
  38     1.782        0.0010        0.0026        0.1493        0.1519       0.150889       1.76735
  37     2.292        0.0007        0.0022        0.0924        0.0946       0.093932       0.94336
  36     2.964        0.0005        0.0018        0.0539        0.0557       0.055224       0.48589
  35     3.853        0.0003        0.0013        0.0295        0.0308       0.030502       0.23462
  34     5.035        0.0002        0.0010        0.0154        0.0164       0.016181       0.10230
  33     6.613        0.0001        0.0007        0.0073        0.0080       0.007912       0.04420
  32     8.786        0.0000        0.0004        0.0030        0.0034       0.003390       0.01756
  31     11.80        0.0000        0.0003        0.0010        0.0012       0.001199       0.00613
  30     15.07        0.0000        0.0001        0.0003        0.0005       0.000463       0.00190
  29     18.79        0.0000        0.0001        0.0001        0.0002       0.000182       0.00064
  28     23.16        0.0000        0.0000        0.0000        0.0001       0.000071       0.00022
  27     28.12        0.0000        0.0000        0.0000        0.0000       0.000028       0.00007
  26     33.73        0.0000        0.0000        0.0000        0.0000       0.000011       0.00002
  25     40.54        0.0000        0.0000        0.0000        0.0000       0.000005       0.00001
  24     48.69        0.0000        0.0000        0.0000        0.0000       0.000002       0.00000
  23     57.69        0.0000        0.0000        0.0000        0.0000       0.000001       0.00000
  22     68.43        0.0000        0.0000        0.0000        0.0000       0.000000       0.00000
  21     81.20        0.0000        0.0000        0.0000        0.0000       0.000000       0.00000
  20     96.49        0.0000        0.0000        0.0000        0.0000       0.000000       0.00000
  19     114.6        0.0000        0.0000        0.0000        0.0000       0.000000       0.00000
  18     136.5        0.0000        0.0000        0.0000        0.0000       0.000000       0.00000
  17     162.9        0.0000        0.0000        0.0000        0.0000       0.000000       0.00000
  16     196.4        0.0000        0.0000        0.0000        0.0000       0.000000       0.00000
  15     218.7        0.0000        0.0000        0.0000        0.0000       0.000000       0.00000
  14     243.0        0.0000        0.0000        0.0000        0.0000       0.000000       0.00000
  13     269.0        0.0000        0.0000        0.0000        0.0000       0.000000       0.00000
  12     297.5        0.0000        0.0000        0.0000        0.0000       0.000000       0.00000
  11     328.5        0.0000        0.0000        0.0000        0.0000       0.000000       0.00000
  10     361.9        0.0000        0.0000        0.0000        0.0000       0.000000       0.00000
   9     398.1        0.0000        0.0000        0.0000        0.0000       0.000000       0.00000
   8     437.6        0.0000        0.0000        0.0000        0.0000       0.000000       0.00000
   7     480.5        0.0000        0.0000        0.0000        0.0000       0.000000       0.00000
   6     533.0        0.0000        0.0000        0.0000        0.0000       0.000000       0.00000
   5     589.8        0.0000        0.0000        0.0000        0.0000       0.000000       0.00000
   4     651.6        0.0000        0.0000        0.0000        0.0000       0.000000       0.00000
   3     718.7        0.0000        0.0000        0.0000        0.0000       0.000000       0.00000
   2     792.3        0.0000        0.0000        0.0000        0.0000       0.000000       0.00000
   1     891.5        0.0000        0.0000        0.0000        0.0000       0.000000       0.00000
   0    1013.0        0.0000        0.0000        0.0000        0.0000       0.000000       0.00000



 Wavenumbers:   820. -  2600. cm-1, ATM      1
 LEVEL PRESSURE   UPWARD FLUX   DIFDOWN FLUX  DIRDOWN FLUX  DOWNWARD FLUX   NET FLUX    HEATING RATE
          mb          W/m2          W/m2          W/m2        W/m2          W/m2       degree/day
  51    .06700        0.3577        0.0000        3.8670        3.8670       3.509288       0.00000
  50    .07753        0.3577        0.0000        3.8643        3.8643       3.506571       2.17770
  49    .09103        0.3577        0.0000        3.8635        3.8635       3.505760       0.50638
  48    0.1069        0.3577        0.0000        3.8626        3.8626       3.504870       0.47415
  47    0.1255        0.3577        0.0000        3.8616        3.8616       3.503909       0.43560
  46    0.1487        0.3577        0.0000        3.8605        3.8605       3.502799       0.40438
  45    0.1794        0.3577        0.0000        3.8592        3.8592       3.501464       0.36648
  44    0.2165        0.3577        0.0000        3.8578        3.8578       3.500086       0.31346
  43    0.2613        0.3577        0.0000        3.8564        3.8564       3.498626       0.27522
  42    0.3336        0.3577        0.0000        3.8541        3.8541       3.496395       0.26013
  41    0.4307        0.3577        0.0000        3.8512        3.8512       3.493513       0.25063
  40    0.5894        0.3577        0.0000        3.8465        3.8465       3.488786       0.25134
  39     1.339        0.3577        0.0000        3.8251        3.8251       3.467411       0.24065
  38     1.782        0.3577        0.0000        3.8133        3.8133       3.455598       0.22490
  37     2.292        0.3577        0.0000        3.8003        3.8003       3.442536       0.21633
  36     2.964        0.3577        0.0000        3.7841        3.7841       3.426407       0.20247
  35     3.853        0.3577        0.0000        3.7642        3.7642       3.406492       0.18900
  34     5.035        0.3577        0.0000        3.7395        3.7395       3.381800       0.17639
  33     6.613        0.3577        0.0000        3.7090        3.7090       3.351263       0.16325
  32     8.786        0.3577        0.0000        3.6726        3.6726       3.314869       0.14134
  31     11.80        0.3577        0.0000        3.6320        3.6320       3.274272       0.11366
  30     15.07        0.3577        0.0000        3.6016        3.6016       3.243886       0.07845
  29     18.79        0.3578        0.0000        3.5777        3.5777       3.219986       0.05419
  28     23.16        0.3578        0.0000        3.5564        3.5564       3.198629       0.04130
  27     28.12        0.3578        0.0000        3.5348        3.5348       3.177079       0.03663
  26     33.73        0.3578        0.0000        3.5118        3.5118       3.154042       0.03464
  25     40.54        0.3578        0.0000        3.4849        3.4849       3.127149       0.03336
  24     48.69        0.3578        0.0000        3.4537        3.4537       3.095890       0.03235
  23     57.69        0.3578        0.0000        3.4210        3.4210       3.063209       0.03063
  22     68.43        0.3578        0.0000        3.3844        3.3844       3.026614       0.02877
  21     81.20        0.3578        0.0000        3.3441        3.3441       2.986305       0.02664
  20     96.49        0.3579        0.0000        3.2998        3.2998       2.941926       0.02449
  19     114.6        0.3579        0.0000        3.2506        3.2506       2.892760       0.02296
  18     136.5        0.3579        0.0000        3.1936        3.1936       2.835685       0.02195
  17     162.9        0.3580        0.0000        3.1181        3.1181       2.760137       0.02415
  16     196.4        0.3581        0.0000        3.0090        3.0090       2.650860       0.02751
  15     218.7        0.3582        0.0000        2.9420        2.9420       2.583790       0.02546
  14     243.0        0.3584        0.0000        2.8605        2.8605       2.502130       0.02832
  13     269.0        0.3586        0.0000        2.7419        2.7420       2.383384       0.03852
  12     297.5        0.3590        0.0000        2.5729        2.5729       2.213904       0.05027
  11     328.5        0.3596        0.0000        2.3602        2.3602       2.000580       0.05800
  10     361.9        0.3606        0.0000        2.1524        2.1524       1.791837       0.05281
   9     398.1        0.3620        0.0000        1.9974        1.9974       1.635435       0.03644
   8     437.6        0.3640        0.0000        1.8835        1.8835       1.519566       0.02477
   7     480.5        0.3668        0.0000        1.7734        1.7734       1.406665       0.02217
   6     533.0        0.3714        0.0000        1.6397        1.6398       1.268322       0.02226
   5     589.8        0.3781        0.0000        1.5068        1.5069       1.128711       0.02072
   4     651.6        0.3881        0.0000        1.3807        1.3807       0.992650       0.01861
   3     718.7        0.4013        0.0000        1.2680        1.2681       0.866737       0.01582
   2     792.3        0.4178        0.0000        1.1659        1.1660       0.748210       0.01359
   1     891.5        0.1795        0.2811        0.5233        0.8044       0.624905       0.01049
   0    1013.0        0.1976        0.2533        0.4397        0.6931       0.495456       0.00899

  Modules and versions used in this calculation:

       rrtmg_sw.1col.f90:  $Revision$                    rrtmg_sw_init.f90:  $Revision$        
     rrtmgsw_cldprop.f90:  $Revision$                  rrtmgsw_cldprmc.f90:  NOT USED          
     rrtmg_sw_reftra.f90:  $Revision$                  rrtmg_sw_spcvrt.f90:  NOT USED          
     rrtmg_sw_spcvmc.f90:  NOT USED                    rrtmgsw_setcoef.f90:  NOT USED          
     rrtmg_sw_taumol.f90:  $Revision$                  rrtmg_sw_vrtqdr.f90:  NOT USED          
                rrtatm.f:  NOT USED                             util_xxx.f:  NOT USED          
                 extra.f:  NOT USED                       rrtmg_sw_k_g.f90:  $Revision$        

