

 Wavenumbers:   820. - 50000. cm-1, ATM      1
 LEVEL PRESSURE   UPWARD FLUX   DIFDOWN FLUX  DIRDOWN FLUX  DOWNWARD FLUX   NET FLUX    HEATING RATE
          mb          W/m2          W/m2          W/m2        W/m2          W/m2       degree/day
  51    .06700      294.0274        0.0000      397.8738      397.8738     103.846373       0.00000
  50    .07753      294.0268        0.0012      397.8577      397.8589     103.832076      11.45965
  49    .09103      294.0261        0.0027      397.8418      397.8445     103.818378       8.56126
  48    0.1069      294.0254        0.0044      397.8230      397.8274     103.802019       8.70830
  47    0.1255      294.0245        0.0064      397.7997      397.8061     103.781561       9.27465
  46    0.1487      294.0234        0.0089      397.7676      397.7765     103.753081      10.38107
  45    0.1794      294.0220        0.0123      397.7205      397.7328     103.710756      11.61943
  44    0.2165      294.0205        0.0163      397.6602      397.6765     103.656062      12.44177
  43    0.2613      294.0187        0.0210      397.5829      397.6039     103.585205      13.35628
  42    0.3336      294.0160        0.0288      397.4449      397.4737     103.457653      14.87129
  41    0.4307      294.0128        0.0390      397.2524      397.2914     103.278615      15.56694
  40    0.5894      294.0081        0.0554      396.9253      396.9807     102.972579      16.27462
  39     1.339      293.9987        0.1289      395.4254      395.5543     101.555531      15.95338
  38     1.782      294.0016        0.1702      394.7288      394.8989     100.897335      12.53100
  37     2.292      294.0123        0.2171      394.0572      394.2743     100.261958      10.52350
  36     2.964      294.0375        0.2781      393.3007      393.5788      99.541335       9.04600
  35     3.853      294.0860        0.3578      392.4318      392.7896      98.703634       7.94994
  34     5.035      294.1657        0.4628      391.4441      391.9069      97.741148       6.87560
  33     6.613      294.2805        0.6019      390.3268      390.9286      96.648096       5.84346
  32     8.786      294.4289        0.7879      389.0624      389.8503      95.421353       4.76423
  31     11.80      294.6151        1.0520      387.5500      388.6020      93.986905       4.01600
  30     15.07      294.7843        1.3333      386.1556      387.4889      92.704650       3.31053
  29     18.79      294.9481        1.6487      384.7502      386.3989      91.450800       2.84286
  28     23.16      295.1079        2.0142      383.2686      385.2828      90.174891       2.46720
  27     28.12      295.2539        2.4289      381.7329      384.1618      88.907849       2.15388
  26     33.73      295.3635        2.8897      380.1982      383.0879      87.724416       1.77932
  25     40.54      295.4335        3.4426      378.5384      381.9809      86.547472       1.46013
  24     48.69      295.4581        4.1034      376.7214      380.8249      85.366767       1.22184
  23     57.69      295.4278        4.8228      374.8959      379.7187      84.290892       1.00847
  22     68.43      295.3302        5.6712      372.8999      378.5712      83.241000       0.82536
  21     81.20      295.1288        6.6717      370.7496      377.4214      82.292553       0.62672
  20     96.49      294.8120        7.8495      368.4056      376.2551      81.443021       0.46888
  19     114.6      294.4110        9.2261      365.7513      374.9774      80.566401       0.40932
  18     136.5      293.9184       10.8263      362.7231      373.5494      79.630971       0.35970
  17     162.9      293.3224       12.6883      359.1748      371.8631      78.540674       0.34850
  16     196.4      292.5176       15.0389      354.5718      369.6107      77.093096       0.36437
  15     218.7      291.9839       16.5440      351.4437      367.9877      76.003765       0.41358
  14     243.0      291.4095       18.1465      347.7111      365.8577      74.448221       0.53951
  13     269.0      290.7976       19.8449      342.9441      362.7891      71.991481       0.79696
  12     297.5      290.1532       21.6373      337.4137      359.0510      68.897739       0.91757
  11     328.5      289.4872       23.5257      331.1302      354.6559      65.168712       1.01391
  10     361.9      288.8112       25.5049      324.1219      349.6268      60.815607       1.10138
   9     398.1      288.1385       27.5749      316.6066      344.1815      56.042995       1.11191
   8     437.6      287.4950       29.7315      308.5895      338.3209      50.825911       1.11545
   7     480.5      286.9282       31.9690      299.9349      331.9039      44.975735       1.14895
   6     533.0      286.4329       34.6252      289.7021      324.3273      37.894476       1.13915
   5     589.8      286.1933       37.3737      279.3388      316.7125      30.519236       1.09473
   4     651.6      286.3763       40.2031      268.7786      308.9817      22.605391       1.08224
   3     718.7      287.1276       43.1050      258.2837      301.3887      14.261102       1.04865
   2     792.3      288.6416       46.0660      248.0774      294.1434       5.501739       1.00460
   1     891.5        7.3315       10.8895        0.0000       10.8895       3.557967       0.16541
   0    1013.0        7.3106       10.8081        0.0000       10.8081       3.497470       0.00420



 Wavenumbers:  2600. -  3250. cm-1, ATM      1
 LEVEL PRESSURE   UPWARD FLUX   DIFDOWN FLUX  DIRDOWN FLUX  DOWNWARD FLUX   NET FLUX    HEATING RATE
          mb          W/m2          W/m2          W/m2        W/m2          W/m2       degree/day
  51    .06700        1.2688        0.0000        3.5066        3.5066       2.237818       0.00000
  50    .07753        1.2688        0.0000        3.5066        3.5066       2.237810       0.00640
  49    .09103        1.2688        0.0000        3.5066        3.5066       2.237800       0.00627
  48    0.1069        1.2688        0.0000        3.5066        3.5066       2.237789       0.00613
  47    0.1255        1.2688        0.0000        3.5066        3.5066       2.237776       0.00599
  46    0.1487        1.2688        0.0000        3.5066        3.5066       2.237759       0.00607
  45    0.1794        1.2688        0.0000        3.5065        3.5065       2.237736       0.00624
  44    0.2165        1.2688        0.0000        3.5065        3.5065       2.237709       0.00611
  43    0.2613        1.2688        0.0000        3.5065        3.5065       2.237678       0.00598
  42    0.3336        1.2688        0.0000        3.5064        3.5064       2.237625       0.00615
  41    0.4307        1.2688        0.0000        3.5064        3.5064       2.237554       0.00618
  40    0.5894        1.2688        0.0000        3.5062        3.5062       2.237435       0.00633
  39     1.339        1.2688        0.0000        3.5055        3.5055       2.236736       0.00787
  38     1.782        1.2688        0.0000        3.5050        3.5050       2.236205       0.01011
  37     2.292        1.2688        0.0000        3.5043        3.5043       2.235513       0.01147
  36     2.964        1.2688        0.0000        3.5033        3.5033       2.234521       0.01245
  35     3.853        1.2688        0.0000        3.5019        3.5019       2.233144       0.01307
  34     5.035        1.2688        0.0000        3.5001        3.5001       2.231283       0.01329
  33     6.613        1.2688        0.0000        3.4977        3.4977       2.228873       0.01288
  32     8.786        1.2688        0.0000        3.4947        3.4947       2.225902       0.01154
  31     11.80        1.2688        0.0000        3.4911        3.4911       2.222266       0.01018
  30     15.07        1.2688        0.0000        3.4878        3.4878       2.219043       0.00832
  29     18.79        1.2688        0.0000        3.4848        3.4848       2.215978       0.00695
  28     23.16        1.2688        0.0000        3.4816        3.4816       2.212755       0.00623
  27     28.12        1.2688        0.0000        3.4779        3.4779       2.209133       0.00616
  26     33.73        1.2688        0.0000        3.4735        3.4735       2.204661       0.00672
  25     40.54        1.2688        0.0000        3.4671        3.4672       2.198325       0.00786
  24     48.69        1.2688        0.0000        3.4582        3.4583       2.189416       0.00922
  23     57.69        1.2689        0.0000        3.4472        3.4472       2.178348       0.01037
  22     68.43        1.2689        0.0000        3.4329        3.4330       2.164060       0.01123
  21     81.20        1.2689        0.0000        3.4152        3.4152       2.146290       0.01174
  20     96.49        1.2690        0.0000        3.3940        3.3941       2.125087       0.01170
  19     114.6        1.2691        0.0000        3.3692        3.3692       2.100115       0.01166
  18     136.5        1.2692        0.0001        3.3419        3.3420       2.072778       0.01051
  17     162.9        1.2694        0.0001        3.3129        3.3129       2.043524       0.00935
  16     196.4        1.2698        0.0001        3.2793        3.2794       2.009624       0.00853
  15     218.7        1.2702        0.0001        3.2578        3.2579       1.987690       0.00833
  14     243.0        1.2707        0.0001        3.2320        3.2321       1.961321       0.00915
  13     269.0        1.2717        0.0001        3.1968        3.1969       1.925263       0.01170
  12     297.5        1.2731        0.0001        3.1489        3.1491       1.875932       0.01463
  11     328.5        1.2753        0.0001        3.0821        3.0822       1.806852       0.01878
  10     361.9        1.2786        0.0001        2.9902        2.9904       1.711778       0.02405
   9     398.1        1.2833        0.0001        2.8715        2.8716       1.588314       0.02876
   8     437.6        1.2902        0.0002        2.7276        2.7278       1.437653       0.03221
   7     480.5        1.3005        0.0002        2.5595        2.5597       1.259221       0.03504
   6     533.0        1.3179        0.0002        2.3617        2.3619       1.043969       0.03463
   5     589.8        1.3438        0.0002        2.1649        2.1651       0.821317       0.03305
   4     651.6        1.3825        0.0002        1.9608        1.9609       0.578417       0.03322
   3     718.7        1.4385        0.0002        1.7593        1.7595       0.320986       0.03235
   2     792.3        1.5179        0.0002        1.5761        1.5762       0.058383       0.03012
   1     891.5        0.0028        0.0124        0.0000        0.0124       0.009604       0.00415
   0    1013.0        0.0029        0.0117        0.0000        0.0117       0.008783       0.00006



 Wavenumbers:  3250. -  4000. cm-1, ATM      1
 LEVEL PRESSURE   UPWARD FLUX   DIFDOWN FLUX  DIRDOWN FLUX  DOWNWARD FLUX   NET FLUX    HEATING RATE
          mb          W/m2          W/m2          W/m2        W/m2          W/m2       degree/day
  51    .06700        0.0132        0.0000        5.9117        5.9117       5.898457       0.00000
  50    .07753        0.0132        0.0000        5.9075        5.9075       5.894267       3.35808
  49    .09103        0.0132        0.0000        5.9050        5.9050       5.891824       1.52677
  48    0.1069        0.0132        0.0000        5.9032        5.9032       5.889958       0.99346
  47    0.1255        0.0132        0.0000        5.9014        5.9014       5.888200       0.79708
  46    0.1487        0.0132        0.0000        5.8995        5.8995       5.886311       0.68848
  45    0.1794        0.0132        0.0000        5.8974        5.8974       5.884163       0.58983
  44    0.2165        0.0132        0.0000        5.8952        5.8952       5.882046       0.48155
  43    0.2613        0.0132        0.0000        5.8931        5.8931       5.879887       0.40696
  42    0.3336        0.0132        0.0000        5.8899        5.8899       5.876729       0.36820
  41    0.4307        0.0132        0.0000        5.8861        5.8861       5.872891       0.33365
  40    0.5894        0.0132        0.0000        5.8803        5.8803       5.867089       0.30857
  39     1.339        0.0132        0.0000        5.8597        5.8597       5.846491       0.23189
  38     1.782        0.0132        0.0000        5.8513        5.8513       5.838067       0.16039
  37     2.292        0.0132        0.0000        5.8431        5.8431       5.829896       0.13533
  36     2.964        0.0132        0.0000        5.8334        5.8334       5.820256       0.12100
  35     3.853        0.0132        0.0000        5.8213        5.8213       5.808081       0.11555
  34     5.035        0.0132        0.0000        5.8052        5.8052       5.791985       0.11498
  33     6.613        0.0132        0.0000        5.7833        5.7834       5.770164       0.11666
  32     8.786        0.0132        0.0000        5.7531        5.7531       5.739963       0.11729
  31     11.80        0.0132        0.0000        5.7090        5.7090       5.695794       0.12366
  30     15.07        0.0132        0.0000        5.6615        5.6615       5.648329       0.12254
  29     18.79        0.0132        0.0000        5.6093        5.6094       5.596193       0.11821
  28     23.16        0.0132        0.0000        5.5524        5.5524       5.539268       0.11008
  27     28.12        0.0132        0.0000        5.4935        5.4935       5.480389       0.10009
  26     33.73        0.0132        0.0000        5.4348        5.4349       5.421700       0.08824
  25     40.54        0.0131        0.0001        5.3707        5.3708       5.357638       0.07948
  24     48.69        0.0131        0.0001        5.2985        5.2985       5.285405       0.07475
  23     57.69        0.0131        0.0001        5.2215        5.2216       5.208466       0.07212
  22     68.43        0.0131        0.0001        5.1318        5.1319       5.118806       0.07048
  21     81.20        0.0131        0.0001        5.0284        5.0285       5.015377       0.06834
  20     96.49        0.0131        0.0001        4.9122        4.9123       4.899242       0.06410
  19     114.6        0.0131        0.0001        4.7780        4.7782       4.765131       0.06262
  18     136.5        0.0130        0.0002        4.6285        4.6287       4.615653       0.05748
  17     162.9        0.0130        0.0002        4.4406        4.4407       4.427740       0.06006
  16     196.4        0.0130        0.0002        4.1548        4.1550       4.142064       0.07191
  15     218.7        0.0130        0.0002        3.9564        3.9566       3.943681       0.07532
  14     243.0        0.0129        0.0002        3.7055        3.7058       3.692840       0.08700
  13     269.0        0.0129        0.0002        3.3399        3.3401       3.327184       0.11862
  12     297.5        0.0129        0.0002        2.8954        2.8956       2.882657       0.13184
  11     328.5        0.0130        0.0002        2.4388        2.4390       2.426043       0.12415
  10     361.9        0.0131        0.0002        2.0269        2.0271       2.013968       0.10426
   9     398.1        0.0134        0.0002        1.6753        1.6755       1.662142       0.08197
   8     437.6        0.0138        0.0002        1.3592        1.3594       1.345609       0.06768
   7     480.5        0.0145        0.0002        1.0616        1.0618       1.047275       0.05859
   6     533.0        0.0160        0.0001        0.7543        0.7544       0.738393       0.04969
   5     589.8        0.0189        0.0001        0.4951        0.4952       0.476349       0.03890
   4     651.6        0.0244        0.0001        0.2943        0.2943       0.269894       0.02823
   3     718.7        0.0354        0.0001        0.1528        0.1529       0.117463       0.01916
   2     792.3        0.0578        0.0000        0.0658        0.0658       0.008013       0.01255
   1     891.5        0.0000        0.0000        0.0000        0.0000       0.000001       0.00068
   0    1013.0        0.0000        0.0000        0.0000        0.0000       0.000000       0.00000



 Wavenumbers:  4000. -  4650. cm-1, ATM      1
 LEVEL PRESSURE   UPWARD FLUX   DIFDOWN FLUX  DIRDOWN FLUX  DOWNWARD FLUX   NET FLUX    HEATING RATE
          mb          W/m2          W/m2          W/m2        W/m2          W/m2       degree/day
  51    .06700        4.4630        0.0000        6.9421        6.9421       2.479106       0.00000
  50    .07753        4.4630        0.0000        6.9421        6.9421       2.479105       0.00079
  49    .09103        4.4630        0.0000        6.9421        6.9421       2.479103       0.00078
  48    0.1069        4.4630        0.0000        6.9421        6.9421       2.479102       0.00076
  47    0.1255        4.4630        0.0000        6.9421        6.9421       2.479100       0.00074
  46    0.1487        4.4630        0.0000        6.9421        6.9421       2.479098       0.00075
  45    0.1794        4.4630        0.0000        6.9421        6.9421       2.479095       0.00077
  44    0.2165        4.4630        0.0000        6.9421        6.9421       2.479092       0.00076
  43    0.2613        4.4630        0.0000        6.9420        6.9420       2.479088       0.00074
  42    0.3336        4.4630        0.0000        6.9420        6.9420       2.479082       0.00076
  41    0.4307        4.4630        0.0000        6.9420        6.9420       2.479073       0.00077
  40    0.5894        4.4630        0.0000        6.9420        6.9420       2.479058       0.00079
  39     1.339        4.4630        0.0000        6.9419        6.9419       2.478969       0.00100
  38     1.782        4.4630        0.0000        6.9418        6.9419       2.478900       0.00132
  37     2.292        4.4630        0.0000        6.9418        6.9418       2.478806       0.00155
  36     2.964        4.4630        0.0000        6.9416        6.9416       2.478667       0.00175
  35     3.853        4.4630        0.0000        6.9414        6.9414       2.478460       0.00196
  34     5.035        4.4630        0.0000        6.9411        6.9411       2.478155       0.00218
  33     6.613        4.4629        0.0000        6.9406        6.9407       2.477706       0.00240
  32     8.786        4.4629        0.0000        6.9399        6.9400       2.477045       0.00257
  31     11.80        4.4629        0.0001        6.9389        6.9389       2.476009       0.00290
  30     15.07        4.4629        0.0001        6.9377        6.9377       2.474796       0.00313
  29     18.79        4.4629        0.0001        6.9362        6.9363       2.473333       0.00332
  28     23.16        4.4629        0.0001        6.9343        6.9345       2.471523       0.00350
  27     28.12        4.4629        0.0001        6.9321        6.9323       2.469340       0.00371
  26     33.73        4.4629        0.0002        6.9294        6.9296       2.466660       0.00403
  25     40.54        4.4629        0.0002        6.9258        6.9260       2.463043       0.00449
  24     48.69        4.4630        0.0002        6.9210        6.9212       2.458249       0.00496
  23     57.69        4.4630        0.0003        6.9154        6.9156       2.452604       0.00529
  22     68.43        4.4631        0.0003        6.9083        6.9087       2.445575       0.00553
  21     81.20        4.4632        0.0004        6.8998        6.9001       2.436965       0.00569
  20     96.49        4.4633        0.0004        6.8894        6.8899       2.426544       0.00575
  19     114.6        4.4636        0.0005        6.8765        6.8770       2.413462       0.00611
  18     136.5        4.4640        0.0006        6.8610        6.8616       2.397633       0.00609
  17     162.9        4.4645        0.0007        6.8417        6.8424       2.377855       0.00632
  16     196.4        4.4656        0.0009        6.8147        6.8155       2.349971       0.00702
  15     218.7        4.4665        0.0010        6.7948        6.7958       2.329332       0.00784
  14     243.0        4.4678        0.0011        6.7698        6.7709       2.303047       0.00912
  13     269.0        4.4699        0.0012        6.7349        6.7360       2.266109       0.01198
  12     297.5        4.4731        0.0013        6.6869        6.6882       2.215058       0.01514
  11     328.5        4.4776        0.0014        6.6194        6.6208       2.143196       0.01954
  10     361.9        4.4836        0.0016        6.5295        6.5310       2.047459       0.02422
   9     398.1        4.4915        0.0017        6.4202        6.4219       1.930467       0.02726
   8     437.6        4.5021        0.0019        6.2962        6.2980       1.795972       0.02876
   7     480.5        4.5169        0.0020        6.1555        6.1575       1.640627       0.03051
   6     533.0        4.5413        0.0022        5.9675        5.9697       1.428441       0.03413
   5     589.8        4.5774        0.0024        5.7368        5.7391       1.161699       0.03959
   4     651.6        4.6317        0.0025        5.4662        5.4688       0.837035       0.04440
   3     718.7        4.7101        0.0027        5.1912        5.1939       0.483823       0.04439
   2     792.3        4.8201        0.0029        4.9395        4.9423       0.122275       0.04147
   1     891.5        0.0150        0.0623        0.0000        0.0623       0.047285       0.00638
   0    1013.0        0.0153        0.0611        0.0000        0.0611       0.045756       0.00011



 Wavenumbers:  4650. -  5150. cm-1, ATM      1
 LEVEL PRESSURE   UPWARD FLUX   DIFDOWN FLUX  DIRDOWN FLUX  DOWNWARD FLUX   NET FLUX    HEATING RATE
          mb          W/m2          W/m2          W/m2        W/m2          W/m2       degree/day
  51    .06700        3.1373        0.0000        6.5710        6.5710       3.433726       0.00000
  50    .07753        3.1373        0.0000        6.5708        6.5708       3.433490       0.18887
  49    .09103        3.1373        0.0000        6.5705        6.5705       3.433196       0.18362
  48    0.1069        3.1373        0.0000        6.5701        6.5701       3.432862       0.17806
  47    0.1255        3.1373        0.0000        6.5697        6.5697       3.432481       0.17238
  46    0.1487        3.1373        0.0000        6.5693        6.5693       3.432008       0.17268
  45    0.1794        3.1373        0.0000        6.5686        6.5686       3.431371       0.17474
  44    0.2165        3.1373        0.0000        6.5679        6.5679       3.430633       0.16788
  43    0.2613        3.1373        0.0000        6.5670        6.5670       3.429780       0.16078
  42    0.3336        3.1373        0.0000        6.5657        6.5657       3.428417       0.15894
  41    0.4307        3.1373        0.0000        6.5640        6.5640       3.426695       0.14971
  40    0.5894        3.1373        0.0000        6.5613        6.5613       3.424079       0.13913
  39     1.339        3.1373        0.0000        6.5516        6.5516       3.414301       0.11008
  38     1.782        3.1373        0.0000        6.5473        6.5473       3.410085       0.08027
  37     2.292        3.1373        0.0000        6.5434        6.5435       3.406197       0.06439
  36     2.964        3.1373        0.0000        6.5395        6.5395       3.402242       0.04965
  35     3.853        3.1373        0.0000        6.5355        6.5356       3.398298       0.03743
  34     5.035        3.1373        0.0000        6.5315        6.5315       3.394293       0.02861
  33     6.613        3.1373        0.0000        6.5271        6.5271       3.389894       0.02351
  32     8.786        3.1373        0.0001        6.5216        6.5216       3.384392       0.02137
  31     11.80        3.1373        0.0001        6.5135        6.5136       3.376300       0.02266
  30     15.07        3.1373        0.0001        6.5041        6.5042       3.366912       0.02424
  29     18.79        3.1373        0.0001        6.4925        6.4927       3.355371       0.02617
  28     23.16        3.1373        0.0002        6.4779        6.4780       3.340742       0.02829
  27     28.12        3.1373        0.0002        6.4599        6.4601       3.322717       0.03064
  26     33.73        3.1374        0.0002        6.4384        6.4386       3.301220       0.03232
  25     40.54        3.1375        0.0003        6.4112        6.4115       3.274001       0.03377
  24     48.69        3.1376        0.0003        6.3775        6.3778       3.240233       0.03495
  23     57.69        3.1378        0.0004        6.3404        6.3408       3.202974       0.03493
  22     68.43        3.1380        0.0004        6.2971        6.2976       3.159553       0.03413
  21     81.20        3.1384        0.0005        6.2483        6.2488       3.110420       0.03247
  20     96.49        3.1388        0.0006        6.1948        6.1954       3.056612       0.02970
  19     114.6        3.1395        0.0007        6.1381        6.1389       2.999376       0.02672
  18     136.5        3.1404        0.0009        6.0790        6.0799       2.939442       0.02305
  17     162.9        3.1417        0.0010        6.0160        6.0171       2.875335       0.02049
  16     196.4        3.1438        0.0012        5.9399        5.9411       2.797319       0.01964
  15     218.7        3.1454        0.0013        5.8896        5.8910       2.745586       0.01964
  14     243.0        3.1475        0.0015        5.8322        5.8337       2.686144       0.02062
  13     269.0        3.1505        0.0016        5.7624        5.7640       2.613480       0.02357
  12     297.5        3.1548        0.0018        5.6767        5.6785       2.523679       0.02663
  11     328.5        3.1607        0.0019        5.5726        5.5745       2.413871       0.02986
  10     361.9        3.1686        0.0021        5.4473        5.4494       2.280892       0.03365
   9     398.1        3.1791        0.0023        5.2995        5.3018       2.122654       0.03687
   8     437.6        3.1933        0.0025        5.1275        5.1299       1.936626       0.03977
   7     480.5        3.2127        0.0026        4.9290        4.9316       1.718911       0.04276
   6     533.0        3.2434        0.0028        4.6794        4.6822       1.438781       0.04506
   5     589.8        3.2865        0.0030        4.4188        4.4218       1.135234       0.04506
   4     651.6        3.3480        0.0032        4.1521        4.1552       0.807230       0.04486
   3     718.7        3.4324        0.0033        3.8929        3.8963       0.463887       0.04315
   2     792.3        3.5463        0.0035        3.6469        3.6504       0.104079       0.04127
   1     891.5        0.0096        0.0403        0.0000        0.0403       0.030737       0.00624
   0    1013.0        0.0098        0.0392        0.0000        0.0392       0.029378       0.00009



 Wavenumbers:  5150. -  6150. cm-1, ATM      1
 LEVEL PRESSURE   UPWARD FLUX   DIFDOWN FLUX  DIRDOWN FLUX  DOWNWARD FLUX   NET FLUX    HEATING RATE
          mb          W/m2          W/m2          W/m2        W/m2          W/m2       degree/day
  51    .06700        7.7121        0.0000       16.4735       16.4735       8.761396       0.00000
  50    .07753        7.7121        0.0000       16.4735       16.4735       8.761361       0.02765
  49    .09103        7.7121        0.0000       16.4734       16.4734       8.761316       0.02814
  48    0.1069        7.7121        0.0000       16.4734       16.4734       8.761262       0.02863
  47    0.1255        7.7121        0.0000       16.4733       16.4733       8.761198       0.02908
  46    0.1487        7.7121        0.0000       16.4732       16.4732       8.761114       0.03063
  45    0.1794        7.7121        0.0000       16.4731       16.4731       8.760995       0.03273
  44    0.2165        7.7121        0.0000       16.4730       16.4730       8.760849       0.03335
  43    0.2613        7.7121        0.0000       16.4728       16.4728       8.760669       0.03380
  42    0.3336        7.7121        0.0000       16.4725       16.4725       8.760363       0.03568
  41    0.4307        7.7121        0.0000       16.4720       16.4720       8.759944       0.03649
  40    0.5894        7.7121        0.0000       16.4713       16.4713       8.759242       0.03732
  39     1.339        7.7121        0.0000       16.4679       16.4679       8.755829       0.03842
  38     1.782        7.7121        0.0001       16.4659       16.4659       8.753826       0.03813
  37     2.292        7.7121        0.0001       16.4635       16.4636       8.751530       0.03802
  36     2.964        7.7121        0.0001       16.4605       16.4606       8.748554       0.03736
  35     3.853        7.7121        0.0001       16.4567       16.4568       8.744691       0.03666
  34     5.035        7.7121        0.0001       16.4516       16.4517       8.739680       0.03580
  33     6.613        7.7121        0.0002       16.4451       16.4453       8.733198       0.03465
  32     8.786        7.7121        0.0003       16.4367       16.4369       8.724855       0.03240
  31     11.80        7.7121        0.0004       16.4254       16.4257       8.713654       0.03136
  30     15.07        7.7121        0.0004       16.4141       16.4146       8.702509       0.02877
  29     18.79        7.7121        0.0006       16.4024       16.4030       8.690917       0.02628
  28     23.16        7.7121        0.0007       16.3900       16.3907       8.678568       0.02388
  27     28.12        7.7121        0.0008       16.3771       16.3779       8.665796       0.02171
  26     33.73        7.7122        0.0010       16.3641       16.3651       8.652936       0.01934
  25     40.54        7.7123        0.0012       16.3502       16.3514       8.639113       0.01715
  24     48.69        7.7124        0.0014       16.3354       16.3368       8.624395       0.01523
  23     57.69        7.7126        0.0017       16.3211       16.3228       8.610200       0.01331
  22     68.43        7.7128        0.0020       16.3062       16.3083       8.595439       0.01160
  21     81.20        7.7132        0.0024       16.2903       16.2927       8.579580       0.01048
  20     96.49        7.7136        0.0029       16.2726       16.2755       8.561931       0.00974
  19     114.6        7.7141        0.0034       16.2521       16.2555       8.541412       0.00958
  18     136.5        7.7147        0.0040       16.2245       16.2286       8.513884       0.01059
  17     162.9        7.7155        0.0048       16.1747       16.1795       8.464020       0.01594
  16     196.4        7.7167        0.0057       16.0518       16.0576       8.340921       0.03099
  15     218.7        7.7175        0.0064       15.8984       15.9047       8.187229       0.05835
  14     243.0        7.7186        0.0070       15.6153       15.6222       7.903678       0.09834
  13     269.0        7.7200        0.0076       15.1390       15.1466       7.426550       0.15478
  12     297.5        7.7221        0.0082       14.5779       14.5861       6.863941       0.16686
  11     328.5        7.7252        0.0087       13.8780       13.8868       6.161559       0.19098
  10     361.9        7.7297        0.0093       13.0814       13.0907       5.360973       0.20256
   9     398.1        7.7363        0.0097       12.2728       12.2826       4.546304       0.18980
   8     437.6        7.7460        0.0102       11.4776       11.4878       3.741798       0.17201
   7     480.5        7.7609        0.0106       10.7300       10.7406       2.979707       0.14967
   6     533.0        7.7876        0.0111       10.0326       10.0437       2.256153       0.11640
   5     589.8        7.8303        0.0118        9.5050        9.5168       1.686497       0.08456
   4     651.6        7.8995        0.0125        9.0814        9.0939       1.194436       0.06729
   3     718.7        8.0062        0.0134        8.7024        8.7158       0.709605       0.06093
   2     792.3        8.1650        0.0143        8.3379        8.3523       0.187297       0.05990
   1     891.5        0.0291        0.1186        0.0000        0.1186       0.089502       0.00832
   0    1013.0        0.0294        0.1172        0.0000        0.1172       0.087791       0.00012



 Wavenumbers:  6150. -  7700. cm-1, ATM      1
 LEVEL PRESSURE   UPWARD FLUX   DIFDOWN FLUX  DIRDOWN FLUX  DOWNWARD FLUX   NET FLUX    HEATING RATE
          mb          W/m2          W/m2          W/m2        W/m2          W/m2       degree/day
  51    .06700       12.0800        0.0000       30.4684       30.4684      18.388371       0.00000
  50    .07753       12.0800        0.0000       30.4683       30.4683      18.388320       0.04144
  49    .09103       12.0800        0.0000       30.4683       30.4683      18.388253       0.04174
  48    0.1069       12.0800        0.0000       30.4682       30.4682      18.388174       0.04202
  47    0.1255       12.0800        0.0000       30.4681       30.4681      18.388081       0.04227
  46    0.1487       12.0800        0.0000       30.4680       30.4680      18.387960       0.04411
  45    0.1794       12.0800        0.0000       30.4678       30.4678      18.387790       0.04669
  44    0.2165       12.0800        0.0000       30.4676       30.4676      18.387583       0.04715
  43    0.2613       12.0800        0.0000       30.4673       30.4673      18.387331       0.04744
  42    0.3336       12.0800        0.0000       30.4669       30.4669      18.386904       0.04974
  41    0.4307       12.0800        0.0000       30.4663       30.4663      18.386323       0.05052
  40    0.5894       12.0800        0.0001       30.4653       30.4653      18.385355       0.05146
  39     1.339       12.0799        0.0002       30.4604       30.4606      18.380672       0.05273
  38     1.782       12.0799        0.0002       30.4576       30.4578      18.377922       0.05235
  37     2.292       12.0798        0.0003       30.4543       30.4546      18.374764       0.05231
  36     2.964       12.0798        0.0004       30.4501       30.4504      18.370656       0.05156
  35     3.853       12.0797        0.0005       30.4445       30.4450      18.365299       0.05084
  34     5.035       12.0796        0.0006       30.4373       30.4379      18.358299       0.05000
  33     6.613       12.0794        0.0008       30.4278       30.4286      18.349151       0.04890
  32     8.786       12.0793        0.0011       30.4154       30.4165      18.337198       0.04642
  31     11.80       12.0790        0.0014       30.3984       30.3998      18.320812       0.04588
  30     15.07       12.0787        0.0019       30.3810       30.3828      18.304098       0.04315
  29     18.79       12.0784        0.0023       30.3623       30.3646      18.286196       0.04059
  28     23.16       12.0780        0.0028       30.3417       30.3445      18.266512       0.03806
  27     28.12       12.0776        0.0035       30.3196       30.3230      18.245410       0.03587
  26     33.73       12.0771        0.0041       30.2965       30.3006      18.223489       0.03296
  25     40.54       12.0766        0.0050       30.2708       30.2757      18.199148       0.03020
  24     48.69       12.0759        0.0060       30.2423       30.2482      18.172366       0.02771
  23     57.69       12.0751        0.0070       30.2139       30.2209      18.145794       0.02491
  22     68.43       12.0742        0.0084       30.1834       30.1917      18.117510       0.02223
  21     81.20       12.0731        0.0099       30.1500       30.1599      18.086769       0.02031
  20     96.49       12.0719        0.0118       30.1126       30.1244      18.052535       0.01889
  19     114.6       12.0703        0.0140       30.0695       30.0835      18.013125       0.01840
  18     136.5       12.0686        0.0166       30.0139       30.0305      17.961930       0.01969
  17     162.9       12.0665        0.0197       29.9225       29.9422      17.875668       0.02757
  16     196.4       12.0639        0.0237       29.7333       29.7570      17.693091       0.04596
  15     218.7       12.0623        0.0262       29.5259       29.5521      17.489755       0.07720
  14     243.0       12.0608        0.0289       29.1375       29.1664      17.105535       0.13326
  13     269.0       12.0599        0.0315       28.3800       28.4115      16.351634       0.24456
  12     297.5       12.0600        0.0340       27.3895       27.4236      15.363581       0.29305
  11     328.5       12.0620        0.0364       26.2257       26.2621      14.200164       0.31633
  10     361.9       12.0671        0.0387       24.8453       24.8840      12.816917       0.34998
   9     398.1       12.0771        0.0407       23.3471       23.3878      11.310730       0.35091
   8     437.6       12.0949        0.0426       21.7966       21.8392       9.744311       0.33491
   7     480.5       12.1265        0.0441       20.1977       20.2418       8.115310       0.31993
   6     533.0       12.1880        0.0458       18.4969       18.5427       6.354717       0.28322
   5     589.8       12.2906        0.0475       16.9754       17.0229       4.732341       0.24081
   4     651.6       12.4606        0.0493       15.6022       15.6514       3.190831       0.21081
   3     718.7       12.7253        0.0512       14.4232       14.4744       1.749071       0.18119
   2     792.3       13.1237        0.0534       13.4386       13.4920       0.368332       0.15836
   1     891.5        0.0403        0.1666        0.0000        0.1666       0.126292       0.02060
   0    1013.0        0.0410        0.1634        0.0000        0.1634       0.122441       0.00027



 Wavenumbers:  7700. -  8050. cm-1, ATM      1
 LEVEL PRESSURE   UPWARD FLUX   DIFDOWN FLUX  DIRDOWN FLUX  DOWNWARD FLUX   NET FLUX    HEATING RATE
          mb          W/m2          W/m2          W/m2        W/m2          W/m2       degree/day
  51    .06700        5.6999        0.0000        7.2006        7.2006       1.500647       0.00000
  50    .07753        5.6999        0.0000        7.2006        7.2006       1.500625       0.01726
  49    .09103        5.6999        0.0000        7.2005        7.2005       1.500598       0.01692
  48    0.1069        5.7000        0.0000        7.2005        7.2005       1.500567       0.01656
  47    0.1255        5.7000        0.0000        7.2005        7.2005       1.500531       0.01621
  46    0.1487        5.7000        0.0000        7.2004        7.2005       1.500486       0.01645
  45    0.1794        5.7000        0.0000        7.2004        7.2004       1.500424       0.01692
  44    0.2165        5.7000        0.0000        7.2003        7.2003       1.500351       0.01660
  43    0.2613        5.7000        0.0000        7.2003        7.2003       1.500265       0.01629
  42    0.3336        5.7000        0.0000        7.2001        7.2001       1.500122       0.01667
  41    0.4307        5.7001        0.0000        7.2000        7.2000       1.499932       0.01648
  40    0.5894        5.7001        0.0000        7.1997        7.1997       1.499623       0.01647
  39     1.339        5.7003        0.0001        7.1984        7.1985       1.498158       0.01649
  38     1.782        5.7005        0.0001        7.1977        7.1978       1.497298       0.01637
  37     2.292        5.7007        0.0001        7.1968        7.1970       1.496303       0.01649
  36     2.964        5.7009        0.0002        7.1957        7.1959       1.494996       0.01640
  35     3.853        5.7011        0.0002        7.1942        7.1944       1.493271       0.01637
  34     5.035        5.7015        0.0003        7.1922        7.1925       1.490980       0.01637
  33     6.613        5.7020        0.0004        7.1896        7.1900       1.487922       0.01635
  32     8.786        5.7027        0.0005        7.1860        7.1865       1.483806       0.01599
  31     11.80        5.7037        0.0006        7.1810        7.1816       1.477927       0.01646
  30     15.07        5.7047        0.0008        7.1755        7.1764       1.471629       0.01626
  29     18.79        5.7059        0.0010        7.1694        7.1705       1.464532       0.01609
  28     23.16        5.7073        0.0013        7.1623        7.1636       1.456267       0.01598
  27     28.12        5.7089        0.0015        7.1542        7.1558       1.446848       0.01601
  26     33.73        5.7107        0.0018        7.1452        7.1471       1.436350       0.01578
  25     40.54        5.7129        0.0022        7.1344        7.1366       1.423726       0.01566
  24     48.69        5.7156        0.0026        7.1215        7.1242       1.408594       0.01566
  23     57.69        5.7185        0.0031        7.1074        7.1106       1.392084       0.01548
  22     68.43        5.7220        0.0037        7.0909        7.0946       1.372569       0.01534
  21     81.20        5.7262        0.0044        7.0713        7.0757       1.349528       0.01522
  20     96.49        5.7313        0.0052        7.0484        7.0536       1.322364       0.01499
  19     114.6        5.7373        0.0062        7.0217        7.0278       1.290505       0.01488
  18     136.5        5.7446        0.0073        6.9906        6.9979       1.253273       0.01432
  17     162.9        5.7534        0.0087        6.9544        6.9631       1.209636       0.01395
  16     196.4        5.7651        0.0104        6.9087        6.9192       1.154111       0.01398
  15     218.7        5.7728        0.0116        6.8794        6.8910       1.118184       0.01364
  14     243.0        5.7814        0.0128        6.8481        6.8609       1.079550       0.01340
  13     269.0        5.7909        0.0142        6.8147        6.8289       1.038022       0.01347
  12     297.5        5.8014        0.0156        6.7791        6.7947       0.993332       0.01325
  11     328.5        5.8131        0.0172        6.7409        6.7581       0.945060       0.01313
  10     361.9        5.8262        0.0189        6.7002        6.7190       0.892834       0.01321
   9     398.1        5.8410        0.0207        6.6563        6.6770       0.835976       0.01325
   8     437.6        5.8577        0.0226        6.6089        6.6315       0.773751       0.01330
   7     480.5        5.8770        0.0247        6.5570        6.5817       0.704677       0.01357
   6     533.0        5.9028        0.0272        6.4915        6.5187       0.615907       0.01428
   5     589.8        5.9335        0.0300        6.4182        6.4482       0.514695       0.01502
   4     651.6        5.9704        0.0329        6.3359        6.3687       0.398385       0.01591
   3     718.7        6.0143        0.0359        6.2441        6.2801       0.265781       0.01666
   2     792.3        6.0659        0.0392        6.1437        6.1829       0.117028       0.01706
   1     891.5        0.0215        0.0886        0.0000        0.0886       0.067026       0.00425
   0    1013.0        0.0218        0.0871        0.0000        0.0871       0.065299       0.00012



 Wavenumbers:  8050. - 12850. cm-1, ATM      1
 LEVEL PRESSURE   UPWARD FLUX   DIFDOWN FLUX  DIRDOWN FLUX  DOWNWARD FLUX   NET FLUX    HEATING RATE
          mb          W/m2          W/m2          W/m2        W/m2          W/m2       degree/day
  51    .06700       74.2162        0.0000      100.8135      100.8135      26.597300       0.00000
  50    .07753       74.2162        0.0000      100.8135      100.8135      26.597300       0.00000
  49    .09103       74.2162        0.0001      100.8134      100.8135      26.597300       0.00000
  48    0.1069       74.2162        0.0001      100.8134      100.8135      26.597300      -0.00000
  47    0.1255       74.2161        0.0002      100.8133      100.8134      26.597300       0.00000
  46    0.1487       74.2161        0.0002      100.8132      100.8134      26.597300      -0.00000
  45    0.1794       74.2161        0.0003      100.8131      100.8134      26.597300       0.00000
  44    0.2165       74.2160        0.0004      100.8129      100.8133      26.597300       0.00000
  43    0.2613       74.2160        0.0005      100.8127      100.8133      26.597300      -0.00000
  42    0.3336       74.2159        0.0007      100.8125      100.8132      26.597300       0.00000
  41    0.4307       74.2157        0.0010      100.8121      100.8130      26.597300       0.00000
  40    0.5894       74.2155        0.0014      100.8115      100.8128      26.597300      -0.00000
  39     1.339       74.2146        0.0034      100.8085      100.8119      26.597300      -0.00000
  38     1.782       74.2140        0.0045      100.8068      100.8113      26.597300       0.00000
  37     2.292       74.2133        0.0059      100.8047      100.8106      26.597300       0.00000
  36     2.964       74.2125        0.0077      100.8021      100.8098      26.597300      -0.00000
  35     3.853       74.2113        0.0100      100.7986      100.8086      26.597300       0.00000
  34     5.035       74.2098        0.0131      100.7940      100.8071      26.597300      -0.00000
  33     6.613       74.2078        0.0173      100.7878      100.8051      26.597300       0.00000
  32     8.786       74.2050        0.0229      100.7794      100.8023      26.597300       0.00000
  31     11.80       74.2011        0.0310      100.7674      100.7984      26.597300      -0.00000
  30     15.07       74.1969        0.0396      100.7546      100.7942      26.597300       0.00000
  29     18.79       74.1921        0.0494      100.7400      100.7894      26.597300      -0.00000
  28     23.16       74.1865        0.0608      100.7230      100.7838      26.597300       0.00000
  27     28.12       74.1801        0.0739      100.7035      100.7774      26.597300       0.00000
  26     33.73       74.1729        0.0886      100.6817      100.7702      26.597300       0.00000
  25     40.54       74.1643        0.1063      100.6552      100.7616      26.597300      -0.00000
  24     48.69       74.1538        0.1278      100.6234      100.7511      26.597300       0.00000
  23     57.69       74.1423        0.1513      100.5883      100.7396      26.597300      -0.00000
  22     68.43       74.1286        0.1794      100.5464      100.7259      26.597300       0.00000
  21     81.20       74.1122        0.2130      100.4965      100.7095      26.597300       0.00000
  20     96.49       74.0926        0.2530      100.4370      100.6899      26.597300      -0.00000
  19     114.6       74.0696        0.3006      100.3585      100.6590      26.589464       0.00366
  18     136.5       74.0422        0.3571      100.2634      100.6204      26.578200       0.00433
  17     162.9       74.0098        0.4245      100.1407      100.5652      26.555403       0.00729
  16     196.4       73.9678        0.5121       99.9505      100.4626      26.494767       0.01526
  15     218.7       73.9404        0.5696       99.7889      100.3586      26.418196       0.02907
  14     243.0       73.9112        0.6321       99.5472      100.1793      26.268134       0.05205
  13     269.0       73.8818        0.6996       99.1452       99.8448      25.963001       0.09898
  12     297.5       73.8541        0.7721       98.5975       99.3695      25.515374       0.13276
  11     328.5       73.8314        0.8498       97.8659       98.7156      24.884242       0.17160
  10     361.9       73.8184        0.9325       96.8848       97.8173      23.998918       0.22400
   9     398.1       73.8216        1.0201       95.6330       96.6531      22.831480       0.27199
   8     437.6       73.8531        1.1122       94.0655       95.1777      21.324592       0.32218
   7     480.5       73.9362        1.2078       92.0807       93.2886      19.352302       0.38735
   6     533.0       74.1238        1.3214       89.4449       90.7662      16.642455       0.43593
   5     589.8       74.4567        1.4393       86.5544       87.9936      13.536938       0.46096
   4     651.6       75.0194        1.5610       83.4174       84.9784       9.958918       0.48930
   3     718.7       75.8857        1.6874       80.2037       81.8910       6.005319       0.49686
   2     792.3       77.1486        1.8192       77.0811       78.9003       1.751696       0.48784
   1     891.5        0.2710        1.1078        0.0000        1.1078       0.836848       0.07785
   0    1013.0        0.2736        1.0914        0.0000        1.0914       0.817763       0.00133



 Wavenumbers: 12850. - 16000. cm-1, ATM      1
 LEVEL PRESSURE   UPWARD FLUX   DIFDOWN FLUX  DIRDOWN FLUX  DOWNWARD FLUX   NET FLUX    HEATING RATE
          mb          W/m2          W/m2          W/m2        W/m2          W/m2       degree/day
  51    .06700       52.9996        0.0000       63.1686       63.1686      10.168947       0.00000
  50    .07753       52.9996        0.0001       63.1677       63.1678      10.168163       0.62841
  49    .09103       52.9996        0.0001       63.1666       63.1668      10.167185       0.61130
  48    0.1069       52.9996        0.0002       63.1654       63.1656      10.166070       0.59348
  47    0.1255       52.9996        0.0003       63.1640       63.1644      10.164801       0.57566
  46    0.1487       52.9995        0.0005       63.1623       63.1628      10.163214       0.57821
  45    0.1794       52.9995        0.0006       63.1600       63.1606      10.161083       0.58499
  44    0.2165       52.9995        0.0009       63.1573       63.1582      10.158614       0.56177
  43    0.2613       52.9996        0.0011       63.1542       63.1553      10.155758       0.53830
  42    0.3336       52.9996        0.0015       63.1493       63.1508      10.151193       0.53224
  41    0.4307       52.9998        0.0021       63.1431       63.1452      10.145460       0.49847
  40    0.5894       53.0001        0.0030       63.1338       63.1368      10.136721       0.46472
  39     1.339       53.0036        0.0072       63.0956       63.1028      10.099177       0.42268
  38     1.782       53.0072        0.0097       63.0740       63.0838      10.076570       0.43039
  37     2.292       53.0127        0.0126       63.0477       63.0603      10.047607       0.47971
  36     2.964       53.0220        0.0164       63.0095       63.0260      10.003945       0.54809
  35     3.853       53.0373        0.0214       62.9533       62.9747       9.937410       0.63143
  34     5.035       53.0605        0.0281       62.8725       62.9006       9.840095       0.69518
  33     6.613       53.0930        0.0370       62.7621       62.7990       9.706028       0.71672
  32     8.786       53.1352        0.0489       62.6182       62.6672       9.531916       0.67619
  31     11.80       53.1899        0.0660       62.4284       62.4943       9.304423       0.63691
  30     15.07       53.2419        0.0842       62.2426       62.3268       9.084980       0.56656
  29     18.79       53.2945        0.1048       62.0493       62.1541       8.859614       0.51097
  28     23.16       53.3490        0.1288       61.8424       61.9713       8.622243       0.45900
  27     28.12       53.4033        0.1562       61.6278       61.7840       8.380793       0.41045
  26     33.73       53.4523        0.1869       61.4177       61.6045       8.152233       0.34365
  25     40.54       53.4981        0.2238       61.1983       61.4221       7.924042       0.28310
  24     48.69       53.5402        0.2683       60.9680       61.2363       7.696129       0.23585
  23     57.69       53.5737        0.3171       60.7478       61.0649       7.491203       0.19209
  22     68.43       53.6000        0.3752       60.5202       60.8954       7.295437       0.15390
  21     81.20       53.6125        0.4445       60.2938       60.7383       7.125802       0.11209
  20     96.49       53.6101        0.5270       60.0643       60.5913       6.981200       0.07981
  19     114.6       53.6064        0.6256       59.8078       60.4334       6.826993       0.07200
  18     136.5       53.5946        0.7424       59.5157       60.2581       6.663485       0.06287
  17     162.9       53.5738        0.8812       59.1770       60.0582       6.484412       0.05724
  16     196.4       53.5323        1.0608       58.7604       59.8212       6.288958       0.04920
  15     218.7       53.4998        1.1785       58.4948       59.6733       6.173443       0.04386
  14     243.0       53.4626        1.3063       58.2089       59.5152       6.052591       0.04192
  13     269.0       53.4205        1.4445       57.9006       59.3451       5.924530       0.04154
  12     297.5       53.3742        1.5936       57.5668       59.1604       5.786159       0.04104
  11     328.5       53.3256        1.7544       57.2005       58.9549       5.629268       0.04266
  10     361.9       53.2763        1.9271       56.7963       58.7235       5.447222       0.04606
   9     398.1       53.2280        2.1125       56.3475       58.4600       5.232035       0.05013
   8     437.6       53.1846        2.3108       55.8422       58.1530       4.968367       0.05637
   7     480.5       53.1532        2.5222       55.2625       57.7847       4.631510       0.06616
   6     533.0       53.1398        2.7805       54.4972       57.2777       4.137819       0.07942
   5     589.8       53.1576        3.0556       53.6307       56.6863       3.528714       0.09041
   4     651.6       53.2222        3.3470       52.6606       56.0075       2.785332       0.10166
   3     718.7       53.3441        3.6548       51.6100       55.2649       1.920774       0.10865
   2     792.3       53.5373        3.9793       50.5019       54.4811       0.943825       0.11205
   1     891.5        0.8014        1.4555        0.0000        1.4555       0.654015       0.02466
   0    1013.0        0.8047        1.4428        0.0000        1.4428       0.638155       0.00110



 Wavenumbers: 16000. - 22650. cm-1, ATM      1
 LEVEL PRESSURE   UPWARD FLUX   DIFDOWN FLUX  DIRDOWN FLUX  DOWNWARD FLUX   NET FLUX    HEATING RATE
          mb          W/m2          W/m2          W/m2        W/m2          W/m2       degree/day
  51    .06700       88.5873        0.0000      100.7153      100.7153      12.127958       0.00000
  50    .07753       88.5872        0.0003      100.7147      100.7151      12.127835       0.09881
  49    .09103       88.5871        0.0008      100.7140      100.7148      12.127656       0.11207
  48    0.1069       88.5870        0.0013      100.7131      100.7144      12.127415       0.12779
  47    0.1255       88.5868        0.0018      100.7121      100.7139      12.127094       0.14567
  46    0.1487       88.5867        0.0025      100.7108      100.7133      12.126621       0.17261
  45    0.1794       88.5865        0.0035      100.7089      100.7124      12.125880       0.20324
  44    0.2165       88.5863        0.0047      100.7066      100.7112      12.124876       0.22842
  43    0.2613       88.5862        0.0060      100.7037      100.7097      12.123514       0.25679
  42    0.3336       88.5861        0.0083      100.6987      100.7070      12.120924       0.30198
  41    0.4307       88.5860        0.0113      100.6918      100.7030      12.117020       0.33945
  40    0.5894       88.5863        0.0162      100.6797      100.6959      12.109574       0.39594
  39     1.339       88.5942        0.0393      100.6095      100.6488      12.054576       0.61918
  38     1.782       88.6036        0.0529      100.5585      100.6114      12.007737       0.89174
  37     2.292       88.6189        0.0686      100.4903      100.5589      11.939956       1.12264
  36     2.964       88.6458        0.0892      100.3868      100.4760      11.830194       1.37784
  35     3.853       88.6909        0.1165      100.2306      100.3471      11.656140       1.65180
  34     5.035       88.7603        0.1526      100.0045      100.1570      11.396712       1.85324
  33     6.613       88.8579        0.2007       99.6939       99.8946      11.036669       1.92479
  32     8.786       88.9844        0.2654       99.2881       99.5534      10.569015       1.81620
  31     11.80       89.1470        0.3577       98.7496       99.1073       9.960287       1.70425
  30     15.07       89.3000        0.4564       98.2198       98.6763       9.376260       1.50784
  29     18.79       89.4535        0.5676       97.6651       98.2328       8.779280       1.35354
  28     23.16       89.6104        0.6971       97.0671       97.7642       8.153764       1.20954
  27     28.12       89.7638        0.8445       96.4406       97.2851       7.521252       1.07523
  26     33.73       89.8981        1.0091       95.8179       96.8270       6.928882       0.89064
  25     40.54       90.0169        1.2072       95.1548       96.3621       6.345137       0.72420
  24     48.69       90.1183        1.4453       94.4420       95.8873       5.768994       0.59622
  23     57.69       90.1891        1.7058       93.7416       95.4474       5.258312       0.47869
  22     68.43       90.2298        2.0149       92.9954       95.0102       4.780361       0.37573
  21     81.20       90.2187        2.3818       92.2231       94.6049       4.386175       0.26047
  20     96.49       90.1504        2.8172       91.4110       94.2281       4.077752       0.17023
  19     114.6       90.0418        3.3308       90.5070       93.8378       3.795983       0.13157
  18     136.5       89.8953        3.9348       89.4803       93.4150       3.519698       0.10624
  17     162.9       89.7055        4.6472       88.3022       92.9494       3.243943       0.08814
  16     196.4       89.4249        5.5612       86.8606       92.4218       2.996930       0.06218
  15     218.7       89.2289        6.1553       85.9492       92.1045       2.875675       0.04604
  14     243.0       89.0112        6.7956       84.9789       91.7746       2.763353       0.03896
  13     269.0       88.7710        7.4832       83.9493       91.4325       2.661536       0.03303
  12     297.5       88.5076        8.2190       82.8589       91.0779       2.570341       0.02705
  11     328.5       88.2232        9.0056       81.6982       90.7039       2.480676       0.02438
  10     361.9       87.9180        9.8430       80.4669       90.3100       2.391948       0.02245
   9     398.1       87.5916       10.7333       79.1611       89.8944       2.302827       0.02076
   8     437.6       87.2449       11.6769       77.7777       89.4547       2.209718       0.01991
   7     480.5       86.8789       12.6744       76.3136       88.9881       2.109127       0.01976
   6     533.0       86.4375       13.8827       74.5359       88.4186       1.981104       0.02059
   5     589.8       85.9745       15.1613       72.6469       87.8082       1.833688       0.02188
   4     651.6       85.4937       16.5085       70.6456       87.1541       1.660393       0.02370
   3     718.7       84.9959       17.9225       68.5367       86.4592       1.463215       0.02478
   2     792.3       84.4847       19.3982       66.3287       85.7269       1.242192       0.02535
   1     891.5        4.1313        5.2755        0.0000        5.2755       1.144203       0.00834
   0    1013.0        4.1235        5.2548        0.0000        5.2548       1.131367       0.00089



 Wavenumbers: 22650. - 29000. cm-1, ATM      1
 LEVEL PRESSURE   UPWARD FLUX   DIFDOWN FLUX  DIRDOWN FLUX  DOWNWARD FLUX   NET FLUX    HEATING RATE
          mb          W/m2          W/m2          W/m2        W/m2          W/m2       degree/day
  51    .06700       37.5274        0.0000       38.0063       38.0063       0.478873       0.00000
  50    .07753       37.5273        0.0004       38.0057       38.0061       0.478873       0.00000
  49    .09103       37.5271        0.0009       38.0050       38.0059       0.478873      -0.00000
  48    0.1069       37.5268        0.0015       38.0042       38.0057       0.478873      -0.00000
  47    0.1255       37.5266        0.0021       38.0033       38.0055       0.478873       0.00000
  46    0.1487       37.5262        0.0029       38.0022       38.0051       0.478873      -0.00000
  45    0.1794       37.5258        0.0041       38.0006       38.0047       0.478873       0.00000
  44    0.2165       37.5253        0.0054       37.9987       38.0041       0.478873      -0.00000
  43    0.2613       37.5246        0.0070       37.9965       38.0035       0.478873       0.00000
  42    0.3336       37.5236        0.0096       37.9928       38.0025       0.478873       0.00000
  41    0.4307       37.5222        0.0131       37.9880       38.0011       0.478873       0.00000
  40    0.5894       37.5200        0.0188       37.9800       37.9988       0.478873       0.00000
  39     1.339       37.5093        0.0457       37.9425       37.9882       0.478873       0.00000
  38     1.782       37.5031        0.0615       37.9204       37.9819       0.478873      -0.00000
  37     2.292       37.4958        0.0798       37.8949       37.9747       0.478873       0.00000
  36     2.964       37.4864        0.1038       37.8614       37.9652       0.478873       0.00000
  35     3.853       37.4738        0.1355       37.8172       37.9527       0.478873       0.00000
  34     5.035       37.4572        0.1775       37.7586       37.9361       0.478873      -0.00000
  33     6.613       37.4350        0.2336       37.6803       37.9139       0.478873       0.00000
  32     8.786       37.4052        0.3090       37.5750       37.8840       0.478873      -0.00000
  31     11.80       37.3626        0.4166       37.4249       37.8415       0.478873       0.00000
  30     15.07       37.3170        0.5317       37.2642       37.7959       0.478873      -0.00000
  29     18.79       37.2657        0.6613       37.0833       37.7446       0.478873      -0.00000
  28     23.16       37.2061        0.8120       36.8730       37.6850       0.478873       0.00000
  27     28.12       37.1383        0.9834       36.6338       37.6171       0.478873       0.00000
  26     33.73       37.0628        1.1740       36.3677       37.5417       0.478873       0.00000
  25     40.54       36.9723        1.4026       36.0486       37.4511       0.478873       0.00000
  24     48.69       36.8641        1.6758       35.6672       37.3430       0.478873      -0.00000
  23     57.69       36.7465        1.9727       35.2527       37.2254       0.478873       0.00000
  22     68.43       36.6081        2.3221       34.7649       37.0870       0.478873      -0.00000
  21     81.20       36.4456        2.7322       34.1922       36.9245       0.478873       0.00000
  20     96.49       36.2553        3.2124       33.5217       36.7341       0.478873      -0.00000
  19     114.6       36.0340        3.7705       32.7424       36.5128       0.478873       0.00000
  18     136.5       35.7781        4.4154       31.8416       36.2570       0.478873      -0.00000
  17     162.9       35.4824        5.1605       30.8008       35.9613       0.478873       0.00000
  16     196.4       35.1128        6.0910       29.5007       35.5917       0.478873      -0.00000
  15     218.7       34.8785        6.6806       28.6767       35.3573       0.478873       0.00000
  14     243.0       34.6309        7.3030       27.8068       35.1098       0.478873       0.00000
  13     269.0       34.3709        7.9565       26.8933       34.8498       0.478873       0.00000
  12     297.5       34.0992        8.6388       25.9393       34.5781       0.478873       0.00000
  11     328.5       33.8158        9.3496       24.9451       34.2947       0.478873       0.00000
  10     361.9       33.5224       10.0852       23.9160       34.0012       0.478873       0.00000
   9     398.1       33.2193       10.8440       22.8541       33.6982       0.478873       0.00000
   8     437.6       32.9080       11.6224       21.7645       33.3869       0.478873       0.00000
   7     480.5       32.5900       12.4167       20.6521       33.0689       0.478873      -0.00000
   6     533.0       32.2192       13.3412       19.3569       32.6981       0.478873       0.00000
   5     589.8       31.8436       14.2757       18.0467       32.3225       0.478873       0.00000
   4     651.6       31.4659       15.2132       16.7316       31.9448       0.478873      -0.00000
   3     718.7       31.0889       16.1464       15.4214       31.5678       0.478873       0.00000
   2     792.3       30.7157       17.0670       14.1276       31.1946       0.478873      -0.00000
   1     891.5        1.7470        2.2218        0.0000        2.2218       0.474813       0.00035
   0    1013.0        1.7305        2.2054        0.0000        2.2054       0.474813       0.00000



 Wavenumbers: 29000. - 38000. cm-1, ATM      1
 LEVEL PRESSURE   UPWARD FLUX   DIFDOWN FLUX  DIRDOWN FLUX  DOWNWARD FLUX   NET FLUX    HEATING RATE
          mb          W/m2          W/m2          W/m2        W/m2          W/m2       degree/day
  51    .06700        5.3719        0.0000       13.4026       13.4026       8.030714       0.00000
  50    .07753        5.3717        0.0003       13.3983       13.3986       8.026915       3.04486
  49    .09103        5.3714        0.0007       13.3921       13.3928       8.021395       3.45021
  48    0.1069        5.3711        0.0011       13.3840       13.3851       8.014017       3.92739
  47    0.1255        5.3708        0.0016       13.3733       13.3749       8.004170       4.46390
  46    0.1487        5.3703        0.0022       13.3579       13.3601       7.989725       5.26526
  45    0.1794        5.3698        0.0031       13.3340       13.3371       7.967322       6.15031
  44    0.2165        5.3691        0.0040       13.3024       13.3064       7.937298       6.82997
  43    0.2613        5.3684        0.0052       13.2604       13.2656       7.897236       7.55148
  42    0.3336        5.3672        0.0071       13.1833       13.1904       7.823215       8.63007
  41    0.4307        5.3657        0.0096       13.0729       13.0825       7.716822       9.25069
  40    0.5894        5.3634        0.0135       12.8796       12.8931       7.529736       9.94897
  39     1.339        5.3555        0.0300       11.9165       11.9465       6.591076      10.56760
  38     1.782        5.3525        0.0384       11.4399       11.4784       6.125824       8.85765
  37     2.292        5.3506        0.0475       10.9796       11.0271       5.676507       7.44187
  36     2.964        5.3499        0.0586       10.4786       10.5372       5.187261       6.14151
  35     3.853        5.3517        0.0723        9.9429       10.0152       4.663439       4.97117
  34     5.035        5.3569        0.0895        9.4007        9.4901       4.133280       3.78724
  33     6.613        5.3655        0.1112        8.8752        8.9864       3.620914       2.73911
  32     8.786        5.3773        0.1393        8.3786        8.5179       3.140610       1.86533
  31     11.80        5.3920        0.1780        7.8897        8.0676       2.675578       1.30194
  30     15.07        5.4053        0.2178        7.5108        7.7286       2.323368       0.90934
  29     18.79        5.4181        0.2613        7.1776        7.4389       2.020854       0.68589
  28     23.16        5.4306        0.3104        6.8664        7.1768       1.746199       0.53109
  27     28.12        5.4419        0.3646        6.5780        6.9427       1.500731       0.41728
  26     33.73        5.4494        0.4238        6.3195        6.7433       1.293917       0.31095
  25     40.54        5.4521        0.4937        6.0663        6.5600       1.107852       0.23083
  24     48.69        5.4497        0.5756        5.8128        6.3885       0.938828       0.17491
  23     57.69        5.4415        0.6632        5.5777        6.2409       0.799461       0.13064
  22     68.43        5.4257        0.7647        5.3379        6.1026       0.676875       0.09637
  21     81.20        5.3979        0.8826        5.0965        5.9791       0.581184       0.06323
  20     96.49        5.3568        1.0189        4.8476        5.8666       0.509722       0.03944
  19     114.6        5.3062        1.1737        4.5799        5.7536       0.447333       0.02913
  18     136.5        5.2475        1.3470        4.2891        5.6361       0.388659       0.02256
  17     162.9        5.1805        1.5398        3.9732        5.5130       0.332503       0.01795
  16     196.4        5.0953        1.7715        3.6080        5.3795       0.284274       0.01214
  15     218.7        5.0416        1.9131        3.3898        5.3029       0.261213       0.00876
  14     243.0        4.9862        2.0578        3.1686        5.2264       0.240222       0.00728
  13     269.0        4.9292        2.2047        2.9461        5.1508       0.221637       0.00603
  12     297.5        4.8710        2.3526        2.7239        5.0765       0.205492       0.00479
  11     328.5        4.8127        2.5001        2.5029        5.0030       0.190260       0.00414
  10     361.9        4.7548        2.6461        2.2846        4.9307       0.175968       0.00362
   9     398.1        4.6976        2.7894        2.0708        4.8602       0.162611       0.00311
   8     437.6        4.6417        2.9290        1.8626        4.7916       0.149907       0.00272
   7     480.5        4.5876        3.0635        1.6621        4.7256       0.137998       0.00234
   6     533.0        4.5284        3.2099        1.4437        4.6536       0.125178       0.00206
   5     589.8        4.4729        3.3469        1.2390        4.5859       0.112917       0.00182
   4     651.6        4.4218        3.4728        1.0500        4.5229       0.101050       0.00162
   3     718.7        4.3754        3.5871        0.8778        4.4649       0.089536       0.00145
   2     792.3        4.3341        3.6887        0.7237        4.4125       0.078351       0.00128
   1     891.5        0.2608        0.3320        0.0000        0.3320       0.071212       0.00061
   0    1013.0        0.2562        0.3265        0.0000        0.3265       0.070291       0.00006



 Wavenumbers: 38000. - 50000. cm-1, ATM      1
 LEVEL PRESSURE   UPWARD FLUX   DIFDOWN FLUX  DIRDOWN FLUX  DOWNWARD FLUX   NET FLUX    HEATING RATE
          mb          W/m2          W/m2          W/m2        W/m2          W/m2       degree/day
  51    .06700        0.0051        0.0000        0.8267        0.8267       0.821528       0.00000
  50    .07753        0.0051        0.0001        0.8242        0.8243       0.819196       1.86936
  49    .09103        0.0050        0.0002        0.8207        0.8209       0.815872       2.07705
  48    0.1069        0.0049        0.0002        0.8162        0.8164       0.811514       2.31984
  47    0.1255        0.0048        0.0004        0.8103        0.8106       0.805801       2.59006
  46    0.1487        0.0047        0.0005        0.8018        0.8023       0.797567       3.00143
  45    0.1794        0.0045        0.0007        0.7889        0.7896       0.785013       3.44648
  44    0.2165        0.0044        0.0009        0.7720        0.7729       0.768507       3.75474
  43    0.2613        0.0042        0.0011        0.7500        0.7511       0.746955       4.06246
  42    0.3336        0.0039        0.0015        0.7106        0.7121       0.708267       4.51071
  41    0.4307        0.0035        0.0019        0.6566        0.6584       0.654972       4.63387
  40    0.5894        0.0029        0.0024        0.5680        0.5704       0.567464       4.65357
  39     1.339        0.0015        0.0030        0.2422        0.2452       0.243720       3.64476
  38     1.782        0.0010        0.0026        0.1493        0.1519       0.150889       1.76735
  37     2.292        0.0007        0.0022        0.0924        0.0946       0.093932       0.94336
  36     2.964        0.0005        0.0018        0.0539        0.0557       0.055224       0.48589
  35     3.853        0.0003        0.0013        0.0295        0.0308       0.030502       0.23462
  34     5.035        0.0002        0.0010        0.0154        0.0164       0.016181       0.10230
  33     6.613        0.0001        0.0007        0.0073        0.0080       0.007912       0.04420
  32     8.786        0.0000        0.0004        0.0030        0.0034       0.003390       0.01756
  31     11.80        0.0000        0.0003        0.0010        0.0012       0.001199       0.00613
  30     15.07        0.0000        0.0001        0.0003        0.0005       0.000463       0.00190
  29     18.79        0.0000        0.0001        0.0001        0.0002       0.000182       0.00064
  28     23.16        0.0000        0.0000        0.0000        0.0001       0.000071       0.00022
  27     28.12        0.0000        0.0000        0.0000        0.0000       0.000028       0.00007
  26     33.73        0.0000        0.0000        0.0000        0.0000       0.000011       0.00002
  25     40.54        0.0000        0.0000        0.0000        0.0000       0.000005       0.00001
  24     48.69        0.0000        0.0000        0.0000        0.0000       0.000002       0.00000
  23     57.69        0.0000        0.0000        0.0000        0.0000       0.000001       0.00000
  22     68.43        0.0000        0.0000        0.0000        0.0000       0.000000       0.00000
  21     81.20        0.0000        0.0000        0.0000        0.0000       0.000000       0.00000
  20     96.49        0.0000        0.0000        0.0000        0.0000       0.000000       0.00000
  19     114.6        0.0000        0.0000        0.0000        0.0000       0.000000       0.00000
  18     136.5        0.0000        0.0000        0.0000        0.0000       0.000000       0.00000
  17     162.9        0.0000        0.0000        0.0000        0.0000       0.000000       0.00000
  16     196.4        0.0000        0.0000        0.0000        0.0000       0.000000       0.00000
  15     218.7        0.0000        0.0000        0.0000        0.0000       0.000000       0.00000
  14     243.0        0.0000        0.0000        0.0000        0.0000       0.000000       0.00000
  13     269.0        0.0000        0.0000        0.0000        0.0000       0.000000       0.00000
  12     297.5        0.0000        0.0000        0.0000        0.0000       0.000000       0.00000
  11     328.5        0.0000        0.0000        0.0000        0.0000       0.000000       0.00000
  10     361.9        0.0000        0.0000        0.0000        0.0000       0.000000       0.00000
   9     398.1        0.0000        0.0000        0.0000        0.0000       0.000000       0.00000
   8     437.6        0.0000        0.0000        0.0000        0.0000       0.000000       0.00000
   7     480.5        0.0000        0.0000        0.0000        0.0000       0.000000       0.00000
   6     533.0        0.0000        0.0000        0.0000        0.0000       0.000000       0.00000
   5     589.8        0.0000        0.0000        0.0000        0.0000       0.000000       0.00000
   4     651.6        0.0000        0.0000        0.0000        0.0000       0.000000       0.00000
   3     718.7        0.0000        0.0000        0.0000        0.0000       0.000000       0.00000
   2     792.3        0.0000        0.0000        0.0000        0.0000       0.000000       0.00000
   1     891.5        0.0000        0.0000        0.0000        0.0000       0.000000       0.00000
   0    1013.0        0.0000        0.0000        0.0000        0.0000       0.000000       0.00000



 Wavenumbers:   820. -  2600. cm-1, ATM      1
 LEVEL PRESSURE   UPWARD FLUX   DIFDOWN FLUX  DIRDOWN FLUX  DOWNWARD FLUX   NET FLUX    HEATING RATE
          mb          W/m2          W/m2          W/m2        W/m2          W/m2       degree/day
  51    .06700        0.9455        0.0000        3.8670        3.8670       2.921533       0.00000
  50    .07753        0.9455        0.0000        3.8643        3.8643       2.918816       2.17771
  49    .09103        0.9455        0.0000        3.8635        3.8635       2.918006       0.50640
  48    0.1069        0.9455        0.0000        3.8626        3.8626       2.917115       0.47417
  47    0.1255        0.9455        0.0000        3.8616        3.8616       2.916154       0.43561
  46    0.1487        0.9455        0.0000        3.8605        3.8605       2.915045       0.40439
  45    0.1794        0.9455        0.0000        3.8592        3.8592       2.913710       0.36650
  44    0.2165        0.9455        0.0000        3.8578        3.8578       2.912331       0.31348
  43    0.2613        0.9455        0.0000        3.8564        3.8564       2.910871       0.27524
  42    0.3336        0.9455        0.0000        3.8541        3.8541       2.908640       0.26015
  41    0.4307        0.9455        0.0000        3.8512        3.8512       2.905757       0.25065
  40    0.5894        0.9455        0.0000        3.8465        3.8465       2.901030       0.25136
  39     1.339        0.9455        0.0000        3.8251        3.8251       2.879653       0.24067
  38     1.782        0.9455        0.0000        3.8133        3.8133       2.867838       0.22492
  37     2.292        0.9455        0.0000        3.8003        3.8003       2.854775       0.21636
  36     2.964        0.9455        0.0000        3.7841        3.7841       2.838644       0.20250
  35     3.853        0.9455        0.0000        3.7642        3.7642       2.818727       0.18902
  34     5.035        0.9455        0.0000        3.7395        3.7395       2.794031       0.17641
  33     6.613        0.9455        0.0000        3.7090        3.7090       2.763490       0.16327
  32     8.786        0.9455        0.0000        3.6726        3.6726       2.727089       0.14137
  31     11.80        0.9455        0.0000        3.6320        3.6320       2.686484       0.11368
  30     15.07        0.9455        0.0000        3.6016        3.6016       2.656088       0.07848
  29     18.79        0.9456        0.0000        3.5777        3.5777       2.632176       0.05422
  28     23.16        0.9456        0.0000        3.5564        3.5564       2.610805       0.04132
  27     28.12        0.9456        0.0000        3.5348        3.5348       2.589240       0.03666
  26     33.73        0.9456        0.0000        3.5118        3.5118       2.566184       0.03466
  25     40.54        0.9457        0.0000        3.4849        3.4849       2.539269       0.03339
  24     48.69        0.9457        0.0000        3.4537        3.4537       2.507983       0.03238
  23     57.69        0.9457        0.0000        3.4210        3.4210       2.475273       0.03066
  22     68.43        0.9458        0.0000        3.3844        3.3844       2.438642       0.02880
  21     81.20        0.9459        0.0000        3.3441        3.3441       2.398290       0.02666
  20     96.49        0.9459        0.0000        3.2998        3.2998       2.353858       0.02452
  19     114.6        0.9460        0.0000        3.2506        3.2507       2.304629       0.02299
  18     136.5        0.9462        0.0000        3.1936        3.1936       2.247463       0.02198
  17     162.9        0.9464        0.0000        3.1181        3.1181       2.171763       0.02420
  16     196.4        0.9468        0.0000        3.0090        3.0090       2.062194       0.02758
  15     218.7        0.9471        0.0000        2.9420        2.9420       1.994909       0.02555
  14     243.0        0.9476        0.0000        2.8605        2.8605       1.912934       0.02843
  13     269.0        0.9483        0.0000        2.7419        2.7420       1.793662       0.03869
  12     297.5        0.9496        0.0000        2.5729        2.5729       1.623318       0.05052
  11     328.5        0.9516        0.0000        2.3602        2.3602       1.408646       0.05837
  10     361.9        0.9546        0.0000        2.1524        2.1524       1.197859       0.05333
   9     398.1        0.9589        0.0000        1.9974        1.9974       1.038583       0.03711
   8     437.6        0.9648        0.0000        1.8835        1.8835       0.918735       0.02562
   7     480.5        0.9733        0.0000        1.7734        1.7735       0.800199       0.02328
   6     533.0        0.9871        0.0000        1.6397        1.6398       0.652686       0.02373
   5     589.8        1.0069        0.0000        1.5068        1.5069       0.499974       0.02267
   4     651.6        1.0361        0.0000        1.3807        1.3807       0.344597       0.02125
   3     718.7        1.0753        0.0000        1.2680        1.2681       0.192768       0.01908
   2     792.3        1.1246        0.0000        1.1659        1.1660       0.041394       0.01736
   1     891.5        0.0017        0.0082        0.0000        0.0082       0.006430       0.00298
   0    1013.0        0.0019        0.0075        0.0000        0.0075       0.005633       0.00006

  Modules and versions used in this calculation:

       rrtmg_sw.1col.f90:  $Revision$                    rrtmg_sw_init.f90:  $Revision$        
     rrtmgsw_cldprop.f90:  $Revision$                  rrtmgsw_cldprmc.f90:  NOT USED          
     rrtmg_sw_reftra.f90:  $Revision$                  rrtmg_sw_spcvrt.f90:  NOT USED          
     rrtmg_sw_spcvmc.f90:  NOT USED                    rrtmgsw_setcoef.f90:  NOT USED          
     rrtmg_sw_taumol.f90:  $Revision$                  rrtmg_sw_vrtqdr.f90:  NOT USED          
                rrtatm.f:  NOT USED                             util_xxx.f:  NOT USED          
                 extra.f:  NOT USED                       rrtmg_sw_k_g.f90:  $Revision$        

