

 Wavenumbers:   820. - 50000. cm-1, ATM      1
 LEVEL PRESSURE   UPWARD FLUX   DIFDOWN FLUX  DIRDOWN FLUX  DOWNWARD FLUX   NET FLUX    HEATING RATE
          mb          W/m2          W/m2          W/m2        W/m2          W/m2       degree/day
  51    .06700      201.3605        0.0000      397.8738      397.8738     196.513305       0.00000
  50    .07753      201.3599        0.0012      397.8577      397.8589     196.499020      11.44960
  49    .09103      201.3591        0.0026      397.8418      397.8444     196.485340       8.55015
  48    0.1069      201.3583        0.0043      397.8230      397.8273     196.469004       8.69592
  47    0.1255      201.3573        0.0062      397.7997      397.8059     196.448577       9.26081
  46    0.1487      201.3561        0.0086      397.7676      397.7763     196.420141      10.36497
  45    0.1794      201.3546        0.0119      397.7205      397.7324     196.377884      11.60072
  44    0.2165      201.3528        0.0158      397.6602      397.6761     196.323282      12.42097
  43    0.2613      201.3508        0.0204      397.5829      397.6033     196.252547      13.33313
  42    0.3336      201.3476        0.0280      397.4449      397.4729     196.125227      14.84431
  41    0.4307      201.3437        0.0379      397.2524      397.2903     195.946536      15.53681
  40    0.5894      201.3379        0.0538      396.9253      396.9791     195.641156      16.23972
  39     1.339      201.3214        0.1249      395.4254      395.5503     194.228878      15.89968
  38     1.782      201.3189        0.1648      394.7288      394.8936     193.574702      12.45445
  37     2.292      201.3222        0.2102      394.0572      394.2673     192.945112      10.42765
  36     2.964      201.3360        0.2691      393.3007      393.5698     192.233825       8.92881
  35     3.853      201.3670        0.3461      392.4318      392.7779     191.410899       7.80972
  34     5.035      201.4210        0.4474      391.4441      391.8914     190.470441       6.71824
  33     6.613      201.5003        0.5815      390.3268      390.9083     189.408043       5.67958
  32     8.786      201.6021        0.7610      389.0624      389.8234     188.221319       4.60880
  31     11.80      201.7262        1.0156      387.5500      388.5656     186.839371       3.86902
  30     15.07      201.8344        1.2867      386.1556      387.4424     185.607965       3.17925
  29     18.79      201.9342        1.5906      384.7502      386.3408     184.406600       2.72386
  28     23.16      202.0250        1.9426      383.2686      385.2113     183.186282       2.35970
  27     28.12      202.0986        2.3419      381.7329      384.0748     181.976137       2.05717
  26     33.73      202.1368        2.7854      380.1982      382.9836     180.846754       1.69806
  25     40.54      202.1317        3.3172      378.5384      381.8556     179.723952       1.39296
  24     48.69      202.0764        3.9527      376.7214      380.6741     178.597674       1.16552
  23     57.69      201.9688        4.6440      374.8959      379.5399     177.571071       0.96229
  22     68.43      201.7904        5.4590      372.8999      378.3589     176.568469       0.78818
  21     81.20      201.5084        6.4194      370.7496      377.1690     175.660633       0.59988
  20     96.49      201.1098        7.5491      368.4056      375.9547     174.844884       0.45023
  19     114.6      200.6170        8.8685      365.7513      374.6197     174.002697       0.39324
  18     136.5      200.0206       10.4004      362.7231      373.1235     173.102915       0.34599
  17     162.9      199.3050       12.1809      359.1748      371.3557     172.050621       0.33636
  16     196.4      198.3544       14.4251      354.5718      368.9969     170.642508       0.35444
  15     218.7      197.7279       15.8601      351.4437      367.3038     169.575926       0.40494
  14     243.0      197.0525       17.3861      347.7111      365.0973     168.044792       0.53105
  13     269.0      196.3290       19.0013      342.9441      361.9454     165.616363       0.78777
  12     297.5      195.5594       20.7033      337.4137      358.1170     162.557534       0.90722
  11     328.5      194.7486       22.4936      331.1302      353.6239     158.875224       1.00121
  10     361.9      193.9021       24.3668      324.1219      348.4887     154.586581       1.08507
   9     398.1      193.0243       26.3220      316.6066      342.9286     149.904300       1.09087
   8     437.6      192.1261       28.3546      308.5895      336.9441     144.817973       1.08749
   7     480.5      191.2265       30.4586      299.9349      330.3935     139.166988       1.10983
   6     533.0      190.2178       32.9492      289.7021      322.6514     132.433524       1.08320
   5     589.8      189.2659       35.5180      279.3388      314.8568     125.590880       1.01567
   4     651.6      188.4311       38.1527      268.7786      306.9313     118.500249       0.96966
   3     718.7      187.7589       40.8441      258.2837      299.1277     111.368800       0.89623
   2     792.3      187.3072       43.5778      248.0774      291.6552     104.347996       0.80521
   1     891.5      120.6869      134.1002       84.4116      218.5118      97.824917       0.55508
   0    1013.0      120.4641      133.3762       79.3767      212.7529      92.288844       0.38440



 Wavenumbers:  2600. -  3250. cm-1, ATM      1
 LEVEL PRESSURE   UPWARD FLUX   DIFDOWN FLUX  DIRDOWN FLUX  DOWNWARD FLUX   NET FLUX    HEATING RATE
          mb          W/m2          W/m2          W/m2        W/m2          W/m2       degree/day
  51    .06700        0.4926        0.0000        3.5066        3.5066       3.014050       0.00000
  50    .07753        0.4926        0.0000        3.5066        3.5066       3.014042       0.00640
  49    .09103        0.4926        0.0000        3.5066        3.5066       3.014032       0.00627
  48    0.1069        0.4926        0.0000        3.5066        3.5066       3.014021       0.00613
  47    0.1255        0.4926        0.0000        3.5066        3.5066       3.014007       0.00599
  46    0.1487        0.4926        0.0000        3.5066        3.5066       3.013991       0.00607
  45    0.1794        0.4926        0.0000        3.5065        3.5065       3.013968       0.00624
  44    0.2165        0.4926        0.0000        3.5065        3.5065       3.013941       0.00611
  43    0.2613        0.4926        0.0000        3.5065        3.5065       3.013909       0.00598
  42    0.3336        0.4926        0.0000        3.5064        3.5064       3.013857       0.00615
  41    0.4307        0.4926        0.0000        3.5064        3.5064       3.013786       0.00618
  40    0.5894        0.4926        0.0000        3.5062        3.5062       3.013666       0.00633
  39     1.339        0.4926        0.0000        3.5055        3.5055       3.012968       0.00787
  38     1.782        0.4926        0.0000        3.5050        3.5050       3.012437       0.01011
  37     2.292        0.4926        0.0000        3.5043        3.5043       3.011744       0.01147
  36     2.964        0.4926        0.0000        3.5033        3.5033       3.010753       0.01245
  35     3.853        0.4926        0.0000        3.5019        3.5019       3.009376       0.01307
  34     5.035        0.4926        0.0000        3.5001        3.5001       3.007515       0.01329
  33     6.613        0.4926        0.0000        3.4977        3.4977       3.005105       0.01288
  32     8.786        0.4926        0.0000        3.4947        3.4947       3.002134       0.01154
  31     11.80        0.4926        0.0000        3.4911        3.4911       2.998499       0.01018
  30     15.07        0.4926        0.0000        3.4878        3.4878       2.995277       0.00832
  29     18.79        0.4926        0.0000        3.4848        3.4848       2.992214       0.00695
  28     23.16        0.4926        0.0000        3.4816        3.4816       2.988993       0.00623
  27     28.12        0.4926        0.0000        3.4779        3.4779       2.985374       0.00615
  26     33.73        0.4926        0.0000        3.4735        3.4735       2.980906       0.00672
  25     40.54        0.4926        0.0000        3.4671        3.4671       2.974578       0.00785
  24     48.69        0.4926        0.0000        3.4582        3.4583       2.965680       0.00921
  23     57.69        0.4926        0.0000        3.4472        3.4472       2.954628       0.01036
  22     68.43        0.4926        0.0000        3.4329        3.4329       2.940362       0.01122
  21     81.20        0.4926        0.0000        3.4152        3.4152       2.922624       0.01172
  20     96.49        0.4926        0.0000        3.3940        3.3941       2.901466       0.01168
  19     114.6        0.4926        0.0000        3.3692        3.3692       2.876557       0.01163
  18     136.5        0.4927        0.0001        3.3419        3.3420       2.849311       0.01048
  17     162.9        0.4927        0.0001        3.3129        3.3129       2.820194       0.00931
  16     196.4        0.4929        0.0001        3.2793        3.2794       2.786543       0.00847
  15     218.7        0.4930        0.0001        3.2578        3.2578       2.764849       0.00824
  14     243.0        0.4932        0.0001        3.2320        3.2321       2.738856       0.00902
  13     269.0        0.4935        0.0001        3.1968        3.1969       2.703410       0.01150
  12     297.5        0.4940        0.0001        3.1489        3.1491       2.655024       0.01435
  11     328.5        0.4948        0.0001        3.0821        3.0822       2.587379       0.01839
  10     361.9        0.4959        0.0001        2.9902        2.9904       2.494430       0.02352
   9     398.1        0.4976        0.0001        2.8715        2.8716       2.374055       0.02804
   8     437.6        0.4999        0.0001        2.7276        2.7278       2.227876       0.03125
   7     480.5        0.5034        0.0001        2.5595        2.5597       2.056232       0.03371
   6     533.0        0.5094        0.0002        2.3617        2.3619       1.852538       0.03277
   5     589.8        0.5180        0.0002        2.1649        2.1651       1.647055       0.03050
   4     651.6        0.5309        0.0002        1.9608        1.9609       1.430072       0.02967
   3     718.7        0.5490        0.0002        1.7593        1.7595       1.210469       0.02760
   2     792.3        0.5741        0.0002        1.5761        1.5762       1.002167       0.02389
   1     891.5        0.1267        0.4599        0.4915        0.9514       0.824756       0.01510
   0    1013.0        0.1379        0.4136        0.4152        0.8288       0.690861       0.00930



 Wavenumbers:  3250. -  4000. cm-1, ATM      1
 LEVEL PRESSURE   UPWARD FLUX   DIFDOWN FLUX  DIRDOWN FLUX  DOWNWARD FLUX   NET FLUX    HEATING RATE
          mb          W/m2          W/m2          W/m2        W/m2          W/m2       degree/day
  51    .06700        0.0027        0.0000        5.9117        5.9117       5.909002       0.00000
  50    .07753        0.0027        0.0000        5.9075        5.9075       5.904813       3.35808
  49    .09103        0.0027        0.0000        5.9050        5.9050       5.902370       1.52677
  48    0.1069        0.0027        0.0000        5.9032        5.9032       5.900503       0.99346
  47    0.1255        0.0027        0.0000        5.9014        5.9014       5.898745       0.79708
  46    0.1487        0.0027        0.0000        5.8995        5.8995       5.896856       0.68848
  45    0.1794        0.0027        0.0000        5.8974        5.8974       5.894708       0.58983
  44    0.2165        0.0027        0.0000        5.8952        5.8952       5.892591       0.48155
  43    0.2613        0.0027        0.0000        5.8931        5.8931       5.890432       0.40696
  42    0.3336        0.0027        0.0000        5.8899        5.8899       5.887274       0.36820
  41    0.4307        0.0027        0.0000        5.8861        5.8861       5.883437       0.33365
  40    0.5894        0.0027        0.0000        5.8803        5.8803       5.877634       0.30857
  39     1.339        0.0027        0.0000        5.8597        5.8597       5.857037       0.23189
  38     1.782        0.0026        0.0000        5.8513        5.8513       5.848612       0.16039
  37     2.292        0.0026        0.0000        5.8431        5.8431       5.840441       0.13533
  36     2.964        0.0026        0.0000        5.8334        5.8334       5.830802       0.12100
  35     3.853        0.0026        0.0000        5.8213        5.8213       5.818626       0.11555
  34     5.035        0.0026        0.0000        5.8052        5.8052       5.802531       0.11498
  33     6.613        0.0026        0.0000        5.7833        5.7834       5.780709       0.11666
  32     8.786        0.0026        0.0000        5.7531        5.7531       5.750508       0.11729
  31     11.80        0.0026        0.0000        5.7090        5.7090       5.706339       0.12366
  30     15.07        0.0026        0.0000        5.6615        5.6615       5.658875       0.12254
  29     18.79        0.0026        0.0000        5.6093        5.6094       5.606739       0.11821
  28     23.16        0.0026        0.0000        5.5524        5.5524       5.549813       0.11008
  27     28.12        0.0026        0.0000        5.4935        5.4935       5.490934       0.10009
  26     33.73        0.0026        0.0000        5.4348        5.4349       5.432245       0.08824
  25     40.54        0.0026        0.0001        5.3707        5.3708       5.368184       0.07948
  24     48.69        0.0026        0.0001        5.2985        5.2985       5.295951       0.07475
  23     57.69        0.0026        0.0001        5.2215        5.2216       5.219012       0.07212
  22     68.43        0.0026        0.0001        5.1318        5.1319       5.129352       0.07048
  21     81.20        0.0025        0.0001        5.0284        5.0285       5.025922       0.06834
  20     96.49        0.0025        0.0001        4.9122        4.9123       4.909788       0.06410
  19     114.6        0.0025        0.0001        4.7780        4.7782       4.775677       0.06262
  18     136.5        0.0025        0.0002        4.6285        4.6287       4.626199       0.05748
  17     162.9        0.0025        0.0002        4.4406        4.4407       4.438286       0.06006
  16     196.4        0.0024        0.0002        4.1548        4.1550       4.152612       0.07191
  15     218.7        0.0024        0.0002        3.9564        3.9566       3.954231       0.07532
  14     243.0        0.0024        0.0002        3.7055        3.7058       3.703395       0.08700
  13     269.0        0.0024        0.0002        3.3399        3.3401       3.337754       0.11861
  12     297.5        0.0023        0.0002        2.8954        2.8956       2.893258       0.13183
  11     328.5        0.0023        0.0002        2.4388        2.4390       2.436704       0.12414
  10     361.9        0.0024        0.0002        2.0269        2.0271       2.024742       0.10423
   9     398.1        0.0024        0.0002        1.6753        1.6755       1.673112       0.08192
   8     437.6        0.0024        0.0002        1.3592        1.3594       1.356921       0.06760
   7     480.5        0.0026        0.0002        1.0616        1.0618       1.059207       0.05847
   6     533.0        0.0028        0.0001        0.7543        0.7544       0.751604       0.04948
   5     589.8        0.0033        0.0001        0.4951        0.4952       0.491913       0.03855
   4     651.6        0.0043        0.0001        0.2943        0.2943       0.290047       0.02761
   3     718.7        0.0062        0.0001        0.1528        0.1529       0.146644       0.01802
   2     792.3        0.0101        0.0000        0.0658        0.0658       0.055700       0.01043
   1     891.5        0.0001        0.0067        0.0056        0.0123       0.012168       0.00370
   0    1013.0        0.0005        0.0016        0.0005        0.0021       0.001527       0.00074



 Wavenumbers:  4000. -  4650. cm-1, ATM      1
 LEVEL PRESSURE   UPWARD FLUX   DIFDOWN FLUX  DIRDOWN FLUX  DOWNWARD FLUX   NET FLUX    HEATING RATE
          mb          W/m2          W/m2          W/m2        W/m2          W/m2       degree/day
  51    .06700        1.7074        0.0000        6.9421        6.9421       5.234698       0.00000
  50    .07753        1.7074        0.0000        6.9421        6.9421       5.234697       0.00079
  49    .09103        1.7074        0.0000        6.9421        6.9421       5.234695       0.00078
  48    0.1069        1.7074        0.0000        6.9421        6.9421       5.234694       0.00076
  47    0.1255        1.7074        0.0000        6.9421        6.9421       5.234692       0.00074
  46    0.1487        1.7074        0.0000        6.9421        6.9421       5.234690       0.00075
  45    0.1794        1.7074        0.0000        6.9421        6.9421       5.234687       0.00077
  44    0.2165        1.7074        0.0000        6.9421        6.9421       5.234684       0.00076
  43    0.2613        1.7074        0.0000        6.9420        6.9420       5.234680       0.00074
  42    0.3336        1.7074        0.0000        6.9420        6.9420       5.234674       0.00076
  41    0.4307        1.7074        0.0000        6.9420        6.9420       5.234665       0.00077
  40    0.5894        1.7074        0.0000        6.9420        6.9420       5.234650       0.00079
  39     1.339        1.7074        0.0000        6.9419        6.9419       5.234561       0.00100
  38     1.782        1.7074        0.0000        6.9418        6.9419       5.234492       0.00132
  37     2.292        1.7074        0.0000        6.9418        6.9418       5.234398       0.00155
  36     2.964        1.7074        0.0000        6.9416        6.9416       5.234259       0.00175
  35     3.853        1.7074        0.0000        6.9414        6.9414       5.234052       0.00196
  34     5.035        1.7074        0.0000        6.9411        6.9411       5.233748       0.00218
  33     6.613        1.7073        0.0000        6.9406        6.9406       5.233300       0.00239
  32     8.786        1.7073        0.0000        6.9399        6.9400       5.232640       0.00256
  31     11.80        1.7073        0.0000        6.9389        6.9389       5.231605       0.00290
  30     15.07        1.7073        0.0001        6.9377        6.9377       5.230395       0.00312
  29     18.79        1.7073        0.0001        6.9362        6.9363       5.228936       0.00331
  28     23.16        1.7073        0.0001        6.9343        6.9344       5.227132       0.00349
  27     28.12        1.7073        0.0001        6.9321        6.9323       5.224957       0.00370
  26     33.73        1.7073        0.0001        6.9294        6.9296       5.222289       0.00401
  25     40.54        1.7073        0.0002        6.9258        6.9260       5.218691       0.00446
  24     48.69        1.7073        0.0002        6.9210        6.9212       5.213928       0.00493
  23     57.69        1.7073        0.0002        6.9154        6.9156       5.208325       0.00525
  22     68.43        1.7073        0.0003        6.9083        6.9086       5.201358       0.00548
  21     81.20        1.7073        0.0003        6.8998        6.9001       5.192838       0.00563
  20     96.49        1.7073        0.0004        6.8894        6.8898       5.182545       0.00568
  19     114.6        1.7073        0.0004        6.8765        6.8770       5.169659       0.00602
  18     136.5        1.7074        0.0005        6.8610        6.8615       5.154109       0.00598
  17     162.9        1.7075        0.0006        6.8417        6.8423       5.134759       0.00619
  16     196.4        1.7078        0.0008        6.8147        6.8154       5.107604       0.00684
  15     218.7        1.7081        0.0008        6.7948        6.7957       5.087595       0.00760
  14     243.0        1.7085        0.0009        6.7698        6.7707       5.062210       0.00880
  13     269.0        1.7092        0.0010        6.7349        6.7359       5.026689       0.01152
  12     297.5        1.7102        0.0011        6.6869        6.6880       4.977736       0.01452
  11     328.5        1.7118        0.0012        6.6194        6.6206       4.908837       0.01873
  10     361.9        1.7138        0.0014        6.5295        6.5308       4.817015       0.02323
   9     398.1        1.7165        0.0015        6.4202        6.4217       4.705199       0.02605
   8     437.6        1.7201        0.0016        6.2962        6.2978       4.577677       0.02726
   7     480.5        1.7251        0.0017        6.1555        6.1572       4.432115       0.02859
   6     533.0        1.7333        0.0019        5.9675        5.9694       4.236098       0.03153
   5     589.8        1.7454        0.0020        5.7368        5.7388       3.993401       0.03602
   4     651.6        1.7633        0.0021        5.4662        5.4684       3.705101       0.03943
   3     718.7        1.7886        0.0023        5.1912        5.1935       3.404854       0.03773
   2     792.3        1.8231        0.0024        4.9395        4.9419       3.118821       0.03280
   1     891.5        0.3170        1.5203        1.6659        3.1862       2.869169       0.02124
   0    1013.0        0.3288        1.4511        1.5474        2.9985       2.669701       0.01385



 Wavenumbers:  4650. -  5150. cm-1, ATM      1
 LEVEL PRESSURE   UPWARD FLUX   DIFDOWN FLUX  DIRDOWN FLUX  DOWNWARD FLUX   NET FLUX    HEATING RATE
          mb          W/m2          W/m2          W/m2        W/m2          W/m2       degree/day
  51    .06700        1.1927        0.0000        6.5710        6.5710       5.378290       0.00000
  50    .07753        1.1927        0.0000        6.5708        6.5708       5.378054       0.18887
  49    .09103        1.1927        0.0000        6.5705        6.5705       5.377760       0.18362
  48    0.1069        1.1927        0.0000        6.5701        6.5701       5.377426       0.17806
  47    0.1255        1.1927        0.0000        6.5697        6.5697       5.377046       0.17238
  46    0.1487        1.1927        0.0000        6.5693        6.5693       5.376572       0.17268
  45    0.1794        1.1927        0.0000        6.5686        6.5686       5.375935       0.17473
  44    0.2165        1.1927        0.0000        6.5679        6.5679       5.375197       0.16788
  43    0.2613        1.1927        0.0000        6.5670        6.5670       5.374344       0.16078
  42    0.3336        1.1927        0.0000        6.5657        6.5657       5.372981       0.15894
  41    0.4307        1.1927        0.0000        6.5640        6.5640       5.371259       0.14971
  40    0.5894        1.1927        0.0000        6.5613        6.5613       5.368643       0.13913
  39     1.339        1.1927        0.0000        6.5516        6.5516       5.358865       0.11008
  38     1.782        1.1927        0.0000        6.5473        6.5473       5.354649       0.08026
  37     2.292        1.1927        0.0000        6.5434        6.5435       5.350762       0.06438
  36     2.964        1.1927        0.0000        6.5395        6.5395       5.346808       0.04964
  35     3.853        1.1927        0.0000        6.5355        6.5356       5.342865       0.03742
  34     5.035        1.1927        0.0000        6.5315        6.5315       5.338862       0.02859
  33     6.613        1.1927        0.0000        6.5271        6.5271       5.334467       0.02350
  32     8.786        1.1927        0.0001        6.5216        6.5216       5.328971       0.02135
  31     11.80        1.1927        0.0001        6.5135        6.5135       5.320889       0.02263
  30     15.07        1.1926        0.0001        6.5041        6.5042       5.311517       0.02420
  29     18.79        1.1926        0.0001        6.4925        6.4926       5.299997       0.02612
  28     23.16        1.1926        0.0001        6.4779        6.4780       5.285398       0.02823
  27     28.12        1.1926        0.0002        6.4599        6.4600       5.267413       0.03057
  26     33.73        1.1926        0.0002        6.4384        6.4386       5.245970       0.03224
  25     40.54        1.1926        0.0002        6.4112        6.4115       5.218827       0.03367
  24     48.69        1.1926        0.0003        6.3775        6.3778       5.185166       0.03483
  23     57.69        1.1927        0.0003        6.3404        6.3407       5.148044       0.03480
  22     68.43        1.1927        0.0004        6.2971        6.2975       5.104813       0.03399
  21     81.20        1.1928        0.0005        6.2483        6.2487       5.055942       0.03229
  20     96.49        1.1929        0.0005        6.1948        6.1954       5.002494       0.02950
  19     114.6        1.1930        0.0006        6.1381        6.1388       4.945753       0.02649
  18     136.5        1.1933        0.0008        6.0790        6.0798       4.886500       0.02278
  17     162.9        1.1936        0.0009        6.0160        6.0169       4.823339       0.02019
  16     196.4        1.1942        0.0011        5.9399        5.9409       4.746783       0.01927
  15     218.7        1.1946        0.0012        5.8896        5.8908       4.696199       0.01920
  14     243.0        1.1952        0.0013        5.8322        5.8335       4.638246       0.02010
  13     269.0        1.1962        0.0014        5.7624        5.7638       4.567673       0.02289
  12     297.5        1.1975        0.0016        5.6767        5.6783       4.480805       0.02576
  11     328.5        1.1993        0.0017        5.5726        5.5743       4.374965       0.02878
  10     361.9        1.2019        0.0019        5.4473        5.4492       4.247325       0.03229
   9     398.1        1.2053        0.0020        5.2995        5.3015       4.096225       0.03520
   8     437.6        1.2098        0.0021        5.1275        5.1296       3.919764       0.03773
   7     480.5        1.2161        0.0023        4.9290        4.9313       3.715122       0.04019
   6     533.0        1.2261        0.0024        4.6794        4.6818       3.455706       0.04173
   5     589.8        1.2401        0.0026        4.4188        4.4214       3.181257       0.04074
   4     651.6        1.2600        0.0027        4.1521        4.1548       2.894806       0.03917
   3     718.7        1.2871        0.0028        3.8929        3.8958       2.608677       0.03596
   2     792.3        1.3233        0.0030        3.6469        3.6499       2.326511       0.03236
   1     891.5        0.2288        1.1022        1.2018        2.3041       2.075276       0.02138
   0    1013.0        0.2402        1.0360        1.0889        2.1249       1.884777       0.01323



 Wavenumbers:  5150. -  6150. cm-1, ATM      1
 LEVEL PRESSURE   UPWARD FLUX   DIFDOWN FLUX  DIRDOWN FLUX  DOWNWARD FLUX   NET FLUX    HEATING RATE
          mb          W/m2          W/m2          W/m2        W/m2          W/m2       degree/day
  51    .06700        3.0215        0.0000       16.4735       16.4735      13.452007       0.00000
  50    .07753        3.0215        0.0000       16.4735       16.4735      13.451972       0.02762
  49    .09103        3.0215        0.0000       16.4734       16.4734      13.451927       0.02811
  48    0.1069        3.0215        0.0000       16.4734       16.4734      13.451873       0.02860
  47    0.1255        3.0215        0.0000       16.4733       16.4733      13.451809       0.02905
  46    0.1487        3.0215        0.0000       16.4732       16.4732      13.451725       0.03060
  45    0.1794        3.0215        0.0000       16.4731       16.4731      13.451606       0.03270
  44    0.2165        3.0215        0.0000       16.4730       16.4730      13.451460       0.03332
  43    0.2613        3.0215        0.0000       16.4728       16.4728      13.451281       0.03377
  42    0.3336        3.0215        0.0000       16.4725       16.4725      13.450975       0.03565
  41    0.4307        3.0215        0.0000       16.4720       16.4720      13.450555       0.03646
  40    0.5894        3.0215        0.0000       16.4713       16.4713      13.449854       0.03730
  39     1.339        3.0215        0.0000       16.4679       16.4679      13.446445       0.03839
  38     1.782        3.0215        0.0000       16.4659       16.4659      13.444444       0.03808
  37     2.292        3.0215        0.0001       16.4635       16.4636      13.442152       0.03797
  36     2.964        3.0214        0.0001       16.4605       16.4606      13.439181       0.03729
  35     3.853        3.0214        0.0001       16.4567       16.4568      13.435325       0.03659
  34     5.035        3.0214        0.0001       16.4516       16.4517      13.430325       0.03572
  33     6.613        3.0214        0.0002       16.4451       16.4452      13.423860       0.03456
  32     8.786        3.0213        0.0002       16.4367       16.4369      13.415540       0.03231
  31     11.80        3.0213        0.0003       16.4254       16.4257      13.404378       0.03125
  30     15.07        3.0212        0.0004       16.4141       16.4145      13.393278       0.02866
  29     18.79        3.0212        0.0005       16.4024       16.4029      13.381740       0.02616
  28     23.16        3.0211        0.0006       16.3900       16.3906      13.369458       0.02375
  27     28.12        3.0211        0.0008       16.3771       16.3778      13.356770       0.02157
  26     33.73        3.0210        0.0009       16.3641       16.3650      13.344012       0.01918
  25     40.54        3.0209        0.0011       16.3502       16.3513      13.330330       0.01697
  24     48.69        3.0209        0.0013       16.3354       16.3367      13.315800       0.01504
  23     57.69        3.0208        0.0015       16.3211       16.3226      13.301833       0.01309
  22     68.43        3.0207        0.0018       16.3062       16.3081      13.287360       0.01138
  21     81.20        3.0206        0.0022       16.2903       16.2925      13.271862       0.01024
  20     96.49        3.0205        0.0026       16.2726       16.2752      13.254658       0.00950
  19     114.6        3.0204        0.0030       16.2521       16.2551      13.234685       0.00933
  18     136.5        3.0203        0.0036       16.2245       16.2282      13.207828       0.01033
  17     162.9        3.0202        0.0043       16.1747       16.1790      13.158800       0.01567
  16     196.4        3.0201        0.0051       16.0518       16.0570      13.036857       0.03069
  15     218.7        3.0201        0.0057       15.8984       15.9041      12.883971       0.05805
  14     243.0        3.0201        0.0062       15.6153       15.6215      12.601383       0.09801
  13     269.0        3.0202        0.0068       15.1390       15.1457      12.125501       0.15437
  12     297.5        3.0206        0.0073       14.5779       14.5851      11.564573       0.16637
  11     328.5        3.0212        0.0077       13.8780       13.8857      10.864538       0.19034
  10     361.9        3.0223        0.0081       13.0814       13.0896      10.067288       0.20171
   9     398.1        3.0240        0.0085       12.2728       12.2814       9.257346       0.18870
   8     437.6        3.0267        0.0088       11.4776       11.4864       8.459725       0.17054
   7     480.5        3.0310        0.0091       10.7300       10.7391       7.708152       0.14761
   6     533.0        3.0387        0.0095       10.0326       10.0421       7.003370       0.11338
   5     589.8        3.0513        0.0100        9.5050        9.5150       6.463715       0.08010
   4     651.6        3.0716        0.0105        9.0814        9.0919       6.020324       0.06063
   3     718.7        3.1027        0.0112        8.7024        8.7136       5.610919       0.05145
   2     792.3        3.1485        0.0119        8.3379        8.3499       5.201398       0.04697
   1     891.5        0.6001        2.6009        2.8335        5.4345       4.834373       0.03123
   0    1013.0        0.6137        2.5042        2.6786        5.1829       4.569195       0.01841



 Wavenumbers:  6150. -  7700. cm-1, ATM      1
 LEVEL PRESSURE   UPWARD FLUX   DIFDOWN FLUX  DIRDOWN FLUX  DOWNWARD FLUX   NET FLUX    HEATING RATE
          mb          W/m2          W/m2          W/m2        W/m2          W/m2       degree/day
  51    .06700        4.6845        0.0000       30.4684       30.4684      25.783884       0.00000
  50    .07753        4.6845        0.0000       30.4683       30.4683      25.783833       0.04144
  49    .09103        4.6845        0.0000       30.4683       30.4683      25.783766       0.04174
  48    0.1069        4.6845        0.0000       30.4682       30.4682      25.783687       0.04202
  47    0.1255        4.6845        0.0000       30.4681       30.4681      25.783594       0.04227
  46    0.1487        4.6845        0.0000       30.4680       30.4680      25.783473       0.04411
  45    0.1794        4.6845        0.0000       30.4678       30.4678      25.783303       0.04669
  44    0.2165        4.6845        0.0000       30.4676       30.4676      25.783095       0.04715
  43    0.2613        4.6845        0.0000       30.4673       30.4673      25.782844       0.04744
  42    0.3336        4.6845        0.0000       30.4669       30.4669      25.782417       0.04974
  41    0.4307        4.6845        0.0000       30.4663       30.4663      25.781836       0.05052
  40    0.5894        4.6844        0.0001       30.4653       30.4653      25.780868       0.05146
  39     1.339        4.6844        0.0001       30.4604       30.4606      25.776185       0.05273
  38     1.782        4.6843        0.0002       30.4576       30.4578      25.773435       0.05235
  37     2.292        4.6843        0.0003       30.4543       30.4546      25.770276       0.05231
  36     2.964        4.6842        0.0003       30.4501       30.4504      25.766169       0.05156
  35     3.853        4.6841        0.0004       30.4445       30.4449      25.760812       0.05084
  34     5.035        4.6840        0.0006       30.4373       30.4378      25.753812       0.05000
  33     6.613        4.6839        0.0007       30.4278       30.4285      25.744665       0.04890
  32     8.786        4.6837        0.0010       30.4154       30.4164      25.732712       0.04642
  31     11.80        4.6834        0.0013       30.3984       30.3997      25.716326       0.04587
  30     15.07        4.6830        0.0017       30.3810       30.3827      25.699613       0.04315
  29     18.79        4.6827        0.0021       30.3623       30.3644      25.681712       0.04059
  28     23.16        4.6823        0.0026       30.3417       30.3443      25.662029       0.03806
  27     28.12        4.6818        0.0031       30.3196       30.3227      25.640928       0.03587
  26     33.73        4.6812        0.0038       30.2965       30.3002      25.619009       0.03296
  25     40.54        4.6806        0.0045       30.2708       30.2753      25.594671       0.03019
  24     48.69        4.6798        0.0054       30.2423       30.2477      25.567894       0.02771
  23     57.69        4.6789        0.0064       30.2139       30.2203      25.541327       0.02490
  22     68.43        4.6779        0.0076       30.1834       30.1910      25.513050       0.02223
  21     81.20        4.6767        0.0090       30.1500       30.1590      25.482319       0.02031
  20     96.49        4.6752        0.0107       30.1126       30.1233      25.448099       0.01889
  19     114.6        4.6735        0.0127       30.0695       30.0822      25.408709       0.01839
  18     136.5        4.6714        0.0151       30.0139       30.0290      25.357547       0.01967
  17     162.9        4.6690        0.0179       29.9225       29.9403      25.271353       0.02755
  16     196.4        4.6659        0.0215       29.7333       29.7548      25.088930       0.04592
  15     218.7        4.6639        0.0238       29.5259       29.5497      24.885760       0.07714
  14     243.0        4.6618        0.0262       29.1375       29.1637      24.501856       0.13315
  13     269.0        4.6598        0.0285       28.3800       28.4085      23.748690       0.24432
  12     297.5        4.6581        0.0307       27.3895       27.4202      22.762127       0.29260
  11     328.5        4.6569        0.0328       26.2257       26.2585      21.601533       0.31556
  10     361.9        4.6567        0.0347       24.8453       24.8800      20.223277       0.34871
   9     398.1        4.6580        0.0363       23.3471       23.3834      18.725393       0.34897
   8     437.6        4.6617        0.0377       21.7966       21.8343      17.172681       0.33198
   7     480.5        4.6696        0.0388       20.1977       20.2365      15.566919       0.31537
   6     533.0        4.6865        0.0399       18.4969       18.5369      13.850388       0.27614
   5     589.8        4.7158        0.0410       16.9754       17.0164      12.300610       0.23004
   4     651.6        4.7653        0.0422       15.6022       15.6443      10.878993       0.19441
   3     718.7        4.8422        0.0434       14.4232       14.4666       9.624439       0.15766
   2     792.3        4.9557        0.0450       13.4386       13.4836       8.527887       0.12576
   1     891.5        0.9232        4.1074        4.4353        8.5427       7.619490       0.07730
   0    1013.0        0.9596        3.8688        4.0474        7.9161       6.956547       0.04603



 Wavenumbers:  7700. -  8050. cm-1, ATM      1
 LEVEL PRESSURE   UPWARD FLUX   DIFDOWN FLUX  DIRDOWN FLUX  DOWNWARD FLUX   NET FLUX    HEATING RATE
          mb          W/m2          W/m2          W/m2        W/m2          W/m2       degree/day
  51    .06700        2.3019        0.0000        7.2006        7.2006       4.898647       0.00000
  50    .07753        2.3019        0.0000        7.2006        7.2006       4.898628       0.01542
  49    .09103        2.3019        0.0000        7.2005        7.2005       4.898604       0.01512
  48    0.1069        2.3019        0.0000        7.2005        7.2005       4.898576       0.01480
  47    0.1255        2.3019        0.0000        7.2005        7.2005       4.898544       0.01448
  46    0.1487        2.3019        0.0000        7.2004        7.2005       4.898504       0.01469
  45    0.1794        2.3020        0.0000        7.2004        7.2004       4.898449       0.01512
  44    0.2165        2.3020        0.0000        7.2003        7.2003       4.898383       0.01483
  43    0.2613        2.3020        0.0000        7.2003        7.2003       4.898306       0.01455
  42    0.3336        2.3020        0.0000        7.2001        7.2001       4.898178       0.01489
  41    0.4307        2.3020        0.0000        7.2000        7.2000       4.898009       0.01473
  40    0.5894        2.3020        0.0000        7.1997        7.1997       4.897732       0.01471
  39     1.339        2.3021        0.0001        7.1984        7.1985       4.896424       0.01473
  38     1.782        2.3021        0.0001        7.1977        7.1978       4.895656       0.01463
  37     2.292        2.3022        0.0001        7.1968        7.1969       4.894767       0.01472
  36     2.964        2.3022        0.0001        7.1957        7.1958       4.893600       0.01465
  35     3.853        2.3023        0.0002        7.1942        7.1944       4.892060       0.01462
  34     5.035        2.3024        0.0002        7.1922        7.1925       4.890014       0.01461
  33     6.613        2.3026        0.0003        7.1896        7.1899       4.887285       0.01459
  32     8.786        2.3028        0.0004        7.1860        7.1864       4.883612       0.01426
  31     11.80        2.3031        0.0005        7.1810        7.1815       4.878370       0.01468
  30     15.07        2.3035        0.0007        7.1755        7.1762       4.872757       0.01449
  29     18.79        2.3039        0.0009        7.1694        7.1703       4.866435       0.01433
  28     23.16        2.3043        0.0011        7.1623        7.1634       4.859079       0.01423
  27     28.12        2.3048        0.0013        7.1542        7.1555       4.850702       0.01424
  26     33.73        2.3054        0.0016        7.1452        7.1468       4.841375       0.01402
  25     40.54        2.3061        0.0019        7.1344        7.1363       4.830172       0.01390
  24     48.69        2.3070        0.0022        7.1215        7.1237       4.816762       0.01388
  23     57.69        2.3079        0.0026        7.1074        7.1101       4.802152       0.01369
  22     68.43        2.3091        0.0031        7.0909        7.0940       4.784916       0.01355
  21     81.20        2.3104        0.0037        7.0713        7.0751       4.764610       0.01342
  20     96.49        2.3121        0.0044        7.0484        7.0528       4.740731       0.01318
  19     114.6        2.3141        0.0052        7.0217        7.0269       4.712812       0.01304
  18     136.5        2.3165        0.0062        6.9906        6.9968       4.680303       0.01250
  17     162.9        2.3193        0.0073        6.9544        6.9617       4.642367       0.01213
  16     196.4        2.3232        0.0088        6.9087        6.9175       4.594361       0.01208
  15     218.7        2.3257        0.0097        6.8794        6.8892       4.563452       0.01173
  14     243.0        2.3286        0.0108        6.8481        6.8589       4.530355       0.01148
  13     269.0        2.3317        0.0119        6.8147        6.8266       4.494942       0.01149
  12     297.5        2.3352        0.0131        6.7791        6.7922       4.457018       0.01125
  11     328.5        2.3391        0.0145        6.7409        6.7554       4.416278       0.01108
  10     361.9        2.3435        0.0159        6.7002        6.7160       4.372474       0.01108
   9     398.1        2.3486        0.0174        6.6563        6.6736       4.325082       0.01104
   8     437.6        2.3543        0.0190        6.6089        6.6278       4.273550       0.01102
   7     480.5        2.3609        0.0207        6.5570        6.5777       4.216752       0.01115
   6     533.0        2.3699        0.0228        6.4915        6.5143       4.144342       0.01165
   5     589.8        2.3807        0.0250        6.4182        6.4433       4.062532       0.01214
   4     651.6        2.3939        0.0274        6.3359        6.3633       3.969443       0.01273
   3     718.7        2.4096        0.0300        6.2441        6.2741       3.864461       0.01319
   2     792.3        2.4283        0.0326        6.1437        6.1763       3.748086       0.01335
   1     891.5        0.5195        1.9993        2.1516        4.1510       3.631486       0.00992
   0    1013.0        0.5263        1.9664        2.0874        4.0538       3.527530       0.00722



 Wavenumbers:  8050. - 12850. cm-1, ATM      1
 LEVEL PRESSURE   UPWARD FLUX   DIFDOWN FLUX  DIRDOWN FLUX  DOWNWARD FLUX   NET FLUX    HEATING RATE
          mb          W/m2          W/m2          W/m2        W/m2          W/m2       degree/day
  51    .06700       34.9691        0.0000      100.8135      100.8135      65.844367       0.00000
  50    .07753       34.9691        0.0000      100.8135      100.8135      65.844367       0.00000
  49    .09103       34.9691        0.0001      100.8134      100.8135      65.844367      -0.00000
  48    0.1069       34.9691        0.0001      100.8134      100.8134      65.844367       0.00000
  47    0.1255       34.9691        0.0001      100.8133      100.8134      65.844367       0.00000
  46    0.1487       34.9690        0.0002      100.8132      100.8134      65.844367      -0.00000
  45    0.1794       34.9690        0.0003      100.8131      100.8133      65.844367       0.00000
  44    0.2165       34.9689        0.0003      100.8129      100.8133      65.844367       0.00000
  43    0.2613       34.9688        0.0004      100.8127      100.8132      65.844367       0.00000
  42    0.3336       34.9687        0.0006      100.8125      100.8131      65.844367      -0.00000
  41    0.4307       34.9685        0.0008      100.8121      100.8129      65.844367       0.00000
  40    0.5894       34.9683        0.0012      100.8115      100.8127      65.844367      -0.00000
  39     1.339       34.9670        0.0029      100.8085      100.8114      65.844367       0.00000
  38     1.782       34.9663        0.0039      100.8068      100.8107      65.844367       0.00000
  37     2.292       34.9655        0.0051      100.8047      100.8098      65.844367       0.00000
  36     2.964       34.9644        0.0066      100.8021      100.8087      65.844367       0.00000
  35     3.853       34.9629        0.0087      100.7986      100.8073      65.844367      -0.00000
  34     5.035       34.9610        0.0114      100.7940      100.8053      65.844367       0.00000
  33     6.613       34.9584        0.0150      100.7878      100.8027      65.844367       0.00000
  32     8.786       34.9549        0.0198      100.7794      100.7992      65.844367       0.00000
  31     11.80       34.9499        0.0268      100.7674      100.7942      65.844367       0.00000
  30     15.07       34.9445        0.0343      100.7546      100.7888      65.844367       0.00000
  29     18.79       34.9384        0.0427      100.7400      100.7827      65.844367      -0.00000
  28     23.16       34.9312        0.0526      100.7230      100.7756      65.844367       0.00000
  27     28.12       34.9231        0.0640      100.7035      100.7675      65.844367       0.00000
  26     33.73       34.9139        0.0767      100.6817      100.7583      65.844367       0.00000
  25     40.54       34.9029        0.0920      100.6552      100.7472      65.844367      -0.00000
  24     48.69       34.8895        0.1105      100.6234      100.7339      65.844367      -0.00000
  23     57.69       34.8748        0.1309      100.5883      100.7192      65.844367       0.00000
  22     68.43       34.8573        0.1552      100.5464      100.7017      65.844367       0.00000
  21     81.20       34.8364        0.1842      100.4965      100.6808      65.844367       0.00000
  20     96.49       34.8114        0.2188      100.4370      100.6558      65.844367       0.00000
  19     114.6       34.7818        0.2600      100.3585      100.6185      65.836645       0.00361
  18     136.5       34.7467        0.3088      100.2634      100.5722      65.825535       0.00427
  17     162.9       34.7048        0.3671      100.1407      100.5078      65.803001       0.00720
  16     196.4       34.6505        0.4428       99.9505      100.3933      65.742853       0.01514
  15     218.7       34.6148        0.4925       99.7889      100.2815      65.666706       0.02891
  14     243.0       34.5762        0.5465       99.5472      100.0937      65.517511       0.05175
  13     269.0       34.5352        0.6046       99.1452       99.7499      65.214672       0.09824
  12     297.5       34.4925        0.6670       98.5975       99.2645      64.771981       0.13130
  11     328.5       34.4492        0.7338       97.8659       98.5997      64.150524       0.16897
  10     361.9       34.4069        0.8048       96.8848       97.6895      63.282629       0.21959
   9     398.1       34.3681        0.8796       95.6330       96.5126      62.144537       0.26515
   8     437.6       34.3370        0.9580       94.0655       95.0235      60.686429       0.31175
   7     480.5       34.3224        1.0389       92.0807       93.1196      58.797209       0.37104
   6     533.0       34.3362        1.1344       89.4449       90.5792      56.242997       0.41089
   5     589.8       34.3991        1.2328       86.5544       87.7872      53.388148       0.42375
   4     651.6       34.5400        1.3338       83.4174       84.7512      50.211178       0.43446
   3     718.7       34.7816        1.4380       80.2037       81.6417      46.860082       0.42114
   2     792.3       35.1498        1.5460       77.0811       78.6271      43.477313       0.38797
   1     891.5       12.5688       26.6236       26.2587       52.8823      40.313506       0.26922
   0    1013.0       12.8374       25.7549       24.7098       50.4647      37.627343       0.18651



 Wavenumbers: 12850. - 16000. cm-1, ATM      1
 LEVEL PRESSURE   UPWARD FLUX   DIFDOWN FLUX  DIRDOWN FLUX  DOWNWARD FLUX   NET FLUX    HEATING RATE
          mb          W/m2          W/m2          W/m2        W/m2          W/m2       degree/day
  51    .06700       36.1498        0.0000       63.1686       63.1686      27.018756       0.00000
  50    .07753       36.1498        0.0001       63.1677       63.1678      27.017976       0.62508
  49    .09103       36.1498        0.0001       63.1666       63.1668      27.017004       0.60752
  48    0.1069       36.1497        0.0002       63.1654       63.1656      27.015897       0.58916
  47    0.1255       36.1497        0.0003       63.1640       63.1643      27.014638       0.57074
  46    0.1487       36.1497        0.0004       63.1623       63.1627      27.013068       0.57238
  45    0.1794       36.1496        0.0006       63.1600       63.1606      27.010962       0.57812
  44    0.2165       36.1496        0.0008       63.1573       63.1581      27.008526       0.55405
  43    0.2613       36.1495        0.0010       63.1542       63.1552      27.005716       0.52963
  42    0.3336       36.1494        0.0014       63.1493       63.1507      27.001239       0.52203
  41    0.4307       36.1494        0.0019       63.1431       63.1450      26.995638       0.48700
  40    0.5894       36.1494        0.0027       63.1338       63.1366      26.987151       0.45132
  39     1.339       36.1507        0.0066       63.0956       63.1022      26.951469       0.40172
  38     1.782       36.1525        0.0089       63.0740       63.0829      26.930449       0.40017
  37     2.292       36.1554        0.0116       63.0477       63.0592      26.903783       0.44166
  36     2.964       36.1607        0.0150       63.0095       63.0246      26.863845       0.50135
  35     3.853       36.1696        0.0196       62.9533       62.9729      26.803222       0.57533
  34     5.035       36.1835        0.0257       62.8725       62.8982      26.714738       0.63209
  33     6.613       36.2029        0.0338       62.7621       62.7959      26.592969       0.65098
  32     8.786       36.2281        0.0447       62.6182       62.6630      26.434905       0.61387
  31     11.80       36.2602        0.0603       62.4284       62.4887      26.228430       0.57806
  30     15.07       36.2903        0.0770       62.2426       62.3196      26.029296       0.51413
  29     18.79       36.3203        0.0958       62.0493       62.1451      25.824838       0.46357
  28     23.16       36.3506        0.1177       61.8424       61.9602      25.609544       0.41631
  27     28.12       36.3799        0.1427       61.6278       61.7705      25.390600       0.37219
  26     33.73       36.4050        0.1707       61.4177       61.5883      25.183304       0.31167
  25     40.54       36.4264        0.2043       61.1983       61.4026      24.976260       0.25686
  24     48.69       36.4435        0.2449       60.9680       61.2129      24.769426       0.21404
  23     57.69       36.4538        0.2894       60.7478       61.0372      24.583385       0.17439
  22     68.43       36.4570        0.3423       60.5202       60.8625      24.405487       0.13985
  21     81.20       36.4484        0.4053       60.2938       60.6992      24.250788       0.10222
  20     96.49       36.4266        0.4804       60.0643       60.5447      24.118112       0.07323
  19     114.6       36.4010        0.5700       59.8078       60.3778      23.976800       0.06598
  18     136.5       36.3656        0.6761       59.5157       60.1918      23.826224       0.05790
  17     162.9       36.3186        0.8020       59.1770       59.9791      23.660420       0.05300
  16     196.4       36.2478        0.9649       58.7604       59.7254      23.477612       0.04602
  15     218.7       36.1976        1.0716       58.4948       59.5664      23.368818       0.04131
  14     243.0       36.1416        1.1874       58.2089       59.3963      23.254680       0.03959
  13     269.0       36.0796        1.3125       57.9006       59.2131      23.133502       0.03931
  12     297.5       36.0118        1.4475       57.5668       59.0143      23.002489       0.03886
  11     328.5       35.9391        1.5929       57.2005       58.7934      22.854340       0.04028
  10     361.9       35.8622        1.7490       56.7963       58.5453      22.683149       0.04331
   9     398.1       35.7819        1.9163       56.3475       58.2638      22.481923       0.04688
   8     437.6       35.7003        2.0952       55.8422       57.9374      22.237107       0.05234
   7     480.5       35.6210        2.2857       55.2625       57.5482      21.927199       0.06086
   6     533.0       35.5372        2.5181       54.4972       57.0152      21.478047       0.07225
   5     589.8       35.4642        2.7652       53.6307       56.3959      20.931677       0.08110
   4     651.6       35.4099        3.0262       52.6606       55.6868      20.276905       0.08954
   3     718.7       35.3788        3.3015       51.6100       54.9115      19.532764       0.09352
   2     792.3       35.3769        3.5909       50.5019       54.0927      18.715865       0.09369
   1     891.5       22.3415       22.6091       17.5659       40.1750      17.833523       0.07508
   0    1013.0       22.4543       22.4636       16.9242       39.3877      16.933415       0.06250



 Wavenumbers: 16000. - 22650. cm-1, ATM      1
 LEVEL PRESSURE   UPWARD FLUX   DIFDOWN FLUX  DIRDOWN FLUX  DOWNWARD FLUX   NET FLUX    HEATING RATE
          mb          W/m2          W/m2          W/m2        W/m2          W/m2       degree/day
  51    .06700       76.9810        0.0000      100.7153      100.7153      23.734286       0.00000
  50    .07753       76.9809        0.0003      100.7147      100.7151      23.734168       0.09444
  49    .09103       76.9807        0.0007      100.7140      100.7147      23.733997       0.10711
  48    0.1069       76.9806        0.0012      100.7131      100.7143      23.733767       0.12214
  47    0.1255       76.9804        0.0018      100.7121      100.7139      23.733460       0.13923
  46    0.1487       76.9802        0.0024      100.7108      100.7132      23.733008       0.16498
  45    0.1794       76.9800        0.0034      100.7089      100.7123      23.732300       0.19425
  44    0.2165       76.9797        0.0045      100.7066      100.7110      23.731340       0.21831
  43    0.2613       76.9794        0.0058      100.7037      100.7095      23.730038       0.24543
  42    0.3336       76.9791        0.0080      100.6987      100.7067      23.727563       0.28862
  41    0.4307       76.9788        0.0109      100.6918      100.7026      23.723831       0.32443
  40    0.5894       76.9786        0.0156      100.6797      100.6953      23.716715       0.37842
  39     1.339       76.9832        0.0379      100.6095      100.6474      23.664152       0.59177
  38     1.782       76.9900        0.0510      100.5585      100.6094      23.619387       0.85224
  37     2.292       77.0017        0.0661      100.4903      100.5563      23.554611       1.07287
  36     2.964       77.0230        0.0860      100.3868      100.4727      23.449720       1.31669
  35     3.853       77.0594        0.1122      100.2306      100.3428      23.283405       1.57836
  34     5.035       77.1159        0.1469      100.0045      100.1514      23.035543       1.77063
  33     6.613       77.1955        0.1933       99.6939       99.8872      22.691612       1.83866
  32     8.786       77.2987        0.2556       99.2881       99.5437      22.244992       1.73451
  31     11.80       77.4302        0.3444       98.7496       99.0940      21.663828       1.62708
  30     15.07       77.5529        0.4395       98.2198       98.6593      21.106446       1.43905
  29     18.79       77.6747        0.5465       97.6651       98.2116      20.536907       1.29132
  28     23.16       77.7978        0.6710       97.0671       97.7382      19.940372       1.15350
  27     28.12       77.9160        0.8129       96.4406       97.2534      19.337409       1.02500
  26     33.73       78.0160        0.9711       95.8179       96.7890      18.772945       0.84869
  25     40.54       78.0995        1.1616       95.1548       96.3164      18.216928       0.68980
  24     48.69       78.1640        1.3904       94.4420       95.8324      17.668391       0.56765
  23     57.69       78.1999        1.6407       93.7416       95.3823      17.182387       0.45556
  22     68.43       78.2052        1.9376       92.9954       94.9329      16.727729       0.35742
  21     81.20       78.1601        2.2899       92.2231       94.5130      16.352915       0.24767
  20     96.49       78.0590        2.7077       91.4110       94.1187      16.059774       0.16179
  19     114.6       77.9155        3.2005       90.5070       93.7075      15.791983       0.12504
  18     136.5       77.7304        3.7797       89.4803       93.2599      15.529529       0.10092
  17     162.9       77.4970        4.4625       88.3022       92.7647      15.267718       0.08369
  16     196.4       77.1650        5.3378       86.8606       92.1984      15.033344       0.05899
  15     218.7       76.9372        5.9064       85.9492       91.8555      14.918362       0.04365
  14     243.0       76.6858        6.5188       84.9789       91.4977      14.811906       0.03692
  13     269.0       76.4099        7.1761       83.9493       91.1254      14.715472       0.03128
  12     297.5       76.1087        7.8790       82.8589       90.7379      14.629180       0.02559
  11     328.5       75.7837        8.6299       81.6982       90.3282      14.544436       0.02304
  10     361.9       75.4349        9.4287       80.4669       89.8956      14.460707       0.02118
   9     398.1       75.0615       10.2772       79.1611       89.4383      14.376770       0.01956
   8     437.6       74.6641       11.1756       77.7777       88.9534      14.289288       0.01870
   7     480.5       74.2430       12.1244       76.3136       88.4381      14.195085       0.01850
   6     533.0       73.7325       13.2723       74.5359       87.8082      14.075651       0.01921
   5     589.8       73.1934       14.4852       72.6469       87.1321      13.938725       0.02032
   4     651.6       72.6280       15.7610       70.6456       86.4066      13.778558       0.02190
   3     718.7       72.0371       17.0977       68.5367       85.6344      13.597247       0.02279
   2     792.3       71.4235       18.4898       66.3287       84.8184      13.394963       0.02320
   1     891.5       56.1897       46.6109       22.7334       69.3443      13.154654       0.02045
   0    1013.0       55.8247       47.1859       21.5232       68.7091      12.884369       0.01877



 Wavenumbers: 22650. - 29000. cm-1, ATM      1
 LEVEL PRESSURE   UPWARD FLUX   DIFDOWN FLUX  DIRDOWN FLUX  DOWNWARD FLUX   NET FLUX    HEATING RATE
          mb          W/m2          W/m2          W/m2        W/m2          W/m2       degree/day
  51    .06700       34.5887        0.0000       38.0063       38.0063       3.417604       0.00000
  50    .07753       34.5885        0.0004       38.0057       38.0061       3.417604      -0.00000
  49    .09103       34.5883        0.0009       38.0050       38.0059       3.417604       0.00000
  48    0.1069       34.5881        0.0014       38.0042       38.0057       3.417604       0.00000
  47    0.1255       34.5878        0.0021       38.0033       38.0054       3.417604       0.00000
  46    0.1487       34.5874        0.0029       38.0022       38.0051       3.417604      -0.00000
  45    0.1794       34.5870        0.0040       38.0006       38.0046       3.417604      -0.00000
  44    0.2165       34.5864        0.0053       37.9987       38.0040       3.417604       0.00000
  43    0.2613       34.5857        0.0068       37.9965       38.0034       3.417604       0.00000
  42    0.3336       34.5846        0.0094       37.9928       38.0023       3.417604      -0.00000
  41    0.4307       34.5832        0.0128       37.9880       38.0008       3.417604       0.00000
  40    0.5894       34.5808        0.0184       37.9800       37.9984       3.417604       0.00000
  39     1.339       34.5695        0.0446       37.9425       37.9871       3.417604       0.00000
  38     1.782       34.5629        0.0601       37.9204       37.9805       3.417604       0.00000
  37     2.292       34.5552        0.0779       37.8949       37.9728       3.417604       0.00000
  36     2.964       34.5452        0.1013       37.8614       37.9628       3.417604       0.00000
  35     3.853       34.5319        0.1323       37.8172       37.9495       3.417604      -0.00000
  34     5.035       34.5143        0.1733       37.7586       37.9319       3.417604       0.00000
  33     6.613       34.4908        0.2280       37.6803       37.9084       3.417604      -0.00000
  32     8.786       34.4591        0.3017       37.5750       37.8767       3.417604       0.00000
  31     11.80       34.4140        0.4067       37.4249       37.8316       3.417604      -0.00000
  30     15.07       34.3656        0.5191       37.2642       37.7832       3.417604       0.00000
  29     18.79       34.3112        0.6455       37.0833       37.7288       3.417604       0.00000
  28     23.16       34.2480        0.7926       36.8730       37.6656       3.417604      -0.00000
  27     28.12       34.1759        0.9598       36.6338       37.5935       3.417604      -0.00000
  26     33.73       34.0958        1.1457       36.3677       37.5134       3.417604       0.00000
  25     40.54       33.9996        1.3686       36.0486       37.4172       3.417604       0.00000
  24     48.69       33.8846        1.6350       35.6672       37.3022       3.417604       0.00000
  23     57.69       33.7594        1.9243       35.2527       37.1770       3.417604      -0.00000
  22     68.43       33.6121        2.2647       34.7649       37.0297       3.417604      -0.00000
  21     81.20       33.4388        2.6642       34.1922       36.8564       3.417604       0.00000
  20     96.49       33.2357        3.1315       33.5217       36.6533       3.417604       0.00000
  19     114.6       32.9991        3.6744       32.7424       36.4167       3.417604      -0.00000
  18     136.5       32.7252        4.3012       31.8416       36.1428       3.417604       0.00000
  17     162.9       32.4078        5.0246       30.8008       35.8254       3.417604       0.00000
  16     196.4       32.0100        5.9269       29.5007       35.4276       3.417604      -0.00000
  15     218.7       31.7571        6.4980       28.6767       35.1747       3.417604       0.00000
  14     243.0       31.4893        7.1001       27.8068       34.9069       3.417604       0.00000
  13     269.0       31.2073        7.7315       26.8933       34.6249       3.417604       0.00000
  12     297.5       30.9116        8.3899       25.9393       34.3292       3.417604      -0.00000
  11     328.5       30.6024        9.0749       24.9451       34.0200       3.417604       0.00000
  10     361.9       30.2809        9.7825       23.9160       33.6985       3.417604       0.00000
   9     398.1       29.9475       10.5109       22.8541       33.3651       3.417604      -0.00000
   8     437.6       29.6034       11.2566       21.7645       33.0210       3.417604      -0.00000
   7     480.5       29.2500       12.0155       20.6521       32.6676       3.417604       0.00000
   6     533.0       28.8354       12.8961       19.3569       32.2530       3.417604       0.00000
   5     589.8       28.4121       13.7829       18.0467       31.8297       3.417604       0.00000
   4     651.6       27.9826       14.6686       16.7316       31.4002       3.417604       0.00000
   3     718.7       27.5493       15.5455       15.4214       30.9669       3.417604       0.00000
   2     792.3       27.1154       16.4054       14.1276       30.5330       3.417604      -0.00000
   1     891.5       23.5463       22.4668        4.4971       26.9639       3.417568       0.00000
   0    1013.0       23.2600       22.7805        3.8970       26.6775       3.417568      -0.00000



 Wavenumbers: 29000. - 38000. cm-1, ATM      1
 LEVEL PRESSURE   UPWARD FLUX   DIFDOWN FLUX  DIRDOWN FLUX  DOWNWARD FLUX   NET FLUX    HEATING RATE
          mb          W/m2          W/m2          W/m2        W/m2          W/m2       degree/day
  51    .06700        4.9104        0.0000       13.4026       13.4026       8.492246       0.00000
  50    .07753        4.9101        0.0003       13.3983       13.3986       8.488448       3.04441
  49    .09103        4.9099        0.0007       13.3921       13.3928       8.482928       3.44969
  48    0.1069        4.9096        0.0011       13.3840       13.3851       8.475552       3.92679
  47    0.1255        4.9092        0.0016       13.3733       13.3749       8.465707       4.46320
  46    0.1487        4.9088        0.0022       13.3579       13.3600       8.451264       5.26441
  45    0.1794        4.9082        0.0030       13.3340       13.3371       8.428864       6.14930
  44    0.2165        4.9075        0.0040       13.3024       13.3064       8.398845       6.82881
  43    0.2613        4.9068        0.0052       13.2604       13.2656       8.358790       7.55016
  42    0.3336        4.9056        0.0070       13.1833       13.1903       8.284784       8.62848
  41    0.4307        4.9040        0.0095       13.0729       13.0824       8.178411       9.24887
  40    0.5894        4.9016        0.0134       12.8796       12.8930       7.991366       9.94679
  39     1.339        4.8932        0.0297       11.9165       11.9462       7.053018      10.56410
  38     1.782        4.8899        0.0380       11.4399       11.4779       6.588029       8.85264
  37     2.292        4.8874        0.0469       10.9796       11.0265       6.139085       7.43569
  36     2.964        4.8860        0.0578       10.4786       10.5364       5.650433       6.13406
  35     3.853        4.8866        0.0713        9.9429       10.0142       5.127539       4.96236
  34     5.035        4.8901        0.0881        9.4007        9.4888       4.598748       3.77746
  33     6.613        4.8964        0.1094        8.8752        8.9847       4.088271       2.72901
  32     8.786        4.9052        0.1370        8.3786        8.5156       3.610423       1.85579
  31     11.80        4.9158        0.1748        7.8897        8.0645       3.148611       1.29293
  30     15.07        4.9251        0.2138        7.5108        7.7246       2.799539       0.90123
  29     18.79        4.9336        0.2563        7.1776        7.4339       2.500292       0.67849
  28     23.16        4.9414        0.3041        6.8664        7.1706       2.229142       0.52432
  27     28.12        4.9478        0.3570        6.5780        6.9351       1.987320       0.41108
  26     33.73        4.9502        0.4147        6.3195        6.7342       1.784025       0.30566
  25     40.54        4.9474        0.4827        6.0663        6.5490       1.601537       0.22640
  24     48.69        4.9391        0.5624        5.8128        6.3752       1.436165       0.17113
  23     57.69        4.9250        0.6474        5.5777        6.2251       1.300149       0.12749
  22     68.43        4.9029        0.7458        5.3379        6.0837       1.180810       0.09382
  21     81.20        4.8686        0.8600        5.0965        5.9565       1.087892       0.06140
  20     96.49        4.8209        0.9919        4.8476        5.8396       1.018677       0.03820
  19     114.6        4.7628        1.1414        4.5799        5.7212       0.958410       0.02814
  18     136.5        4.6955        1.3083        4.2891        5.5974       0.901902       0.02173
  17     162.9        4.6186        1.4934        3.9732        5.4666       0.848011       0.01723
  16     196.4        4.5212        1.7151        3.6080        5.3231       0.801922       0.01160
  15     218.7        4.4598        1.8500        3.3898        5.2398       0.779971       0.00833
  14     243.0        4.3960        1.9875        3.1686        5.1561       0.760053       0.00691
  13     269.0        4.3301        2.1265        2.9461        5.0725       0.742478       0.00570
  12     297.5        4.2624        2.2657        2.7239        4.9896       0.727267       0.00451
  11     328.5        4.1937        2.4038        2.5029        4.9067       0.712974       0.00389
  10     361.9        4.1246        2.5397        2.2846        4.8243       0.699620       0.00338
   9     398.1        4.0555        2.6719        2.0708        4.7427       0.687200       0.00289
   8     437.6        3.9867        2.7996        1.8626        4.6622       0.675449       0.00251
   7     480.5        3.9188        2.9211        1.6621        4.5832       0.664493       0.00215
   6     533.0        3.8424        3.0515        1.4437        4.4952       0.652776       0.00188
   5     589.8        3.7683        3.1710        1.2390        4.4099       0.641654       0.00165
   4     651.6        3.6969        3.2779        1.0500        4.3279       0.630976       0.00146
   3     718.7        3.6285        3.3714        0.8778        4.2492       0.620705       0.00129
   2     792.3        3.5635        3.4506        0.7237        4.1743       0.610822       0.00113
   1     891.5        3.2501        3.6501        0.1994        3.8495       0.599392       0.00097
   0    1013.0        3.1981        3.6407        0.1448        3.7855       0.587402       0.00083



 Wavenumbers: 38000. - 50000. cm-1, ATM      1
 LEVEL PRESSURE   UPWARD FLUX   DIFDOWN FLUX  DIRDOWN FLUX  DOWNWARD FLUX   NET FLUX    HEATING RATE
          mb          W/m2          W/m2          W/m2        W/m2          W/m2       degree/day
  51    .06700        0.0051        0.0000        0.8267        0.8267       0.821528       0.00000
  50    .07753        0.0051        0.0001        0.8242        0.8243       0.819196       1.86936
  49    .09103        0.0050        0.0002        0.8207        0.8209       0.815872       2.07705
  48    0.1069        0.0049        0.0002        0.8162        0.8164       0.811514       2.31984
  47    0.1255        0.0048        0.0004        0.8103        0.8106       0.805801       2.59006
  46    0.1487        0.0047        0.0005        0.8018        0.8023       0.797567       3.00143
  45    0.1794        0.0045        0.0007        0.7889        0.7896       0.785013       3.44648
  44    0.2165        0.0044        0.0009        0.7720        0.7729       0.768507       3.75474
  43    0.2613        0.0042        0.0011        0.7500        0.7511       0.746955       4.06246
  42    0.3336        0.0039        0.0015        0.7106        0.7121       0.708267       4.51071
  41    0.4307        0.0035        0.0019        0.6566        0.6584       0.654972       4.63387
  40    0.5894        0.0029        0.0024        0.5680        0.5704       0.567464       4.65357
  39     1.339        0.0015        0.0030        0.2422        0.2452       0.243720       3.64476
  38     1.782        0.0010        0.0026        0.1493        0.1519       0.150889       1.76735
  37     2.292        0.0007        0.0022        0.0924        0.0946       0.093932       0.94336
  36     2.964        0.0005        0.0018        0.0539        0.0557       0.055224       0.48589
  35     3.853        0.0003        0.0013        0.0295        0.0308       0.030502       0.23462
  34     5.035        0.0002        0.0010        0.0154        0.0164       0.016181       0.10230
  33     6.613        0.0001        0.0007        0.0073        0.0080       0.007912       0.04420
  32     8.786        0.0000        0.0004        0.0030        0.0034       0.003390       0.01756
  31     11.80        0.0000        0.0003        0.0010        0.0012       0.001199       0.00613
  30     15.07        0.0000        0.0001        0.0003        0.0005       0.000463       0.00190
  29     18.79        0.0000        0.0001        0.0001        0.0002       0.000182       0.00064
  28     23.16        0.0000        0.0000        0.0000        0.0001       0.000071       0.00022
  27     28.12        0.0000        0.0000        0.0000        0.0000       0.000028       0.00007
  26     33.73        0.0000        0.0000        0.0000        0.0000       0.000011       0.00002
  25     40.54        0.0000        0.0000        0.0000        0.0000       0.000005       0.00001
  24     48.69        0.0000        0.0000        0.0000        0.0000       0.000002       0.00000
  23     57.69        0.0000        0.0000        0.0000        0.0000       0.000001       0.00000
  22     68.43        0.0000        0.0000        0.0000        0.0000       0.000000       0.00000
  21     81.20        0.0000        0.0000        0.0000        0.0000       0.000000       0.00000
  20     96.49        0.0000        0.0000        0.0000        0.0000       0.000000       0.00000
  19     114.6        0.0000        0.0000        0.0000        0.0000       0.000000       0.00000
  18     136.5        0.0000        0.0000        0.0000        0.0000       0.000000       0.00000
  17     162.9        0.0000        0.0000        0.0000        0.0000       0.000000       0.00000
  16     196.4        0.0000        0.0000        0.0000        0.0000       0.000000       0.00000
  15     218.7        0.0000        0.0000        0.0000        0.0000       0.000000       0.00000
  14     243.0        0.0000        0.0000        0.0000        0.0000       0.000000       0.00000
  13     269.0        0.0000        0.0000        0.0000        0.0000       0.000000       0.00000
  12     297.5        0.0000        0.0000        0.0000        0.0000       0.000000       0.00000
  11     328.5        0.0000        0.0000        0.0000        0.0000       0.000000       0.00000
  10     361.9        0.0000        0.0000        0.0000        0.0000       0.000000       0.00000
   9     398.1        0.0000        0.0000        0.0000        0.0000       0.000000       0.00000
   8     437.6        0.0000        0.0000        0.0000        0.0000       0.000000       0.00000
   7     480.5        0.0000        0.0000        0.0000        0.0000       0.000000       0.00000
   6     533.0        0.0000        0.0000        0.0000        0.0000       0.000000       0.00000
   5     589.8        0.0000        0.0000        0.0000        0.0000       0.000000       0.00000
   4     651.6        0.0000        0.0000        0.0000        0.0000       0.000000       0.00000
   3     718.7        0.0000        0.0000        0.0000        0.0000       0.000000       0.00000
   2     792.3        0.0000        0.0000        0.0000        0.0000       0.000000       0.00000
   1     891.5        0.0000        0.0000        0.0000        0.0000       0.000000       0.00000
   0    1013.0        0.0000        0.0000        0.0000        0.0000       0.000000       0.00000



 Wavenumbers:   820. -  2600. cm-1, ATM      1
 LEVEL PRESSURE   UPWARD FLUX   DIFDOWN FLUX  DIRDOWN FLUX  DOWNWARD FLUX   NET FLUX    HEATING RATE
          mb          W/m2          W/m2          W/m2        W/m2          W/m2       degree/day
  51    .06700        0.3531        0.0000        3.8670        3.8670       3.513940       0.00000
  50    .07753        0.3531        0.0000        3.8643        3.8643       3.511223       2.17770
  49    .09103        0.3531        0.0000        3.8635        3.8635       3.510413       0.50638
  48    0.1069        0.3531        0.0000        3.8626        3.8626       3.509522       0.47415
  47    0.1255        0.3531        0.0000        3.8616        3.8616       3.508562       0.43560
  46    0.1487        0.3531        0.0000        3.8605        3.8605       3.507452       0.40438
  45    0.1794        0.3531        0.0000        3.8592        3.8592       3.506117       0.36648
  44    0.2165        0.3531        0.0000        3.8578        3.8578       3.504739       0.31346
  43    0.2613        0.3531        0.0000        3.8564        3.8564       3.503279       0.27522
  42    0.3336        0.3531        0.0000        3.8541        3.8541       3.501048       0.26013
  41    0.4307        0.3531        0.0000        3.8512        3.8512       3.498165       0.25063
  40    0.5894        0.3531        0.0000        3.8465        3.8465       3.493439       0.25134
  39     1.339        0.3531        0.0000        3.8251        3.8251       3.472063       0.24065
  38     1.782        0.3531        0.0000        3.8133        3.8133       3.460250       0.22490
  37     2.292        0.3531        0.0000        3.8003        3.8003       3.447189       0.21633
  36     2.964        0.3531        0.0000        3.7841        3.7841       3.431059       0.20247
  35     3.853        0.3531        0.0000        3.7642        3.7642       3.411144       0.18900
  34     5.035        0.3531        0.0000        3.7395        3.7395       3.386452       0.17639
  33     6.613        0.3531        0.0000        3.7090        3.7090       3.355916       0.16325
  32     8.786        0.3531        0.0000        3.6726        3.6726       3.319521       0.14134
  31     11.80        0.3531        0.0000        3.6320        3.6320       3.278924       0.11366
  30     15.07        0.3531        0.0000        3.6016        3.6016       3.248538       0.07845
  29     18.79        0.3531        0.0000        3.5777        3.5777       3.224637       0.05419
  28     23.16        0.3531        0.0000        3.5564        3.5564       3.203280       0.04130
  27     28.12        0.3531        0.0000        3.5348        3.5348       3.181729       0.03663
  26     33.73        0.3531        0.0000        3.5118        3.5118       3.158691       0.03464
  25     40.54        0.3531        0.0000        3.4849        3.4849       3.131798       0.03336
  24     48.69        0.3531        0.0000        3.4537        3.4537       3.100538       0.03235
  23     57.69        0.3532        0.0000        3.4210        3.4210       3.067857       0.03063
  22     68.43        0.3532        0.0000        3.3844        3.3844       3.031261       0.02877
  21     81.20        0.3532        0.0000        3.3441        3.3441       2.990949       0.02664
  20     96.49        0.3532        0.0000        3.2998        3.2998       2.946569       0.02449
  19     114.6        0.3532        0.0000        3.2506        3.2506       2.897401       0.02296
  18     136.5        0.3533        0.0000        3.1936        3.1936       2.840323       0.02195
  17     162.9        0.3534        0.0000        3.1181        3.1181       2.764770       0.02415
  16     196.4        0.3535        0.0000        3.0090        3.0090       2.655484       0.02751
  15     218.7        0.3536        0.0000        2.9420        2.9420       2.588407       0.02547
  14     243.0        0.3537        0.0000        2.8605        2.8605       2.506738       0.02833
  13     269.0        0.3540        0.0000        2.7419        2.7420       2.387976       0.03853
  12     297.5        0.3544        0.0000        2.5729        2.5729       2.218472       0.05027
  11     328.5        0.3551        0.0000        2.3602        2.3602       2.005113       0.05801
  10     361.9        0.3561        0.0000        2.1524        2.1524       1.796321       0.05283
   9     398.1        0.3576        0.0000        1.9974        1.9974       1.639855       0.03645
   8     437.6        0.3596        0.0000        1.8835        1.8835       1.523904       0.02479
   7     480.5        0.3625        0.0000        1.7734        1.7734       1.410899       0.02219
   6     533.0        0.3674        0.0000        1.6397        1.6398       1.272405       0.02228
   5     589.8        0.3743        0.0000        1.5068        1.5069       1.132588       0.02075
   4     651.6        0.3845        0.0000        1.3807        1.3807       0.996243       0.01865
   3     718.7        0.3981        0.0000        1.2680        1.2681       0.869935       0.01587
   2     792.3        0.4151        0.0000        1.1659        1.1660       0.750860       0.01366
   1     891.5        0.0750        0.3429        0.3717        0.7146       0.639556       0.00947
   0    1013.0        0.0826        0.3089        0.3123        0.6212       0.538608       0.00701

  Modules and versions used in this calculation:

       rrtmg_sw.1col.f90:  $Revision$                    rrtmg_sw_init.f90:  $Revision$        
     rrtmgsw_cldprop.f90:  $Revision$                  rrtmgsw_cldprmc.f90:  NOT USED          
     rrtmg_sw_reftra.f90:  $Revision$                  rrtmg_sw_spcvrt.f90:  NOT USED          
     rrtmg_sw_spcvmc.f90:  NOT USED                    rrtmgsw_setcoef.f90:  NOT USED          
     rrtmg_sw_taumol.f90:  $Revision$                  rrtmg_sw_vrtqdr.f90:  NOT USED          
                rrtatm.f:  NOT USED                             util_xxx.f:  NOT USED          
                 extra.f:  NOT USED                       rrtmg_sw_k_g.f90:  $Revision$        

