

 Wavenumbers:   820. - 50000. cm-1, ATM      1
 LEVEL PRESSURE   UPWARD FLUX   DIFDOWN FLUX  DIRDOWN FLUX  DOWNWARD FLUX   NET FLUX    HEATING RATE
          mb          W/m2          W/m2          W/m2        W/m2          W/m2       degree/day
  51    .06700      268.3855        0.0000      397.8738      397.8738     129.488271       0.00000
  50    .07753      268.3849        0.0012      397.8577      397.8589     129.473979      11.45597
  49    .09103      268.3842        0.0027      397.8418      397.8445     129.460288       8.55715
  48    0.1069      268.3834        0.0044      397.8230      397.8273     129.443937       8.70367
  47    0.1255      268.3825        0.0063      397.7997      397.8060     129.423490       9.26942
  46    0.1487      268.3814        0.0088      397.7676      397.7764     129.395028      10.37493
  45    0.1794      268.3799        0.0121      397.7205      397.7326     129.352728      11.61224
  44    0.2165      268.3783        0.0161      397.6602      397.6763     129.298070      12.43372
  43    0.2613      268.3764        0.0207      397.5829      397.6037     129.227261      13.34727
  42    0.3336      268.3735        0.0284      397.4449      397.4733     129.099800      14.86074
  41    0.4307      268.3700        0.0385      397.2524      397.2909     128.920898      15.55510
  40    0.5894      268.3649        0.0547      396.9253      396.9800     128.615121      16.26084
  39     1.339      268.3525        0.1271      395.4254      395.5525     127.199974      15.93198
  38     1.782      268.3531        0.1677      394.7288      394.8965     126.543389      12.50033
  37     2.292      268.3608        0.2139      394.0572      394.2711     125.910335      10.48503
  36     2.964      268.3812        0.2740      393.3007      393.5747     125.193464       8.99889
  35     3.853      268.4226        0.3525      392.4318      392.7843     124.361707       7.89353
  34     5.035      268.4917        0.4557      391.4441      391.8998     123.408086       6.81227
  33     6.613      268.5919        0.5926      390.3268      390.9193     122.327370       5.77751
  32     8.786      268.7212        0.7756      389.0624      389.8380     121.116727       4.70170
  31     11.80      268.8819        1.0353      387.5500      388.5853     119.703386       3.95691
  30     15.07      269.0260        1.3120      386.1556      387.4676     118.441562       3.25778
  29     18.79      269.1635        1.6221      384.7502      386.3723     117.208788       2.79508
  28     23.16      269.2949        1.9814      383.2686      385.2501     115.955188       2.42406
  27     28.12      269.4110        2.3891      381.7329      384.1219     114.710961       2.11510
  26     33.73      269.4910        2.8420      380.1982      383.0401     113.549164       1.74679
  25     40.54      269.5297        3.3852      378.5384      381.9236     112.393837       1.43331
  24     48.69      269.5211        4.0344      376.7214      380.7558     111.234793       1.19943
  23     57.69      269.4584        4.7409      374.8959      379.6368     110.178439       0.99017
  22     68.43      269.3268        5.5740      372.8999      378.4740     109.147164       0.81072
  21     81.20      269.0913        6.5562      370.7496      377.3058     108.214493       0.61629
  20     96.49      268.7397        7.7119      368.4056      376.1175     107.377793       0.46180
  19     114.6      268.2996        9.0623      365.7513      374.8136     106.513997       0.40333
  18     136.5      267.7627       10.6312      362.7231      373.3544     105.591616       0.35468
  17     162.9      267.1157       12.4559      359.1748      371.6307     104.514948       0.34415
  16     196.4      266.2487       14.7577      354.5718      369.3296     103.080841       0.36098
  15     218.7      265.6755       16.2308      351.4437      367.6745     101.998908       0.41077
  14     243.0      265.0584       17.7982      347.7111      365.5094     100.450995       0.53687
  13     269.0      264.4000       19.4585      342.9441      362.4026      98.002602       0.79425
  12     297.5      263.7046       21.2094      337.4137      358.6231      94.918549       0.91470
  11     328.5      262.9812       23.0529      331.1302      354.1831      91.201950       1.01053
  10     361.9      262.2400       24.9835      324.1219      349.1054      86.865435       1.09718
   9     398.1      261.4919       27.0009      316.6066      343.6075      82.115532       1.10662
   8     437.6      260.7592       29.1006      308.5895      337.6900      76.930823       1.10852
   7     480.5      260.0822       31.2768      299.9349      331.2117      71.129460       1.13937
   6     533.0      259.4261       33.8569      289.7021      323.5590      64.132971       1.12551
   5     589.8      258.9743       36.5228      279.3388      315.8615      56.887272       1.07550
   4     651.6      258.8670       39.2624      268.7786      308.0410      49.173988       1.05481
   3     718.7      259.2237       42.0672      258.2837      300.3509      41.127163       1.01126
   2     792.3      260.2009       44.9232      248.0774      293.0006      32.799745       0.95506
   1     891.5       54.4292       83.8592        0.0000       83.8592      29.429967       0.28675
   0    1013.0       54.4110       82.8602        0.0000       82.8602      28.449233       0.06810



 Wavenumbers:  2600. -  3250. cm-1, ATM      1
 LEVEL PRESSURE   UPWARD FLUX   DIFDOWN FLUX  DIRDOWN FLUX  DOWNWARD FLUX   NET FLUX    HEATING RATE
          mb          W/m2          W/m2          W/m2        W/m2          W/m2       degree/day
  51    .06700        1.1050        0.0000        3.5066        3.5066       2.401645       0.00000
  50    .07753        1.1050        0.0000        3.5066        3.5066       2.401637       0.00640
  49    .09103        1.1050        0.0000        3.5066        3.5066       2.401627       0.00627
  48    0.1069        1.1050        0.0000        3.5066        3.5066       2.401615       0.00613
  47    0.1255        1.1050        0.0000        3.5066        3.5066       2.401602       0.00599
  46    0.1487        1.1050        0.0000        3.5066        3.5066       2.401585       0.00607
  45    0.1794        1.1050        0.0000        3.5065        3.5065       2.401563       0.00624
  44    0.2165        1.1050        0.0000        3.5065        3.5065       2.401536       0.00611
  43    0.2613        1.1050        0.0000        3.5065        3.5065       2.401504       0.00598
  42    0.3336        1.1050        0.0000        3.5064        3.5064       2.401451       0.00615
  41    0.4307        1.1050        0.0000        3.5064        3.5064       2.401380       0.00618
  40    0.5894        1.1050        0.0000        3.5062        3.5062       2.401261       0.00633
  39     1.339        1.1050        0.0000        3.5055        3.5055       2.400562       0.00787
  38     1.782        1.1050        0.0000        3.5050        3.5050       2.400032       0.01011
  37     2.292        1.1050        0.0000        3.5043        3.5043       2.399339       0.01147
  36     2.964        1.1050        0.0000        3.5033        3.5033       2.398348       0.01245
  35     3.853        1.1050        0.0000        3.5019        3.5019       2.396971       0.01307
  34     5.035        1.1050        0.0000        3.5001        3.5001       2.395109       0.01329
  33     6.613        1.1050        0.0000        3.4977        3.4977       2.392700       0.01288
  32     8.786        1.1050        0.0000        3.4947        3.4947       2.389728       0.01154
  31     11.80        1.1050        0.0000        3.4911        3.4911       2.386092       0.01018
  30     15.07        1.1050        0.0000        3.4878        3.4878       2.382870       0.00832
  29     18.79        1.1050        0.0000        3.4848        3.4848       2.379805       0.00695
  28     23.16        1.1050        0.0000        3.4816        3.4816       2.376583       0.00623
  27     28.12        1.1050        0.0000        3.4779        3.4779       2.372962       0.00616
  26     33.73        1.1050        0.0000        3.4735        3.4735       2.368490       0.00672
  25     40.54        1.1050        0.0000        3.4671        3.4672       2.362157       0.00786
  24     48.69        1.1050        0.0000        3.4582        3.4583       2.353250       0.00922
  23     57.69        1.1050        0.0000        3.4472        3.4472       2.342186       0.01037
  22     68.43        1.1050        0.0000        3.4329        3.4330       2.327902       0.01123
  21     81.20        1.1051        0.0000        3.4152        3.4152       2.310140       0.01174
  20     96.49        1.1051        0.0000        3.3940        3.3941       2.288947       0.01170
  19     114.6        1.1052        0.0000        3.3692        3.3692       2.263989       0.01165
  18     136.5        1.1053        0.0001        3.3419        3.3420       2.236673       0.01050
  17     162.9        1.1055        0.0001        3.3129        3.3129       2.207450       0.00934
  16     196.4        1.1058        0.0001        3.2793        3.2794       2.173606       0.00852
  15     218.7        1.1061        0.0001        3.2578        3.2579       2.151726       0.00831
  14     243.0        1.1066        0.0001        3.2320        3.2321       2.125441       0.00912
  13     269.0        1.1074        0.0001        3.1968        3.1969       2.089520       0.01165
  12     297.5        1.1087        0.0001        3.1489        3.1491       2.040401       0.01457
  11     328.5        1.1105        0.0001        3.0821        3.0822       1.971644       0.01869
  10     361.9        1.1133        0.0001        2.9902        2.9904       1.877049       0.02393
   9     398.1        1.1173        0.0001        2.8715        2.8716       1.754285       0.02860
   8     437.6        1.1232        0.0002        2.7276        2.7278       1.604644       0.03199
   7     480.5        1.1319        0.0002        2.5595        2.5597       1.427765       0.03474
   6     533.0        1.1467        0.0002        2.3617        2.3619       1.215175       0.03420
   5     589.8        1.1686        0.0002        2.1649        2.1651       0.996505       0.03246
   4     651.6        1.2013        0.0002        1.9608        1.9609       0.759684       0.03239
   3     718.7        1.2482        0.0002        1.7593        1.7595       0.511268       0.03122
   2     792.3        1.3144        0.0002        1.5761        1.5762       0.261883       0.02860
   1     891.5        0.0118        0.1831        0.0000        0.1831       0.171288       0.00771
   0    1013.0        0.0128        0.1658        0.0000        0.1658       0.152941       0.00127



 Wavenumbers:  3250. -  4000. cm-1, ATM      1
 LEVEL PRESSURE   UPWARD FLUX   DIFDOWN FLUX  DIRDOWN FLUX  DOWNWARD FLUX   NET FLUX    HEATING RATE
          mb          W/m2          W/m2          W/m2        W/m2          W/m2       degree/day
  51    .06700        0.0097        0.0000        5.9117        5.9117       5.901946       0.00000
  50    .07753        0.0097        0.0000        5.9075        5.9075       5.897756       3.35808
  49    .09103        0.0097        0.0000        5.9050        5.9050       5.895314       1.52677
  48    0.1069        0.0097        0.0000        5.9032        5.9032       5.893447       0.99346
  47    0.1255        0.0097        0.0000        5.9014        5.9014       5.891689       0.79708
  46    0.1487        0.0097        0.0000        5.8995        5.8995       5.889800       0.68848
  45    0.1794        0.0097        0.0000        5.8974        5.8974       5.887652       0.58983
  44    0.2165        0.0097        0.0000        5.8952        5.8952       5.885535       0.48155
  43    0.2613        0.0097        0.0000        5.8931        5.8931       5.883376       0.40696
  42    0.3336        0.0097        0.0000        5.8899        5.8899       5.880218       0.36820
  41    0.4307        0.0097        0.0000        5.8861        5.8861       5.876381       0.33365
  40    0.5894        0.0097        0.0000        5.8803        5.8803       5.870578       0.30857
  39     1.339        0.0097        0.0000        5.8597        5.8597       5.849980       0.23189
  38     1.782        0.0097        0.0000        5.8513        5.8513       5.841556       0.16039
  37     2.292        0.0097        0.0000        5.8431        5.8431       5.833385       0.13533
  36     2.964        0.0097        0.0000        5.8334        5.8334       5.823745       0.12100
  35     3.853        0.0097        0.0000        5.8213        5.8213       5.811570       0.11555
  34     5.035        0.0097        0.0000        5.8052        5.8052       5.795474       0.11498
  33     6.613        0.0097        0.0000        5.7833        5.7834       5.773653       0.11666
  32     8.786        0.0097        0.0000        5.7531        5.7531       5.743452       0.11729
  31     11.80        0.0097        0.0000        5.7090        5.7090       5.699283       0.12366
  30     15.07        0.0097        0.0000        5.6615        5.6615       5.651818       0.12254
  29     18.79        0.0097        0.0000        5.6093        5.6094       5.599683       0.11821
  28     23.16        0.0097        0.0000        5.5524        5.5524       5.542757       0.11008
  27     28.12        0.0097        0.0000        5.4935        5.4935       5.483878       0.10009
  26     33.73        0.0097        0.0000        5.4348        5.4349       5.425189       0.08824
  25     40.54        0.0097        0.0001        5.3707        5.3708       5.361127       0.07948
  24     48.69        0.0096        0.0001        5.2985        5.2985       5.288894       0.07475
  23     57.69        0.0096        0.0001        5.2215        5.2216       5.211955       0.07212
  22     68.43        0.0096        0.0001        5.1318        5.1319       5.122295       0.07048
  21     81.20        0.0096        0.0001        5.0284        5.0285       5.018866       0.06834
  20     96.49        0.0096        0.0001        4.9122        4.9123       4.902732       0.06410
  19     114.6        0.0096        0.0001        4.7780        4.7782       4.768621       0.06262
  18     136.5        0.0095        0.0002        4.6285        4.6287       4.619142       0.05748
  17     162.9        0.0095        0.0002        4.4406        4.4407       4.431229       0.06006
  16     196.4        0.0095        0.0002        4.1548        4.1550       4.145554       0.07191
  15     218.7        0.0095        0.0002        3.9564        3.9566       3.947172       0.07532
  14     243.0        0.0094        0.0002        3.7055        3.7058       3.696332       0.08700
  13     269.0        0.0094        0.0002        3.3399        3.3401       3.330681       0.11862
  12     297.5        0.0094        0.0002        2.8954        2.8956       2.886165       0.13184
  11     328.5        0.0095        0.0002        2.4388        2.4390       2.429570       0.12415
  10     361.9        0.0096        0.0002        2.0269        2.0271       2.017533       0.10425
   9     398.1        0.0097        0.0002        1.6753        1.6755       1.665772       0.08195
   8     437.6        0.0100        0.0002        1.3592        1.3594       1.349352       0.06765
   7     480.5        0.0105        0.0002        1.0616        1.0618       1.051223       0.05855
   6     533.0        0.0117        0.0001        0.7543        0.7544       0.742764       0.04962
   5     589.8        0.0137        0.0001        0.4951        0.4952       0.481499       0.03878
   4     651.6        0.0178        0.0001        0.2943        0.2943       0.276562       0.02803
   3     718.7        0.0257        0.0001        0.1528        0.1529       0.127119       0.01878
   2     792.3        0.0421        0.0000        0.0658        0.0658       0.023793       0.01185
   1     891.5        0.0000        0.0018        0.0000        0.0018       0.001790       0.00187
   0    1013.0        0.0000        0.0004        0.0000        0.0004       0.000403       0.00010



 Wavenumbers:  4000. -  4650. cm-1, ATM      1
 LEVEL PRESSURE   UPWARD FLUX   DIFDOWN FLUX  DIRDOWN FLUX  DOWNWARD FLUX   NET FLUX    HEATING RATE
          mb          W/m2          W/m2          W/m2        W/m2          W/m2       degree/day
  51    .06700        3.9162        0.0000        6.9421        6.9421       3.025836       0.00000
  50    .07753        3.9162        0.0000        6.9421        6.9421       3.025835       0.00079
  49    .09103        3.9162        0.0000        6.9421        6.9421       3.025833       0.00078
  48    0.1069        3.9162        0.0000        6.9421        6.9421       3.025832       0.00076
  47    0.1255        3.9162        0.0000        6.9421        6.9421       3.025830       0.00074
  46    0.1487        3.9162        0.0000        6.9421        6.9421       3.025828       0.00075
  45    0.1794        3.9162        0.0000        6.9421        6.9421       3.025825       0.00077
  44    0.2165        3.9162        0.0000        6.9421        6.9421       3.025822       0.00076
  43    0.2613        3.9162        0.0000        6.9420        6.9420       3.025818       0.00074
  42    0.3336        3.9162        0.0000        6.9420        6.9420       3.025812       0.00076
  41    0.4307        3.9162        0.0000        6.9420        6.9420       3.025803       0.00077
  40    0.5894        3.9162        0.0000        6.9420        6.9420       3.025788       0.00079
  39     1.339        3.9162        0.0000        6.9419        6.9419       3.025699       0.00100
  38     1.782        3.9162        0.0000        6.9418        6.9419       3.025630       0.00132
  37     2.292        3.9162        0.0000        6.9418        6.9418       3.025536       0.00155
  36     2.964        3.9162        0.0000        6.9416        6.9416       3.025397       0.00175
  35     3.853        3.9162        0.0000        6.9414        6.9414       3.025190       0.00196
  34     5.035        3.9162        0.0000        6.9411        6.9411       3.024885       0.00218
  33     6.613        3.9162        0.0000        6.9406        6.9407       3.024437       0.00240
  32     8.786        3.9162        0.0000        6.9399        6.9400       3.023776       0.00257
  31     11.80        3.9162        0.0001        6.9389        6.9389       3.022740       0.00290
  30     15.07        3.9162        0.0001        6.9377        6.9377       3.021527       0.00313
  29     18.79        3.9162        0.0001        6.9362        6.9363       3.020065       0.00331
  28     23.16        3.9162        0.0001        6.9343        6.9344       3.018257       0.00350
  27     28.12        3.9162        0.0001        6.9321        6.9323       3.016076       0.00371
  26     33.73        3.9162        0.0001        6.9294        6.9296       3.013398       0.00403
  25     40.54        3.9162        0.0002        6.9258        6.9260       3.009785       0.00448
  24     48.69        3.9162        0.0002        6.9210        6.9212       3.004999       0.00495
  23     57.69        3.9162        0.0003        6.9154        6.9156       2.999362       0.00528
  22     68.43        3.9163        0.0003        6.9083        6.9086       2.992347       0.00551
  21     81.20        3.9164        0.0004        6.8998        6.9001       2.983757       0.00568
  20     96.49        3.9165        0.0004        6.8894        6.8899       2.973364       0.00574
  19     114.6        3.9167        0.0005        6.8765        6.8770       2.960325       0.00609
  18     136.5        3.9170        0.0006        6.8610        6.8616       2.944556       0.00606
  17     162.9        3.9175        0.0007        6.8417        6.8424       2.924870       0.00629
  16     196.4        3.9184        0.0009        6.8147        6.8155       2.897141       0.00698
  15     218.7        3.9192        0.0009        6.7948        6.7958       2.876636       0.00778
  14     243.0        3.9203        0.0010        6.7698        6.7708       2.850540       0.00905
  13     269.0        3.9221        0.0012        6.7349        6.7360       2.813901       0.01189
  12     297.5        3.9248        0.0013        6.6869        6.6881       2.763289       0.01501
  11     328.5        3.9287        0.0014        6.6194        6.6208       2.692049       0.01937
  10     361.9        3.9339        0.0015        6.5295        6.5310       2.597134       0.02401
   9     398.1        3.9406        0.0017        6.4202        6.4219       2.481235       0.02700
   8     437.6        3.9498        0.0018        6.2962        6.2980       2.348221       0.02844
   7     480.5        3.9625        0.0019        6.1555        6.1574       2.194973       0.03010
   6     533.0        3.9834        0.0021        5.9675        5.9696       1.986284       0.03357
   5     589.8        4.0142        0.0023        5.7368        5.7390       1.724798       0.03881
   4     651.6        4.0605        0.0025        5.4662        5.4687       1.408203       0.04330
   3     718.7        4.1268        0.0026        5.1912        5.1938       1.067012       0.04288
   2     792.3        4.2191        0.0028        4.9395        4.9423       0.723205       0.03943
   1     891.5        0.0316        0.6252        0.0000        0.6252       0.593597       0.01103
   0    1013.0        0.0328        0.5987        0.0000        0.5987       0.565913       0.00192



 Wavenumbers:  4650. -  5150. cm-1, ATM      1
 LEVEL PRESSURE   UPWARD FLUX   DIFDOWN FLUX  DIRDOWN FLUX  DOWNWARD FLUX   NET FLUX    HEATING RATE
          mb          W/m2          W/m2          W/m2        W/m2          W/m2       degree/day
  51    .06700        2.7477        0.0000        6.5710        6.5710       3.823257       0.00000
  50    .07753        2.7477        0.0000        6.5708        6.5708       3.823022       0.18887
  49    .09103        2.7477        0.0000        6.5705        6.5705       3.822728       0.18362
  48    0.1069        2.7477        0.0000        6.5701        6.5701       3.822393       0.17806
  47    0.1255        2.7477        0.0000        6.5697        6.5697       3.822013       0.17238
  46    0.1487        2.7477        0.0000        6.5693        6.5693       3.821539       0.17268
  45    0.1794        2.7477        0.0000        6.5686        6.5686       3.820903       0.17474
  44    0.2165        2.7477        0.0000        6.5679        6.5679       3.820165       0.16788
  43    0.2613        2.7477        0.0000        6.5670        6.5670       3.819312       0.16078
  42    0.3336        2.7477        0.0000        6.5657        6.5657       3.817949       0.15894
  41    0.4307        2.7477        0.0000        6.5640        6.5640       3.816227       0.14971
  40    0.5894        2.7477        0.0000        6.5613        6.5613       3.813611       0.13913
  39     1.339        2.7477        0.0000        6.5516        6.5516       3.803833       0.11008
  38     1.782        2.7477        0.0000        6.5473        6.5473       3.799616       0.08027
  37     2.292        2.7477        0.0000        6.5434        6.5435       3.795729       0.06439
  36     2.964        2.7477        0.0000        6.5395        6.5395       3.791774       0.04965
  35     3.853        2.7477        0.0000        6.5355        6.5356       3.787830       0.03743
  34     5.035        2.7477        0.0000        6.5315        6.5315       3.783826       0.02860
  33     6.613        2.7477        0.0000        6.5271        6.5271       3.779428       0.02351
  32     8.786        2.7477        0.0001        6.5216        6.5216       3.773927       0.02136
  31     11.80        2.7477        0.0001        6.5135        6.5136       3.765837       0.02265
  30     15.07        2.7477        0.0001        6.5041        6.5042       3.756453       0.02423
  29     18.79        2.7477        0.0001        6.4925        6.4926       3.744916       0.02616
  28     23.16        2.7478        0.0001        6.4779        6.4780       3.730294       0.02827
  27     28.12        2.7478        0.0002        6.4599        6.4601       3.712278       0.03063
  26     33.73        2.7478        0.0002        6.4384        6.4386       3.690793       0.03230
  25     40.54        2.7479        0.0003        6.4112        6.4115       3.663592       0.03375
  24     48.69        2.7480        0.0003        6.3775        6.3778       3.629847       0.03492
  23     57.69        2.7481        0.0004        6.3404        6.3407       3.592619       0.03490
  22     68.43        2.7483        0.0004        6.2971        6.2976       3.549240       0.03410
  21     81.20        2.7486        0.0005        6.2483        6.2488       3.500166       0.03243
  20     96.49        2.7490        0.0006        6.1948        6.1954       3.446438       0.02965
  19     114.6        2.7495        0.0007        6.1381        6.1389       3.389313       0.02667
  18     136.5        2.7503        0.0008        6.0790        6.0798       3.329531       0.02299
  17     162.9        2.7514        0.0010        6.0160        6.0170       3.265634       0.02042
  16     196.4        2.7531        0.0012        5.9399        5.9411       3.187943       0.01956
  15     218.7        2.7545        0.0013        5.8896        5.8909       3.136466       0.01954
  14     243.0        2.7563        0.0014        5.8322        5.8336       3.077354       0.02050
  13     269.0        2.7588        0.0016        5.7624        5.7640       3.005152       0.02342
  12     297.5        2.7625        0.0017        5.6767        5.6785       2.915997       0.02644
  11     328.5        2.7674        0.0019        5.5726        5.5745       2.807062       0.02962
  10     361.9        2.7741        0.0021        5.4473        5.4494       2.675257       0.03335
   9     398.1        2.7831        0.0022        5.2995        5.3017       2.518590       0.03650
   8     437.6        2.7952        0.0024        5.1275        5.1299       2.334671       0.03932
   7     480.5        2.8117        0.0026        4.9290        4.9315       2.119846       0.04219
   6     533.0        2.8378        0.0027        4.6794        4.6821       1.844303       0.04433
   5     589.8        2.8745        0.0029        4.4188        4.4217       1.547222       0.04410
   4     651.6        2.9267        0.0031        4.1521        4.1552       1.228493       0.04359
   3     718.7        2.9982        0.0032        3.8929        3.8962       0.898006       0.04153
   2     792.3        3.0945        0.0034        3.6469        3.6503       0.555822       0.03924
   1     891.5        0.0228        0.4488        0.0000        0.4488       0.425942       0.01105
   0    1013.0        0.0240        0.4237        0.0000        0.4237       0.399721       0.00182



 Wavenumbers:  5150. -  6150. cm-1, ATM      1
 LEVEL PRESSURE   UPWARD FLUX   DIFDOWN FLUX  DIRDOWN FLUX  DOWNWARD FLUX   NET FLUX    HEATING RATE
          mb          W/m2          W/m2          W/m2        W/m2          W/m2       degree/day
  51    .06700        6.7736        0.0000       16.4735       16.4735       9.699864       0.00000
  50    .07753        6.7736        0.0000       16.4735       16.4735       9.699829       0.02764
  49    .09103        6.7736        0.0000       16.4734       16.4734       9.699784       0.02814
  48    0.1069        6.7736        0.0000       16.4734       16.4734       9.699730       0.02862
  47    0.1255        6.7736        0.0000       16.4733       16.4733       9.699666       0.02907
  46    0.1487        6.7736        0.0000       16.4732       16.4732       9.699582       0.03063
  45    0.1794        6.7736        0.0000       16.4731       16.4731       9.699463       0.03272
  44    0.2165        6.7736        0.0000       16.4730       16.4730       9.699316       0.03334
  43    0.2613        6.7736        0.0000       16.4728       16.4728       9.699137       0.03379
  42    0.3336        6.7736        0.0000       16.4725       16.4725       9.698831       0.03567
  41    0.4307        6.7736        0.0000       16.4720       16.4720       9.698412       0.03648
  40    0.5894        6.7736        0.0000       16.4713       16.4713       9.697710       0.03732
  39     1.339        6.7736        0.0000       16.4679       16.4679       9.694298       0.03841
  38     1.782        6.7736        0.0001       16.4659       16.4659       9.692296       0.03812
  37     2.292        6.7736        0.0001       16.4635       16.4636       9.690000       0.03801
  36     2.964        6.7736        0.0001       16.4605       16.4606       9.687025       0.03735
  35     3.853        6.7736        0.0001       16.4567       16.4568       9.683164       0.03665
  34     5.035        6.7736        0.0001       16.4516       16.4517       9.678155       0.03578
  33     6.613        6.7736        0.0002       16.4451       16.4453       9.671677       0.03463
  32     8.786        6.7736        0.0003       16.4367       16.4369       9.663338       0.03238
  31     11.80        6.7736        0.0003       16.4254       16.4257       9.652146       0.03133
  30     15.07        6.7736        0.0004       16.4141       16.4146       9.641010       0.02875
  29     18.79        6.7736        0.0005       16.4024       16.4030       9.629430       0.02626
  28     23.16        6.7736        0.0007       16.3900       16.3907       9.617095       0.02385
  27     28.12        6.7736        0.0008       16.3771       16.3779       9.604341       0.02168
  26     33.73        6.7736        0.0010       16.3641       16.3651       9.591503       0.01930
  25     40.54        6.7736        0.0012       16.3502       16.3514       9.577710       0.01711
  24     48.69        6.7737        0.0014       16.3354       16.3368       9.563031       0.01519
  23     57.69        6.7739        0.0017       16.3211       16.3228       9.548885       0.01326
  22     68.43        6.7740        0.0020       16.3062       16.3082       9.534185       0.01156
  21     81.20        6.7743        0.0024       16.2903       16.2927       9.518403       0.01043
  20     96.49        6.7746        0.0028       16.2726       16.2754       9.500849       0.00969
  19     114.6        6.7750        0.0033       16.2521       16.2554       9.480446       0.00953
  18     136.5        6.7754        0.0039       16.2245       16.2285       9.453061       0.01053
  17     162.9        6.7760        0.0047       16.1747       16.1794       9.403375       0.01588
  16     196.4        6.7769        0.0056       16.0518       16.0575       9.280523       0.03092
  15     218.7        6.7776        0.0062       15.8984       15.9046       9.127004       0.05829
  14     243.0        6.7784        0.0068       15.6153       15.6221       8.843661       0.09827
  13     269.0        6.7796        0.0074       15.1390       15.1464       8.366803       0.15469
  12     297.5        6.7813        0.0080       14.5779       14.5859       7.804565       0.16675
  11     328.5        6.7839        0.0085       13.8780       13.8866       7.102706       0.19083
  10     361.9        6.7876        0.0090       13.0814       13.0905       6.302873       0.20237
   9     398.1        6.7931        0.0095       12.2728       12.2823       5.489283       0.18955
   8     437.6        6.8011        0.0099       11.4776       11.4875       4.686365       0.17167
   7     480.5        6.8136        0.0103       10.7300       10.7403       3.926724       0.14919
   6     533.0        6.8358        0.0108       10.0326       10.0434       3.207581       0.11569
   5     589.8        6.8714        0.0114        9.5050        9.5164       2.645031       0.08350
   4     651.6        6.9289        0.0121        9.0814        9.0935       2.164586       0.06570
   3     718.7        7.0175        0.0130        8.7024        8.7154       1.697902       0.05865
   2     792.3        7.1488        0.0139        8.3379        8.3518       1.202967       0.05676
   1     891.5        0.0610        1.0756        0.0000        1.0756       1.014629       0.01603
   0    1013.0        0.0624        1.0406        0.0000        1.0406       0.978154       0.00253



 Wavenumbers:  6150. -  7700. cm-1, ATM      1
 LEVEL PRESSURE   UPWARD FLUX   DIFDOWN FLUX  DIRDOWN FLUX  DOWNWARD FLUX   NET FLUX    HEATING RATE
          mb          W/m2          W/m2          W/m2        W/m2          W/m2       degree/day
  51    .06700       10.5833        0.0000       30.4684       30.4684      19.885079       0.00000
  50    .07753       10.5833        0.0000       30.4683       30.4683      19.885027       0.04144
  49    .09103       10.5833        0.0000       30.4683       30.4683      19.884960       0.04174
  48    0.1069       10.5833        0.0000       30.4682       30.4682      19.884881       0.04202
  47    0.1255       10.5833        0.0000       30.4681       30.4681      19.884788       0.04227
  46    0.1487       10.5833        0.0000       30.4680       30.4680      19.884667       0.04411
  45    0.1794       10.5833        0.0000       30.4678       30.4678      19.884497       0.04669
  44    0.2165       10.5833        0.0000       30.4676       30.4676      19.884290       0.04715
  43    0.2613       10.5833        0.0000       30.4673       30.4673      19.884038       0.04744
  42    0.3336       10.5833        0.0000       30.4669       30.4669      19.883611       0.04974
  41    0.4307       10.5833        0.0000       30.4663       30.4663      19.883030       0.05052
  40    0.5894       10.5833        0.0001       30.4653       30.4653      19.882063       0.05146
  39     1.339       10.5832        0.0002       30.4604       30.4606      19.877379       0.05273
  38     1.782       10.5832        0.0002       30.4576       30.4578      19.874629       0.05235
  37     2.292       10.5831        0.0003       30.4543       30.4546      19.871471       0.05231
  36     2.964       10.5830        0.0004       30.4501       30.4504      19.867363       0.05156
  35     3.853       10.5830        0.0005       30.4445       30.4450      19.862006       0.05084
  34     5.035       10.5829        0.0006       30.4373       30.4379      19.855006       0.05000
  33     6.613       10.5827        0.0008       30.4278       30.4286      19.845859       0.04890
  32     8.786       10.5825        0.0011       30.4154       30.4164      19.833906       0.04642
  31     11.80       10.5823        0.0014       30.3984       30.3998      19.817520       0.04588
  30     15.07       10.5820        0.0018       30.3810       30.3828      19.800806       0.04315
  29     18.79       10.5817        0.0023       30.3623       30.3646      19.782904       0.04059
  28     23.16       10.5813        0.0028       30.3417       30.3445      19.763220       0.03806
  27     28.12       10.5808        0.0034       30.3196       30.3230      19.742118       0.03587
  26     33.73       10.5803        0.0041       30.2965       30.3005      19.720198       0.03296
  25     40.54       10.5798        0.0049       30.2708       30.2756      19.695858       0.03020
  24     48.69       10.5791        0.0058       30.2423       30.2481      19.669077       0.02771
  23     57.69       10.5783        0.0069       30.2139       30.2208      19.642506       0.02491
  22     68.43       10.5773        0.0082       30.1834       30.1916      19.614224       0.02223
  21     81.20       10.5762        0.0097       30.1500       30.1597      19.583485       0.02031
  20     96.49       10.5749        0.0115       30.1126       30.1242      19.549254       0.01889
  19     114.6       10.5734        0.0137       30.0695       30.0832      19.509848       0.01840
  18     136.5       10.5715        0.0163       30.0139       30.0302      19.458661       0.01968
  17     162.9       10.5694        0.0193       29.9225       29.9418      19.372414       0.02757
  16     196.4       10.5667        0.0232       29.7333       29.7566      19.189871       0.04595
  15     218.7       10.5650        0.0257       29.5259       29.5516      18.986574       0.07718
  14     243.0       10.5634        0.0284       29.1375       29.1658      18.602425       0.13324
  13     269.0       10.5622        0.0309       28.3800       28.4109      17.848694       0.24451
  12     297.5       10.5619        0.0333       27.3895       27.4229      16.860984       0.29294
  11     328.5       10.5632        0.0357       26.2257       26.2614      15.698222       0.31615
  10     361.9       10.5671        0.0379       24.8453       24.8832      14.316133       0.34968
   9     398.1       10.5750        0.0398       23.3471       23.3869      12.811881       0.35046
   8     437.6       10.5895        0.0416       21.7966       21.8382      11.248668       0.33422
   7     480.5       10.6156        0.0431       20.1977       20.2408       9.625123       0.31886
   6     533.0       10.6666        0.0446       18.4969       18.5415       7.874915       0.28155
   5     589.8       10.7519        0.0462       16.9754       17.0216       6.269741       0.23826
   4     651.6       10.8931        0.0478       15.6022       15.6500       4.756891       0.20689
   3     718.7       11.1123        0.0496       14.4232       14.4728       3.360544       0.17548
   2     792.3       11.4399        0.0517       13.4386       13.4903       2.050427       0.15026
   1     891.5        0.0975        1.6799        0.0000        1.6799       1.582400       0.03983
   0    1013.0        0.1014        1.5920        0.0000        1.5920       1.490625       0.00637



 Wavenumbers:  7700. -  8050. cm-1, ATM      1
 LEVEL PRESSURE   UPWARD FLUX   DIFDOWN FLUX  DIRDOWN FLUX  DOWNWARD FLUX   NET FLUX    HEATING RATE
          mb          W/m2          W/m2          W/m2        W/m2          W/m2       degree/day
  51    .06700        5.0258        0.0000        7.2006        7.2006       2.174747       0.00000
  50    .07753        5.0258        0.0000        7.2006        7.2006       2.174726       0.01689
  49    .09103        5.0258        0.0000        7.2005        7.2005       2.174700       0.01656
  48    0.1069        5.0258        0.0000        7.2005        7.2005       2.174669       0.01621
  47    0.1255        5.0259        0.0000        7.2005        7.2005       2.174634       0.01586
  46    0.1487        5.0259        0.0000        7.2004        7.2005       2.174590       0.01609
  45    0.1794        5.0259        0.0000        7.2004        7.2004       2.174530       0.01656
  44    0.2165        5.0259        0.0000        7.2003        7.2003       2.174459       0.01625
  43    0.2613        5.0259        0.0000        7.2003        7.2003       2.174374       0.01594
  42    0.3336        5.0259        0.0000        7.2001        7.2001       2.174234       0.01631
  41    0.4307        5.0259        0.0000        7.2000        7.2000       2.174049       0.01613
  40    0.5894        5.0260        0.0000        7.1997        7.1997       2.173746       0.01611
  39     1.339        5.0262        0.0001        7.1984        7.1985       2.172312       0.01614
  38     1.782        5.0263        0.0001        7.1977        7.1978       2.171471       0.01602
  37     2.292        5.0265        0.0001        7.1968        7.1969       2.170497       0.01613
  36     2.964        5.0266        0.0002        7.1957        7.1959       2.169218       0.01605
  35     3.853        5.0269        0.0002        7.1942        7.1944       2.167530       0.01602
  34     5.035        5.0272        0.0003        7.1922        7.1925       2.165288       0.01601
  33     6.613        5.0276        0.0003        7.1896        7.1899       2.162296       0.01600
  32     8.786        5.0282        0.0005        7.1860        7.1865       2.158269       0.01564
  31     11.80        5.0291        0.0006        7.1810        7.1816       2.152518       0.01610
  30     15.07        5.0300        0.0008        7.1755        7.1763       2.146358       0.01591
  29     18.79        5.0310        0.0010        7.1694        7.1704       2.139416       0.01574
  28     23.16        5.0322        0.0012        7.1623        7.1636       2.131333       0.01563
  27     28.12        5.0336        0.0015        7.1542        7.1557       2.122123       0.01566
  26     33.73        5.0352        0.0018        7.1452        7.1470       2.111860       0.01543
  25     40.54        5.0371        0.0021        7.1344        7.1366       2.099521       0.01531
  24     48.69        5.0393        0.0026        7.1215        7.1241       2.084735       0.01530
  23     57.69        5.0419        0.0030        7.1074        7.1105       2.068606       0.01512
  22     68.43        5.0449        0.0036        7.0909        7.0945       2.049549       0.01498
  21     81.20        5.0485        0.0042        7.0713        7.0756       2.027057       0.01486
  20     96.49        5.0529        0.0050        7.0484        7.0535       2.000552       0.01463
  19     114.6        5.0582        0.0060        7.0217        7.0277       1.969485       0.01451
  18     136.5        5.0645        0.0071        6.9906        6.9977       1.933201       0.01395
  17     162.9        5.0721        0.0084        6.9544        6.9628       1.890709       0.01358
  16     196.4        5.0821        0.0101        6.9087        6.9188       1.836695       0.01360
  15     218.7        5.0889        0.0112        6.8794        6.8906       1.801777       0.01326
  14     243.0        5.0963        0.0124        6.8481        6.8605       1.764255       0.01301
  13     269.0        5.1045        0.0137        6.8147        6.8284       1.723957       0.01307
  12     297.5        5.1136        0.0151        6.7791        6.7942       1.680628       0.01285
  11     328.5        5.1237        0.0167        6.7409        6.7576       1.633871       0.01271
  10     361.9        5.1351        0.0183        6.7002        6.7184       1.583338       0.01279
   9     398.1        5.1479        0.0200        6.6563        6.6763       1.528384       0.01280
   8     437.6        5.1625        0.0219        6.6089        6.6308       1.468311       0.01284
   7     480.5        5.1792        0.0239        6.5570        6.5809       1.401708       0.01308
   6     533.0        5.2016        0.0264        6.4915        6.5178       1.316231       0.01375
   5     589.8        5.2283        0.0290        6.4182        6.4472       1.218928       0.01444
   4     651.6        5.2604        0.0318        6.3359        6.3677       1.107300       0.01527
   3     718.7        5.2986        0.0347        6.2441        6.2789       0.980270       0.01596
   2     792.3        5.3436        0.0379        6.1437        6.1816       0.838059       0.01631
   1     891.5        0.0582        0.8348        0.0000        0.8348       0.776673       0.00522
   0    1013.0        0.0589        0.8206        0.0000        0.8206       0.761707       0.00104



 Wavenumbers:  8050. - 12850. cm-1, ATM      1
 LEVEL PRESSURE   UPWARD FLUX   DIFDOWN FLUX  DIRDOWN FLUX  DOWNWARD FLUX   NET FLUX    HEATING RATE
          mb          W/m2          W/m2          W/m2        W/m2          W/m2       degree/day
  51    .06700       65.5722        0.0000      100.8135      100.8135      35.241317       0.00000
  50    .07753       65.5722        0.0000      100.8135      100.8135      35.241317       0.00000
  49    .09103       65.5722        0.0001      100.8134      100.8135      35.241317       0.00000
  48    0.1069       65.5721        0.0001      100.8134      100.8135      35.241317      -0.00000
  47    0.1255       65.5721        0.0002      100.8133      100.8134      35.241317       0.00000
  46    0.1487       65.5721        0.0002      100.8132      100.8134      35.241317       0.00000
  45    0.1794       65.5720        0.0003      100.8131      100.8134      35.241317       0.00000
  44    0.2165       65.5720        0.0004      100.8129      100.8133      35.241317       0.00000
  43    0.2613       65.5719        0.0005      100.8127      100.8132      35.241317      -0.00000
  42    0.3336       65.5718        0.0007      100.8125      100.8131      35.241317       0.00000
  41    0.4307       65.5717        0.0009      100.8121      100.8130      35.241317      -0.00000
  40    0.5894       65.5715        0.0013      100.8115      100.8128      35.241317      -0.00000
  39     1.339       65.5705        0.0033      100.8085      100.8118      35.241317       0.00000
  38     1.782       65.5698        0.0044      100.8068      100.8112      35.241317      -0.00000
  37     2.292       65.5691        0.0057      100.8047      100.8105      35.241317       0.00000
  36     2.964       65.5682        0.0074      100.8021      100.8095      35.241317       0.00000
  35     3.853       65.5670        0.0097      100.7986      100.8083      35.241317      -0.00000
  34     5.035       65.5654        0.0127      100.7940      100.8067      35.241317      -0.00000
  33     6.613       65.5632        0.0168      100.7878      100.8046      35.241317       0.00000
  32     8.786       65.5603        0.0222      100.7794      100.8016      35.241317      -0.00000
  31     11.80       65.5562        0.0300      100.7674      100.7975      35.241317       0.00000
  30     15.07       65.5517        0.0384      100.7546      100.7930      35.241317       0.00000
  29     18.79       65.5466        0.0479      100.7400      100.7879      35.241317      -0.00000
  28     23.16       65.5407        0.0590      100.7230      100.7820      35.241317       0.00000
  27     28.12       65.5339        0.0717      100.7035      100.7752      35.241317       0.00000
  26     33.73       65.5263        0.0860      100.6817      100.7676      35.241317       0.00000
  25     40.54       65.5171        0.1032      100.6552      100.7584      35.241317       0.00000
  24     48.69       65.5060        0.1240      100.6234      100.7473      35.241317       0.00000
  23     57.69       65.4938        0.1468      100.5883      100.7351      35.241317      -0.00000
  22     68.43       65.4792        0.1741      100.5464      100.7206      35.241317       0.00000
  21     81.20       65.4619        0.2066      100.4965      100.7032      35.241317       0.00000
  20     96.49       65.4411        0.2455      100.4370      100.6824      35.241317      -0.00000
  19     114.6       65.4166        0.2916      100.3585      100.6501      35.233506       0.00365
  18     136.5       65.3876        0.3465      100.2634      100.6098      35.222276       0.00432
  17     162.9       65.3530        0.4119      100.1407      100.5525      35.199538       0.00727
  16     196.4       65.3083        0.4968       99.9505      100.4473      35.139011       0.01524
  15     218.7       65.2791        0.5527       99.7889      100.3416      35.062539       0.02903
  14     243.0       65.2478        0.6133       99.5472      100.1605      34.912681       0.05198
  13     269.0       65.2159        0.6787       99.1452       99.8239      34.608090       0.09881
  12     297.5       65.1848        0.7490       98.5975       99.3464      34.161630       0.13242
  11     328.5       65.1573        0.8243       97.8659       98.6901      33.532783       0.17098
  10     361.9       65.1376        0.9044       96.8848       97.7892      32.651575       0.22295
   9     398.1       65.1311        0.9892       95.6330       96.6222      31.491067       0.27037
   8     437.6       65.1481        1.0783       94.0655       95.1438      29.995705       0.31972
   7     480.5       65.2083        1.1707       92.0807       93.2514      28.043059       0.38349
   6     533.0       65.3550        1.2802       89.4449       90.7251      25.370084       0.43000
   5     589.8       65.6241        1.3939       86.5544       87.9483      22.324151       0.45212
   4     651.6       66.0864        1.5110       83.4174       84.9284      18.842001       0.47619
   3     718.7       66.8025        1.6325       80.2037       81.8362      15.033751       0.47859
   2     792.3       67.8472        1.7592       77.0811       78.8402      10.993040       0.46342
   1     891.5        2.3733       11.7413        0.0000       11.7413       9.367983       0.13828
   0    1013.0        2.4265       11.3708        0.0000       11.3708       8.944301       0.02942



 Wavenumbers: 12850. - 16000. cm-1, ATM      1
 LEVEL PRESSURE   UPWARD FLUX   DIFDOWN FLUX  DIRDOWN FLUX  DOWNWARD FLUX   NET FLUX    HEATING RATE
          mb          W/m2          W/m2          W/m2        W/m2          W/m2       degree/day
  51    .06700       47.8732        0.0000       63.1686       63.1686      15.295419       0.00000
  50    .07753       47.8731        0.0001       63.1677       63.1678      15.294636       0.62742
  49    .09103       47.8731        0.0001       63.1666       63.1668      15.293660       0.61018
  48    0.1069       47.8731        0.0002       63.1654       63.1656      15.292548       0.59220
  47    0.1255       47.8731        0.0003       63.1640       63.1644      15.291281       0.57420
  46    0.1487       47.8730        0.0005       63.1623       63.1627      15.289700       0.57648
  45    0.1794       47.8730        0.0006       63.1600       63.1606      15.287576       0.58295
  44    0.2165       47.8730        0.0008       63.1573       63.1581      15.285117       0.55948
  43    0.2613       47.8730        0.0011       63.1542       63.1553      15.282274       0.53573
  42    0.3336       47.8730        0.0015       63.1493       63.1508      15.277735       0.52922
  41    0.4307       47.8731        0.0020       63.1431       63.1452      15.272041       0.49507
  40    0.5894       47.8734        0.0029       63.1338       63.1367      15.263377       0.46075
  39     1.339       47.8762        0.0070       63.0956       63.1026      15.226385       0.41647
  38     1.782       47.8793        0.0095       63.0740       63.0835      15.204249       0.42143
  37     2.292       47.8840        0.0123       63.0477       63.0600      15.175966       0.46843
  36     2.964       47.8921        0.0160       63.0095       63.0255      15.133408       0.53423
  35     3.853       47.9055        0.0209       62.9533       62.9741      15.068625       0.61480
  34     5.035       47.9259        0.0274       62.8725       62.8999      14.973927       0.67648
  33     6.613       47.9546        0.0360       62.7621       62.7981      14.843504       0.69724
  32     8.786       47.9917        0.0476       62.6182       62.6659      14.674148       0.65772
  31     11.80       48.0397        0.0642       62.4284       62.4926      14.452883       0.61947
  30     15.07       48.0852        0.0820       62.2426       62.3246      14.239458       0.55102
  29     18.79       48.1311        0.1021       62.0493       62.1514      14.020288       0.49693
  28     23.16       48.1785        0.1255       61.8424       61.9679      13.789459       0.44635
  27     28.12       48.2253        0.1521       61.6278       61.7800      13.554677       0.39911
  26     33.73       48.2672        0.1820       61.4177       61.5996      13.332418       0.33417
  25     40.54       48.3057        0.2179       61.1983       61.4162      13.110493       0.27532
  24     48.69       48.3404        0.2612       60.9680       61.2292      12.888824       0.22939
  23     57.69       48.3671        0.3088       60.7478       61.0565      12.689492       0.18684
  22     68.43       48.3865        0.3653       60.5202       60.8855      12.499016       0.14974
  21     81.20       48.3927        0.4327       60.2938       60.7265      12.333800       0.10917
  20     96.49       48.3845        0.5129       60.0643       60.5772      12.192723       0.07786
  19     114.6       48.3742        0.6088       59.8078       60.4166      12.042447       0.07017
  18     136.5       48.3552        0.7223       59.5157       60.2381      11.882873       0.06136
  17     162.9       48.3264        0.8572       59.1770       60.0343      11.707829       0.05595
  16     196.4       48.2760        1.0318       58.7604       59.7922      11.516193       0.04824
  15     218.7       48.2383        1.1462       58.4948       59.6410      11.402693       0.04309
  14     243.0       48.1954        1.2703       58.2089       59.4792      11.283842       0.04122
  13     269.0       48.1473        1.4046       57.9006       59.3051      11.157814       0.04088
  12     297.5       48.0946        1.5494       57.5668       59.1162      11.021592       0.04040
  11     328.5       48.0388        1.7055       57.2005       58.9060      10.867230       0.04197
  10     361.9       47.9813        1.8732       56.7963       58.6695      10.688295       0.04527
   9     398.1       47.9235        2.0531       56.3475       58.4006      10.477078       0.04921
   8     437.6       47.8690        2.2455       55.8422       58.0877      10.218738       0.05523
   7     480.5       47.8236        2.4505       55.2625       57.7131       9.889463       0.06467
   6     533.0       47.7898        2.7009       54.4972       57.1981       9.408264       0.07741
   5     589.8       47.7815        2.9675       53.6307       56.5982       8.816721       0.08780
   4     651.6       47.8120        3.2496       52.6606       55.9102       8.098107       0.09827
   3     718.7       47.8904        3.5475       51.6100       55.1575       7.267158       0.10443
   2     792.3       48.0283        3.8612       50.5019       54.3631       6.334823       0.10693
   1     891.5        6.8414       12.7239        0.0000       12.7239       5.882564       0.03849
   0    1013.0        6.8919       12.5627        0.0000       12.5627       5.670807       0.01470



 Wavenumbers: 16000. - 22650. cm-1, ATM      1
 LEVEL PRESSURE   UPWARD FLUX   DIFDOWN FLUX  DIRDOWN FLUX  DOWNWARD FLUX   NET FLUX    HEATING RATE
          mb          W/m2          W/m2          W/m2        W/m2          W/m2       degree/day
  51    .06700       83.0268        0.0000      100.7153      100.7153      17.688457       0.00000
  50    .07753       83.0267        0.0003      100.7147      100.7151      17.688336       0.09676
  49    .09103       83.0266        0.0008      100.7140      100.7148      17.688160       0.10974
  48    0.1069       83.0264        0.0012      100.7131      100.7144      17.687925       0.12514
  47    0.1255       83.0263        0.0018      100.7121      100.7139      17.687610       0.14265
  46    0.1487       83.0261        0.0025      100.7108      100.7133      17.687147       0.16903
  45    0.1794       83.0259        0.0034      100.7089      100.7123      17.686422       0.19902
  44    0.2165       83.0257        0.0046      100.7066      100.7111      17.685439       0.22368
  43    0.2613       83.0255        0.0059      100.7037      100.7096      17.684104       0.25146
  42    0.3336       83.0253        0.0081      100.6987      100.7068      17.681568       0.29571
  41    0.4307       83.0251        0.0111      100.6918      100.7028      17.677745       0.33241
  40    0.5894       83.0252        0.0159      100.6797      100.6956      17.670454       0.38772
  39     1.339       83.0315        0.0386      100.6095      100.6481      17.616598       0.60632
  38     1.782       83.0397        0.0520      100.5585      100.6104      17.570732       0.87322
  37     2.292       83.0533        0.0674      100.4903      100.5576      17.504360       1.09929
  36     2.964       83.0775        0.0877      100.3868      100.4744      17.396883       1.34916
  35     3.853       83.1185        0.1144      100.2306      100.3450      17.226459       1.61736
  34     5.035       83.1819        0.1498      100.0045      100.1543      16.972456       1.81449
  33     6.613       83.2710        0.1971       99.6939       99.8910      16.619970       1.88439
  32     8.786       83.3865        0.2607       99.2881       99.5487      16.162181       1.77789
  31     11.80       83.5345        0.3513       98.7496       99.1009      15.566381       1.66805
  30     15.07       83.6732        0.4482       98.2198       98.6681      14.994849       1.47558
  29     18.79       83.8118        0.5574       97.6651       98.2226      14.410738       1.32436
  28     23.16       83.9528        0.6845       97.0671       97.7516      13.798813       1.18327
  27     28.12       84.0897        0.8292       96.4406       97.2698      13.180157       1.05167
  26     33.73       84.2078        0.9907       95.8179       96.8086      12.600872       0.87097
  25     40.54       84.3099        1.1852       95.1548       96.3400      12.030129       0.70807
  24     48.69       84.3938        1.4188       94.4420       95.8607      11.466930       0.58282
  23     57.69       84.4481        1.6744       93.7416       95.4160      10.967818       0.46784
  22     68.43       84.4721        1.9775       92.9954       94.9729      10.500789       0.36715
  21     81.20       84.4448        2.3374       92.2231       94.5605      10.115685       0.25447
  20     96.49       84.3609        2.7643       91.4110       94.1753       9.814427       0.16627
  19     114.6       84.2356        3.2679       90.5070       93.7749       9.539246       0.12849
  18     136.5       84.0707        3.8599       89.4803       93.3401       9.269480       0.10373
  17     162.9       83.8599        4.5580       88.3022       92.8602       9.000298       0.08604
  16     196.4       83.5547        5.4533       86.8606       92.3140       8.759242       0.06068
  15     218.7       83.3434        6.0351       85.9492       91.9843       8.640942       0.04491
  14     243.0       83.1096        6.6620       84.9789       91.6409       8.531382       0.03800
  13     269.0       82.8521        7.3349       83.9493       91.2842       8.432091       0.03221
  12     297.5       82.5706        8.0548       82.8589       90.9138       8.343184       0.02637
  11     328.5       82.2667        8.8243       81.6982       90.5225       8.255795       0.02376
  10     361.9       81.9406        9.6430       80.4669       90.1100       8.169352       0.02187
   9     398.1       81.5917       10.5131       79.1611       89.6742       8.082562       0.02022
   8     437.6       81.2208       11.4349       77.7777       89.2127       7.991936       0.01938
   7     480.5       80.8285       12.4089       76.3136       88.7226       7.894091       0.01922
   6     533.0       80.3543       13.5881       74.5359       88.1239       7.769670       0.02002
   5     589.8       79.8553       14.8349       72.6469       87.4818       7.626556       0.02124
   4     651.6       79.3347       16.1477       70.6456       86.7932       7.458546       0.02298
   3     718.7       78.7933       17.5243       68.5367       86.0610       7.267680       0.02399
   2     792.3       78.2342       18.9596       66.3287       85.2883       7.054081       0.02450
   1     891.5       28.2256       35.1445        0.0000       35.1445       6.918881       0.01150
   0    1013.0       28.1920       35.0037        0.0000       35.0037       6.811728       0.00744



 Wavenumbers: 22650. - 29000. cm-1, ATM      1
 LEVEL PRESSURE   UPWARD FLUX   DIFDOWN FLUX  DIRDOWN FLUX  DOWNWARD FLUX   NET FLUX    HEATING RATE
          mb          W/m2          W/m2          W/m2        W/m2          W/m2       degree/day
  51    .06700       35.8115        0.0000       38.0063       38.0063       2.194798       0.00000
  50    .07753       35.8113        0.0004       38.0057       38.0061       2.194798       0.00000
  49    .09103       35.8111        0.0009       38.0050       38.0059       2.194798      -0.00000
  48    0.1069       35.8109        0.0014       38.0042       38.0057       2.194798       0.00000
  47    0.1255       35.8106        0.0021       38.0033       38.0054       2.194798       0.00000
  46    0.1487       35.8103        0.0029       38.0022       38.0051       2.194798       0.00000
  45    0.1794       35.8098        0.0040       38.0006       38.0046       2.194798      -0.00000
  44    0.2165       35.8093        0.0053       37.9987       38.0041       2.194798       0.00000
  43    0.2613       35.8086        0.0069       37.9965       38.0034       2.194798      -0.00000
  42    0.3336       35.8075        0.0095       37.9928       38.0023       2.194798       0.00000
  41    0.4307       35.8061        0.0129       37.9880       38.0009       2.194798       0.00000
  40    0.5894       35.8038        0.0185       37.9800       37.9986       2.194798      -0.00000
  39     1.339       35.7928        0.0451       37.9425       37.9876       2.194798       0.00000
  38     1.782       35.7863        0.0607       37.9204       37.9811       2.194798      -0.00000
  37     2.292       35.7788        0.0787       37.8949       37.9736       2.194798       0.00000
  36     2.964       35.7690        0.1024       37.8614       37.9638       2.194798      -0.00000
  35     3.853       35.7560        0.1336       37.8172       37.9508       2.194798       0.00000
  34     5.035       35.7388        0.1750       37.7586       37.9336       2.194798      -0.00000
  33     6.613       35.7158        0.2303       37.6803       37.9106       2.194798       0.00000
  32     8.786       35.6849        0.3047       37.5750       37.8797       2.194798       0.00000
  31     11.80       35.6409        0.4108       37.4249       37.8357       2.194798       0.00000
  30     15.07       35.5937        0.5243       37.2642       37.7885       2.194798      -0.00000
  29     18.79       35.5406        0.6521       37.0833       37.7354       2.194798       0.00000
  28     23.16       35.4788        0.8006       36.8730       37.6736       2.194798       0.00000
  27     28.12       35.4085        0.9695       36.6338       37.6033       2.194798       0.00000
  26     33.73       35.3303        1.1574       36.3677       37.5251       2.194798       0.00000
  25     40.54       35.2365        1.3827       36.0486       37.4313       2.194798      -0.00000
  24     48.69       35.1243        1.6518       35.6672       37.3191       2.194798       0.00000
  23     57.69       35.0023        1.9444       35.2527       37.1971       2.194798       0.00000
  22     68.43       34.8586        2.2885       34.7649       37.0534       2.194798      -0.00000
  21     81.20       34.6898        2.6923       34.1922       36.8846       2.194798       0.00000
  20     96.49       34.4919        3.1650       33.5217       36.6867       2.194798       0.00000
  19     114.6       34.2617        3.7142       32.7424       36.4565       2.194798      -0.00000
  18     136.5       33.9953        4.3485       31.8416       36.1901       2.194798       0.00000
  17     162.9       33.6869        5.0809       30.8008       35.8816       2.194798       0.00000
  16     196.4       33.3007        5.9949       29.5007       35.4955       2.194798       0.00000
  15     218.7       33.0555        6.5736       28.6767       35.2503       2.194798       0.00000
  14     243.0       32.7961        7.1841       27.8068       34.9909       2.194798       0.00000
  13     269.0       32.5232        7.8246       26.8933       34.7180       2.194798       0.00000
  12     297.5       32.2374        8.4929       25.9393       34.4322       2.194798      -0.00000
  11     328.5       31.9389        9.1886       24.9451       34.1337       2.194798       0.00000
  10     361.9       31.6290        9.9078       23.9160       33.8238       2.194798       0.00000
   9     398.1       31.3082       10.6488       22.8541       33.5030       2.194798      -0.00000
   8     437.6       30.9777       11.4080       21.7645       33.1725       2.194798       0.00000
   7     480.5       30.6389       12.1816       20.6521       32.8337       2.194798       0.00000
   6     533.0       30.2425       13.0803       19.3569       32.4373       2.194798       0.00000
   5     589.8       29.8389       13.9870       18.0467       32.0337       2.194798      -0.00000
   4     651.6       29.4308       14.8940       16.7316       31.6256       2.194798       0.00000
   3     718.7       29.0209       15.7943       15.4214       31.2157       2.194798       0.00000
   2     792.3       28.6121       16.6793       14.1276       30.8069       2.194798       0.00000
   1     891.5       14.7090       16.9033        0.0000       16.9033       2.194289       0.00004
   0    1013.0       14.6331       16.8274        0.0000       16.8274       2.194289       0.00000



 Wavenumbers: 29000. - 38000. cm-1, ATM      1
 LEVEL PRESSURE   UPWARD FLUX   DIFDOWN FLUX  DIRDOWN FLUX  DOWNWARD FLUX   NET FLUX    HEATING RATE
          mb          W/m2          W/m2          W/m2        W/m2          W/m2       degree/day
  51    .06700        5.1104        0.0000       13.4026       13.4026       8.292171       0.00000
  50    .07753        5.1102        0.0003       13.3983       13.3986       8.288372       3.04460
  49    .09103        5.1099        0.0007       13.3921       13.3928       8.282852       3.44992
  48    0.1069        5.1096        0.0011       13.3840       13.3851       8.275475       3.92705
  47    0.1255        5.1093        0.0016       13.3733       13.3749       8.265629       4.46351
  46    0.1487        5.1089        0.0022       13.3579       13.3601       8.251186       5.26478
  45    0.1794        5.1083        0.0030       13.3340       13.3371       8.228785       6.14975
  44    0.2165        5.1076        0.0040       13.3024       13.3064       8.198763       6.82932
  43    0.2613        5.1069        0.0052       13.2604       13.2656       8.158705       7.55073
  42    0.3336        5.1057        0.0071       13.1833       13.1904       8.084693       8.62918
  41    0.4307        5.1041        0.0095       13.0729       13.0825       7.978311       9.24966
  40    0.5894        5.1018        0.0135       12.8796       12.8931       7.791248       9.94774
  39     1.339        5.0936        0.0298       11.9165       11.9463       6.852764      10.56563
  38     1.782        5.0904        0.0382       11.4399       11.4781       6.387660       8.85483
  37     2.292        5.0882        0.0471       10.9796       11.0267       5.938552       7.43839
  36     2.964        5.0871        0.0581       10.4786       10.5368       5.449641       6.13731
  35     3.853        5.0883        0.0717        9.9429       10.0146       4.926342       4.96621
  34     5.035        5.0924        0.0887        9.4007        9.4894       4.396953       3.78174
  33     6.613        5.0998        0.1102        8.8752        8.9854       3.885650       2.73343
  32     8.786        5.1099        0.1380        8.3786        8.5166       3.406727       1.85996
  31     11.80        5.1223        0.1762        7.8897        8.0658       2.943506       1.29687
  30     15.07        5.1333        0.2155        7.5108        7.7263       2.593060       0.90478
  29     18.79        5.1437        0.2585        7.1776        7.4361       2.292382       0.68173
  28     23.16        5.1536        0.3068        6.8664        7.1733       2.019695       0.52729
  27     28.12        5.1621        0.3603        6.5780        6.9384       1.776274       0.41380
  26     33.73        5.1667        0.4187        6.3195        6.7381       1.571434       0.30798
  25     40.54        5.1664        0.4875        6.0663        6.5537       1.387375       0.22835
  24     48.69        5.1606        0.5681        5.8128        6.3810       1.220397       0.17280
  23     57.69        5.1491        0.6543        5.5777        6.2320       1.082906       0.12888
  22     68.43        5.1298        0.7540        5.3379        6.0919       0.962138       0.09494
  21     81.20        5.0983        0.8698        5.0965        5.9663       0.867997       0.06221
  20     96.49        5.0535        1.0036        4.8476        5.8513       0.797792       0.03875
  19     114.6        4.9987        1.1554        4.5799        5.7353       0.736589       0.02858
  18     136.5        4.9351        1.3251        4.2891        5.6142       0.679125       0.02210
  17     162.9        4.8625        1.5136        3.9732        5.4867       0.624233       0.01755
  16     196.4        4.7704        1.7396        3.6080        5.3476       0.577199       0.01184
  15     218.7        4.7124        1.8774        3.3898        5.2672       0.554757       0.00852
  14     243.0        4.6522        2.0180        3.1686        5.1866       0.534364       0.00707
  13     269.0        4.5902        2.1604        2.9461        5.1065       0.516343       0.00585
  12     297.5        4.5266        2.3034        2.7239        5.0274       0.500719       0.00463
  11     328.5        4.4625        2.4456        2.5029        4.9485       0.486011       0.00400
  10     361.9        4.3983        2.5859        2.2846        4.8705       0.472242       0.00348
   9     398.1        4.3343        2.7229        2.0708        4.7937       0.459407       0.00299
   8     437.6        4.2711        2.8558        1.8626        4.7184       0.447234       0.00260
   7     480.5        4.2092        2.9829        1.6621        4.6451       0.435857       0.00223
   6     533.0        4.1404        3.1203        1.4437        4.5640       0.423652       0.00196
   5     589.8        4.0743        3.2474        1.2390        4.4864       0.412026       0.00173
   4     651.6        4.0118        3.3626        1.0500        4.4126       0.400821       0.00153
   3     718.7        3.9529        3.4651        0.8778        4.3429       0.390000       0.00136
   2     792.3        3.8982        3.5540        0.7237        4.2778       0.379540       0.00120
   1     891.5        1.9890        2.3593        0.0000        2.3593       0.370301       0.00079
   0    1013.0        1.9662        2.3294        0.0000        2.3294       0.363150       0.00050



 Wavenumbers: 38000. - 50000. cm-1, ATM      1
 LEVEL PRESSURE   UPWARD FLUX   DIFDOWN FLUX  DIRDOWN FLUX  DOWNWARD FLUX   NET FLUX    HEATING RATE
          mb          W/m2          W/m2          W/m2        W/m2          W/m2       degree/day
  51    .06700        0.0051        0.0000        0.8267        0.8267       0.821528       0.00000
  50    .07753        0.0051        0.0001        0.8242        0.8243       0.819196       1.86936
  49    .09103        0.0050        0.0002        0.8207        0.8209       0.815872       2.07705
  48    0.1069        0.0049        0.0002        0.8162        0.8164       0.811514       2.31984
  47    0.1255        0.0048        0.0004        0.8103        0.8106       0.805801       2.59006
  46    0.1487        0.0047        0.0005        0.8018        0.8023       0.797567       3.00143
  45    0.1794        0.0045        0.0007        0.7889        0.7896       0.785013       3.44648
  44    0.2165        0.0044        0.0009        0.7720        0.7729       0.768507       3.75474
  43    0.2613        0.0042        0.0011        0.7500        0.7511       0.746955       4.06246
  42    0.3336        0.0039        0.0015        0.7106        0.7121       0.708267       4.51071
  41    0.4307        0.0035        0.0019        0.6566        0.6584       0.654972       4.63387
  40    0.5894        0.0029        0.0024        0.5680        0.5704       0.567464       4.65357
  39     1.339        0.0015        0.0030        0.2422        0.2452       0.243720       3.64476
  38     1.782        0.0010        0.0026        0.1493        0.1519       0.150889       1.76735
  37     2.292        0.0007        0.0022        0.0924        0.0946       0.093932       0.94336
  36     2.964        0.0005        0.0018        0.0539        0.0557       0.055224       0.48589
  35     3.853        0.0003        0.0013        0.0295        0.0308       0.030502       0.23462
  34     5.035        0.0002        0.0010        0.0154        0.0164       0.016181       0.10230
  33     6.613        0.0001        0.0007        0.0073        0.0080       0.007912       0.04420
  32     8.786        0.0000        0.0004        0.0030        0.0034       0.003390       0.01756
  31     11.80        0.0000        0.0003        0.0010        0.0012       0.001199       0.00613
  30     15.07        0.0000        0.0001        0.0003        0.0005       0.000463       0.00190
  29     18.79        0.0000        0.0001        0.0001        0.0002       0.000182       0.00064
  28     23.16        0.0000        0.0000        0.0000        0.0001       0.000071       0.00022
  27     28.12        0.0000        0.0000        0.0000        0.0000       0.000028       0.00007
  26     33.73        0.0000        0.0000        0.0000        0.0000       0.000011       0.00002
  25     40.54        0.0000        0.0000        0.0000        0.0000       0.000005       0.00001
  24     48.69        0.0000        0.0000        0.0000        0.0000       0.000002       0.00000
  23     57.69        0.0000        0.0000        0.0000        0.0000       0.000001       0.00000
  22     68.43        0.0000        0.0000        0.0000        0.0000       0.000000       0.00000
  21     81.20        0.0000        0.0000        0.0000        0.0000       0.000000       0.00000
  20     96.49        0.0000        0.0000        0.0000        0.0000       0.000000       0.00000
  19     114.6        0.0000        0.0000        0.0000        0.0000       0.000000       0.00000
  18     136.5        0.0000        0.0000        0.0000        0.0000       0.000000       0.00000
  17     162.9        0.0000        0.0000        0.0000        0.0000       0.000000       0.00000
  16     196.4        0.0000        0.0000        0.0000        0.0000       0.000000       0.00000
  15     218.7        0.0000        0.0000        0.0000        0.0000       0.000000       0.00000
  14     243.0        0.0000        0.0000        0.0000        0.0000       0.000000       0.00000
  13     269.0        0.0000        0.0000        0.0000        0.0000       0.000000       0.00000
  12     297.5        0.0000        0.0000        0.0000        0.0000       0.000000       0.00000
  11     328.5        0.0000        0.0000        0.0000        0.0000       0.000000       0.00000
  10     361.9        0.0000        0.0000        0.0000        0.0000       0.000000       0.00000
   9     398.1        0.0000        0.0000        0.0000        0.0000       0.000000       0.00000
   8     437.6        0.0000        0.0000        0.0000        0.0000       0.000000       0.00000
   7     480.5        0.0000        0.0000        0.0000        0.0000       0.000000       0.00000
   6     533.0        0.0000        0.0000        0.0000        0.0000       0.000000       0.00000
   5     589.8        0.0000        0.0000        0.0000        0.0000       0.000000       0.00000
   4     651.6        0.0000        0.0000        0.0000        0.0000       0.000000       0.00000
   3     718.7        0.0000        0.0000        0.0000        0.0000       0.000000       0.00000
   2     792.3        0.0000        0.0000        0.0000        0.0000       0.000000       0.00000
   1     891.5        0.0000        0.0000        0.0000        0.0000       0.000000       0.00000
   0    1013.0        0.0000        0.0000        0.0000        0.0000       0.000000       0.00000



 Wavenumbers:   820. -  2600. cm-1, ATM      1
 LEVEL PRESSURE   UPWARD FLUX   DIFDOWN FLUX  DIRDOWN FLUX  DOWNWARD FLUX   NET FLUX    HEATING RATE
          mb          W/m2          W/m2          W/m2        W/m2          W/m2       degree/day
  51    .06700        0.8248        0.0000        3.8670        3.8670       3.042209       0.00000
  50    .07753        0.8248        0.0000        3.8643        3.8643       3.039492       2.17771
  49    .09103        0.8248        0.0000        3.8635        3.8635       3.038682       0.50640
  48    0.1069        0.8248        0.0000        3.8626        3.8626       3.037791       0.47417
  47    0.1255        0.8248        0.0000        3.8616        3.8616       3.036830       0.43561
  46    0.1487        0.8248        0.0000        3.8605        3.8605       3.035721       0.40439
  45    0.1794        0.8248        0.0000        3.8592        3.8592       3.034386       0.36650
  44    0.2165        0.8248        0.0000        3.8578        3.8578       3.033008       0.31348
  43    0.2613        0.8248        0.0000        3.8564        3.8564       3.031548       0.27524
  42    0.3336        0.8248        0.0000        3.8541        3.8541       3.029316       0.26015
  41    0.4307        0.8248        0.0000        3.8512        3.8512       3.026434       0.25065
  40    0.5894        0.8248        0.0000        3.8465        3.8465       3.021707       0.25136
  39     1.339        0.8248        0.0000        3.8251        3.8251       3.000330       0.24067
  38     1.782        0.8248        0.0000        3.8133        3.8133       2.988516       0.22492
  37     2.292        0.8248        0.0000        3.8003        3.8003       2.975453       0.21635
  36     2.964        0.8248        0.0000        3.7841        3.7841       2.959322       0.20249
  35     3.853        0.8248        0.0000        3.7642        3.7642       2.939405       0.18902
  34     5.035        0.8248        0.0000        3.7395        3.7395       2.914711       0.17641
  33     6.613        0.8248        0.0000        3.7090        3.7090       2.884170       0.16327
  32     8.786        0.8248        0.0000        3.6726        3.6726       2.847771       0.14136
  31     11.80        0.8249        0.0000        3.6320        3.6320       2.807167       0.11368
  30     15.07        0.8249        0.0000        3.6016        3.6016       2.776773       0.07847
  29     18.79        0.8249        0.0000        3.5777        3.5777       2.752864       0.05421
  28     23.16        0.8249        0.0000        3.5564        3.5564       2.731496       0.04132
  27     28.12        0.8249        0.0000        3.5348        3.5348       2.709934       0.03665
  26     33.73        0.8249        0.0000        3.5118        3.5118       2.686882       0.03466
  25     40.54        0.8250        0.0000        3.4849        3.4849       2.659972       0.03339
  24     48.69        0.8250        0.0000        3.4537        3.4537       2.628692       0.03237
  23     57.69        0.8250        0.0000        3.4210        3.4210       2.595988       0.03066
  22     68.43        0.8251        0.0000        3.3844        3.3844       2.559365       0.02879
  21     81.20        0.8251        0.0000        3.3441        3.3441       2.519021       0.02666
  20     96.49        0.8252        0.0000        3.2998        3.2998       2.474601       0.02452
  19     114.6        0.8253        0.0000        3.2506        3.2507       2.425385       0.02298
  18     136.5        0.8254        0.0000        3.1936        3.1936       2.368239       0.02197
  17     162.9        0.8256        0.0000        3.1181        3.1181       2.292571       0.02419
  16     196.4        0.8259        0.0000        3.0090        3.0090       2.183065       0.02756
  15     218.7        0.8262        0.0000        2.9420        2.9420       2.115825       0.02553
  14     243.0        0.8266        0.0000        2.8605        2.8605       2.033918       0.02841
  13     269.0        0.8272        0.0000        2.7419        2.7420       1.914757       0.03866
  12     297.5        0.8283        0.0000        2.5729        2.5729       1.744597       0.05047
  11     328.5        0.8300        0.0000        2.3602        2.3602       1.530211       0.05829
  10     361.9        0.8326        0.0000        2.1524        2.1524       1.319856       0.05322
   9     398.1        0.8362        0.0000        1.9974        1.9974       1.161187       0.03697
   8     437.6        0.8413        0.0000        1.8835        1.8835       1.042179       0.02544
   7     480.5        0.8486        0.0000        1.7734        1.7734       0.924831       0.02305
   6     533.0        0.8605        0.0000        1.6397        1.6398       0.779250       0.02342
   5     589.8        0.8776        0.0000        1.5068        1.5069       0.629298       0.02226
   4     651.6        0.9027        0.0000        1.3807        1.3807       0.477994       0.02069
   3     718.7        0.9364        0.0000        1.2680        1.2681       0.331655       0.01839
   2     792.3        0.9787        0.0000        1.1659        1.1660       0.187307       0.01656
   1     891.5        0.0080        0.1376        0.0000        0.1376       0.129631       0.00491
   0    1013.0        0.0088        0.1243        0.0000        0.1243       0.115494       0.00098

  Modules and versions used in this calculation:

       rrtmg_sw.1col.f90:  $Revision$                    rrtmg_sw_init.f90:  $Revision$        
     rrtmgsw_cldprop.f90:  $Revision$                  rrtmgsw_cldprmc.f90:  NOT USED          
     rrtmg_sw_reftra.f90:  $Revision$                  rrtmg_sw_spcvrt.f90:  NOT USED          
     rrtmg_sw_spcvmc.f90:  NOT USED                    rrtmgsw_setcoef.f90:  NOT USED          
     rrtmg_sw_taumol.f90:  $Revision$                  rrtmg_sw_vrtqdr.f90:  NOT USED          
                rrtatm.f:  NOT USED                             util_xxx.f:  NOT USED          
                 extra.f:  NOT USED                       rrtmg_sw_k_g.f90:  $Revision$        

