

 Wavenumbers:   820. - 50000. cm-1, ATM      1
 LEVEL PRESSURE   UPWARD FLUX   DIFDOWN FLUX  DIRDOWN FLUX  DOWNWARD FLUX   NET FLUX    HEATING RATE
          mb          W/m2          W/m2          W/m2        W/m2          W/m2       degree/day
  51    .06700      295.2208        0.0000      397.8738      397.8738     102.653022       0.00000
  50    .07753      295.2202        0.0012      397.8577      397.8589     102.638724      11.45984
  49    .09103      295.2195        0.0027      397.8418      397.8445     102.625027       8.56148
  48    0.1069      295.2187        0.0044      397.8230      397.8274     102.608667       8.70854
  47    0.1255      295.2179        0.0064      397.7997      397.8061     102.588208       9.27492
  46    0.1487      295.2168        0.0089      397.7676      397.7765     102.559728      10.38140
  45    0.1794      295.2154        0.0123      397.7205      397.7328     102.517401      11.61981
  44    0.2165      295.2138        0.0163      397.6602      397.6766     102.462705      12.44219
  43    0.2613      295.2121        0.0210      397.5829      397.6039     102.391846      13.35675
  42    0.3336      295.2094        0.0288      397.4449      397.4737     102.264289      14.87185
  41    0.4307      295.2062        0.0390      397.2524      397.2914     102.085244      15.56757
  40    0.5894      295.2016        0.0555      396.9253      396.9808     101.779194      16.27536
  39     1.339      295.1923        0.1290      395.4254      395.5544     100.362044      15.95453
  38     1.782      295.1953        0.1703      394.7288      394.8991      99.703761      12.53265
  37     2.292      295.2062        0.2173      394.0572      394.2745      99.068259      10.52557
  36     2.964      295.2316        0.2784      393.3007      393.5790      98.347435       9.04853
  35     3.853      295.2806        0.3582      392.4318      392.7900      97.509414       7.95297
  34     5.035      295.3609        0.4632      391.4441      391.9073      96.546452       6.87901
  33     6.613      295.4765        0.6024      390.3268      390.9292      95.452737       5.84700
  32     8.786      295.6259        0.7887      389.0624      389.8511      94.225130       4.76758
  31     11.80      295.8135        1.0530      387.5500      388.6030      92.789548       4.01918
  30     15.07      295.9840        1.3346      386.1556      387.4902      91.506195       3.31337
  29     18.79      296.1493        1.6503      384.7502      386.4005      90.251213       2.84543
  28     23.16      296.3107        2.0162      383.2686      385.2849      88.974106       2.46951
  27     28.12      296.4584        2.4314      381.7329      384.1643      87.705839       2.15597
  26     33.73      296.5696        2.8927      380.1982      383.0909      86.521244       1.78107
  25     40.54      296.6414        3.4462      378.5384      381.9846      85.343139       1.46157
  24     48.69      296.6679        4.1078      376.7214      380.8292      84.161271       1.22305
  23     57.69      296.6395        4.8279      374.8959      379.7238      83.084348       1.00945
  22     68.43      296.5438        5.6774      372.8999      378.5773      82.033458       0.82614
  21     81.20      296.3445        6.6790      370.7496      377.4286      81.084167       0.62728
  20     96.49      296.0298        7.8581      368.4056      376.2637      80.233950       0.46926
  19     114.6      295.6310        9.2364      365.7513      374.9877      79.356662       0.40963
  18     136.5      295.1411       10.8386      362.7231      373.5617      78.420552       0.35996
  17     162.9      294.5482       12.7029      359.1748      371.8777      77.329545       0.34873
  16     196.4      293.7471       15.0565      354.5718      369.6284      75.881266       0.36455
  15     218.7      293.2158       16.5637      351.4437      368.0074      74.791551       0.41372
  14     243.0      292.6440       18.1684      347.7111      365.8796      73.235609       0.53965
  13     269.0      292.0349       19.8692      342.9441      362.8133      70.778429       0.79710
  12     297.5      291.3937       21.6641      337.4137      359.0779      67.684170       0.91772
  11     328.5      290.7312       23.5554      331.1302      354.6856      63.954468       1.01410
  10     361.9      290.0592       25.5377      324.1219      349.6596      59.600451       1.10161
   9     398.1      289.3910       27.6110      316.6066      344.2176      54.826571       1.11221
   8     437.6      288.7529       29.7711      308.5895      338.3606      49.607656       1.11584
   7     480.5      288.1927       32.0125      299.9349      331.9474      43.754687       1.14950
   6     533.0      287.7071       34.6735      289.7021      324.3756      36.668522       1.13994
   5     589.8      287.4803       37.4272      279.3388      316.7660      29.285698       1.09585
   4     651.6      287.6808       40.2622      268.7786      309.0408      21.359937       1.08387
   3     718.7      288.4562       43.1702      258.2837      301.4538      12.997637       1.05091
   2     792.3      290.0037       46.1378      248.0774      294.2152       4.211481       1.00767
   1     891.5        5.1869        7.6470        0.0000        7.6470       2.460018       0.14904
   0    1013.0        5.1705        7.5943        0.0000        7.5943       2.423789       0.00252



 Wavenumbers:  2600. -  3250. cm-1, ATM      1
 LEVEL PRESSURE   UPWARD FLUX   DIFDOWN FLUX  DIRDOWN FLUX  DOWNWARD FLUX   NET FLUX    HEATING RATE
          mb          W/m2          W/m2          W/m2        W/m2          W/m2       degree/day
  51    .06700        1.2764        0.0000        3.5066        3.5066       2.230244       0.00000
  50    .07753        1.2764        0.0000        3.5066        3.5066       2.230237       0.00640
  49    .09103        1.2764        0.0000        3.5066        3.5066       2.230226       0.00627
  48    0.1069        1.2764        0.0000        3.5066        3.5066       2.230215       0.00613
  47    0.1255        1.2764        0.0000        3.5066        3.5066       2.230202       0.00599
  46    0.1487        1.2764        0.0000        3.5066        3.5066       2.230185       0.00607
  45    0.1794        1.2764        0.0000        3.5065        3.5065       2.230162       0.00624
  44    0.2165        1.2764        0.0000        3.5065        3.5065       2.230136       0.00611
  43    0.2613        1.2764        0.0000        3.5065        3.5065       2.230104       0.00598
  42    0.3336        1.2764        0.0000        3.5064        3.5064       2.230051       0.00615
  41    0.4307        1.2764        0.0000        3.5064        3.5064       2.229980       0.00618
  40    0.5894        1.2764        0.0000        3.5062        3.5062       2.229861       0.00633
  39     1.339        1.2764        0.0000        3.5055        3.5055       2.229162       0.00787
  38     1.782        1.2764        0.0000        3.5050        3.5050       2.228631       0.01011
  37     2.292        1.2764        0.0000        3.5043        3.5043       2.227939       0.01147
  36     2.964        1.2764        0.0000        3.5033        3.5033       2.226947       0.01245
  35     3.853        1.2764        0.0000        3.5019        3.5019       2.225570       0.01307
  34     5.035        1.2764        0.0000        3.5001        3.5001       2.223709       0.01329
  33     6.613        1.2764        0.0000        3.4977        3.4977       2.221299       0.01288
  32     8.786        1.2764        0.0000        3.4947        3.4947       2.218328       0.01154
  31     11.80        1.2764        0.0000        3.4911        3.4911       2.214692       0.01018
  30     15.07        1.2764        0.0000        3.4878        3.4878       2.211469       0.00832
  29     18.79        1.2764        0.0000        3.4848        3.4848       2.208404       0.00695
  28     23.16        1.2764        0.0000        3.4816        3.4816       2.205181       0.00623
  27     28.12        1.2764        0.0000        3.4779        3.4779       2.201559       0.00616
  26     33.73        1.2764        0.0000        3.4735        3.4735       2.197086       0.00672
  25     40.54        1.2764        0.0000        3.4671        3.4672       2.190751       0.00786
  24     48.69        1.2764        0.0000        3.4582        3.4583       2.181842       0.00922
  23     57.69        1.2764        0.0000        3.4472        3.4472       2.170774       0.01037
  22     68.43        1.2765        0.0000        3.4329        3.4330       2.156485       0.01123
  21     81.20        1.2765        0.0000        3.4152        3.4152       2.138715       0.01174
  20     96.49        1.2766        0.0000        3.3940        3.3941       2.117511       0.01170
  19     114.6        1.2767        0.0000        3.3692        3.3692       2.092538       0.01166
  18     136.5        1.2768        0.0001        3.3419        3.3420       2.065200       0.01051
  17     162.9        1.2770        0.0001        3.3129        3.3129       2.035944       0.00935
  16     196.4        1.2774        0.0001        3.2793        3.2794       2.002041       0.00853
  15     218.7        1.2777        0.0001        3.2578        3.2579       1.980104       0.00833
  14     243.0        1.2783        0.0001        3.2320        3.2321       1.953730       0.00915
  13     269.0        1.2793        0.0001        3.1968        3.1969       1.917665       0.01170
  12     297.5        1.2807        0.0001        3.1489        3.1491       1.868322       0.01463
  11     328.5        1.2830        0.0001        3.0821        3.0822       1.799224       0.01879
  10     361.9        1.2862        0.0001        2.9902        2.9904       1.704122       0.02406
   9     398.1        1.2910        0.0001        2.8715        2.8716       1.580618       0.02877
   8     437.6        1.2979        0.0002        2.7276        2.7278       1.429898       0.03222
   7     480.5        1.3083        0.0002        2.5595        2.5597       1.251376       0.03506
   6     533.0        1.3259        0.0002        2.3617        2.3619       1.035967       0.03465
   5     589.8        1.3520        0.0002        2.1649        2.1651       0.813076       0.03308
   4     651.6        1.3911        0.0002        1.9608        1.9609       0.569807       0.03327
   3     718.7        1.4477        0.0002        1.7593        1.7595       0.311818       0.03242
   2     792.3        1.5279        0.0002        1.5761        1.5762       0.048375       0.03021
   1     891.5        0.0016        0.0072        0.0000        0.0072       0.005587       0.00364
   0    1013.0        0.0017        0.0069        0.0000        0.0069       0.005158       0.00003



 Wavenumbers:  3250. -  4000. cm-1, ATM      1
 LEVEL PRESSURE   UPWARD FLUX   DIFDOWN FLUX  DIRDOWN FLUX  DOWNWARD FLUX   NET FLUX    HEATING RATE
          mb          W/m2          W/m2          W/m2        W/m2          W/m2       degree/day
  51    .06700        0.0135        0.0000        5.9117        5.9117       5.898181       0.00000
  50    .07753        0.0135        0.0000        5.9075        5.9075       5.893992       3.35808
  49    .09103        0.0135        0.0000        5.9050        5.9050       5.891549       1.52677
  48    0.1069        0.0135        0.0000        5.9032        5.9032       5.889683       0.99346
  47    0.1255        0.0135        0.0000        5.9014        5.9014       5.887924       0.79708
  46    0.1487        0.0135        0.0000        5.8995        5.8995       5.886036       0.68848
  45    0.1794        0.0135        0.0000        5.8974        5.8974       5.883887       0.58983
  44    0.2165        0.0135        0.0000        5.8952        5.8952       5.881770       0.48155
  43    0.2613        0.0135        0.0000        5.8931        5.8931       5.879611       0.40696
  42    0.3336        0.0135        0.0000        5.8899        5.8899       5.876453       0.36820
  41    0.4307        0.0135        0.0000        5.8861        5.8861       5.872616       0.33365
  40    0.5894        0.0135        0.0000        5.8803        5.8803       5.866813       0.30857
  39     1.339        0.0135        0.0000        5.8597        5.8597       5.846216       0.23189
  38     1.782        0.0135        0.0000        5.8513        5.8513       5.837791       0.16039
  37     2.292        0.0135        0.0000        5.8431        5.8431       5.829620       0.13533
  36     2.964        0.0135        0.0000        5.8334        5.8334       5.819981       0.12100
  35     3.853        0.0135        0.0000        5.8213        5.8213       5.807805       0.11555
  34     5.035        0.0135        0.0000        5.8052        5.8052       5.791710       0.11498
  33     6.613        0.0135        0.0000        5.7833        5.7834       5.769889       0.11666
  32     8.786        0.0135        0.0000        5.7531        5.7531       5.739687       0.11729
  31     11.80        0.0135        0.0000        5.7090        5.7090       5.695518       0.12366
  30     15.07        0.0135        0.0000        5.6615        5.6615       5.648054       0.12254
  29     18.79        0.0134        0.0000        5.6093        5.6094       5.595918       0.11821
  28     23.16        0.0134        0.0000        5.5524        5.5524       5.538992       0.11008
  27     28.12        0.0134        0.0000        5.4935        5.4935       5.480113       0.10009
  26     33.73        0.0134        0.0000        5.4348        5.4349       5.421424       0.08824
  25     40.54        0.0134        0.0001        5.3707        5.3708       5.357363       0.07948
  24     48.69        0.0134        0.0001        5.2985        5.2985       5.285130       0.07475
  23     57.69        0.0134        0.0001        5.2215        5.2216       5.208191       0.07212
  22     68.43        0.0134        0.0001        5.1318        5.1319       5.118531       0.07048
  21     81.20        0.0134        0.0001        5.0284        5.0285       5.015101       0.06834
  20     96.49        0.0134        0.0001        4.9122        4.9123       4.898967       0.06410
  19     114.6        0.0133        0.0001        4.7780        4.7782       4.764856       0.06262
  18     136.5        0.0133        0.0002        4.6285        4.6287       4.615377       0.05748
  17     162.9        0.0133        0.0002        4.4406        4.4407       4.427464       0.06006
  16     196.4        0.0132        0.0002        4.1548        4.1550       4.141789       0.07191
  15     218.7        0.0132        0.0002        3.9564        3.9566       3.943405       0.07532
  14     243.0        0.0132        0.0002        3.7055        3.7058       3.692564       0.08700
  13     269.0        0.0132        0.0002        3.3399        3.3401       3.326908       0.11862
  12     297.5        0.0132        0.0002        2.8954        2.8956       2.882380       0.13184
  11     328.5        0.0133        0.0002        2.4388        2.4390       2.425764       0.12415
  10     361.9        0.0134        0.0002        2.0269        2.0271       2.013687       0.10426
   9     398.1        0.0136        0.0002        1.6753        1.6755       1.661855       0.08197
   8     437.6        0.0140        0.0002        1.3592        1.3594       1.345313       0.06768
   7     480.5        0.0148        0.0002        1.0616        1.0618       1.046963       0.05859
   6     533.0        0.0164        0.0001        0.7543        0.7544       0.738048       0.04969
   5     589.8        0.0193        0.0001        0.4951        0.4952       0.475942       0.03891
   4     651.6        0.0250        0.0001        0.2943        0.2943       0.269368       0.02825
   3     718.7        0.0362        0.0001        0.1528        0.1529       0.116701       0.01919
   2     792.3        0.0591        0.0000        0.0658        0.0658       0.006767       0.01261
   1     891.5        0.0000        0.0000        0.0000        0.0000       0.000000       0.00058
   0    1013.0        0.0000        0.0000        0.0000        0.0000       0.000000       0.00000



 Wavenumbers:  4000. -  4650. cm-1, ATM      1
 LEVEL PRESSURE   UPWARD FLUX   DIFDOWN FLUX  DIRDOWN FLUX  DOWNWARD FLUX   NET FLUX    HEATING RATE
          mb          W/m2          W/m2          W/m2        W/m2          W/m2       degree/day
  51    .06700        4.4844        0.0000        6.9421        6.9421       2.457632       0.00000
  50    .07753        4.4844        0.0000        6.9421        6.9421       2.457631       0.00079
  49    .09103        4.4844        0.0000        6.9421        6.9421       2.457629       0.00078
  48    0.1069        4.4844        0.0000        6.9421        6.9421       2.457628       0.00076
  47    0.1255        4.4844        0.0000        6.9421        6.9421       2.457626       0.00074
  46    0.1487        4.4844        0.0000        6.9421        6.9421       2.457624       0.00075
  45    0.1794        4.4844        0.0000        6.9421        6.9421       2.457621       0.00077
  44    0.2165        4.4844        0.0000        6.9421        6.9421       2.457618       0.00076
  43    0.2613        4.4844        0.0000        6.9420        6.9420       2.457614       0.00074
  42    0.3336        4.4844        0.0000        6.9420        6.9420       2.457608       0.00076
  41    0.4307        4.4844        0.0000        6.9420        6.9420       2.457599       0.00077
  40    0.5894        4.4844        0.0000        6.9420        6.9420       2.457584       0.00079
  39     1.339        4.4844        0.0000        6.9419        6.9419       2.457495       0.00100
  38     1.782        4.4844        0.0000        6.9418        6.9419       2.457426       0.00132
  37     2.292        4.4844        0.0000        6.9418        6.9418       2.457332       0.00155
  36     2.964        4.4844        0.0000        6.9416        6.9416       2.457192       0.00175
  35     3.853        4.4844        0.0000        6.9414        6.9414       2.456986       0.00196
  34     5.035        4.4844        0.0000        6.9411        6.9411       2.456681       0.00218
  33     6.613        4.4844        0.0000        6.9406        6.9407       2.456232       0.00240
  32     8.786        4.4844        0.0000        6.9399        6.9400       2.455571       0.00257
  31     11.80        4.4844        0.0001        6.9389        6.9389       2.454535       0.00290
  30     15.07        4.4844        0.0001        6.9377        6.9377       2.453322       0.00313
  29     18.79        4.4844        0.0001        6.9362        6.9363       2.451859       0.00332
  28     23.16        4.4844        0.0001        6.9343        6.9345       2.450049       0.00350
  27     28.12        4.4844        0.0001        6.9321        6.9323       2.447866       0.00371
  26     33.73        4.4844        0.0002        6.9294        6.9296       2.445185       0.00403
  25     40.54        4.4844        0.0002        6.9258        6.9260       2.441568       0.00449
  24     48.69        4.4844        0.0002        6.9210        6.9212       2.436774       0.00496
  23     57.69        4.4845        0.0003        6.9154        6.9156       2.431128       0.00529
  22     68.43        4.4846        0.0003        6.9083        6.9087       2.424098       0.00553
  21     81.20        4.4847        0.0004        6.8998        6.9001       2.415487       0.00569
  20     96.49        4.4848        0.0004        6.8894        6.8899       2.405065       0.00575
  19     114.6        4.4851        0.0005        6.8765        6.8770       2.391981       0.00611
  18     136.5        4.4854        0.0006        6.8610        6.8616       2.376148       0.00609
  17     162.9        4.4860        0.0007        6.8417        6.8424       2.356365       0.00632
  16     196.4        4.4871        0.0009        6.8147        6.8155       2.328473       0.00702
  15     218.7        4.4880        0.0010        6.7948        6.7958       2.307828       0.00784
  14     243.0        4.4893        0.0011        6.7698        6.7709       2.281532       0.00912
  13     269.0        4.4915        0.0012        6.7349        6.7360       2.244580       0.01199
  12     297.5        4.4947        0.0013        6.6869        6.6882       2.193506       0.01515
  11     328.5        4.4992        0.0014        6.6194        6.6208       2.121613       0.01955
  10     361.9        4.5052        0.0016        6.5295        6.5310       2.025833       0.02423
   9     398.1        4.5131        0.0017        6.4202        6.4219       1.908786       0.02727
   8     437.6        4.5238        0.0019        6.2962        6.2980       1.774213       0.02877
   7     480.5        4.5387        0.0020        6.1555        6.1575       1.618757       0.03053
   6     533.0        4.5633        0.0022        5.9675        5.9697       1.406381       0.03416
   5     589.8        4.5998        0.0024        5.7368        5.7391       1.139348       0.03964
   4     651.6        4.6545        0.0025        5.4662        5.4688       0.814227       0.04446
   3     718.7        4.7336        0.0027        5.1912        5.1939       0.460312       0.04448
   2     792.3        4.8447        0.0029        4.9395        4.9424       0.097681       0.04159
   1     891.5        0.0099        0.0409        0.0000        0.0409       0.030968       0.00568
   0    1013.0        0.0101        0.0402        0.0000        0.0402       0.030132       0.00006



 Wavenumbers:  4650. -  5150. cm-1, ATM      1
 LEVEL PRESSURE   UPWARD FLUX   DIFDOWN FLUX  DIRDOWN FLUX  DOWNWARD FLUX   NET FLUX    HEATING RATE
          mb          W/m2          W/m2          W/m2        W/m2          W/m2       degree/day
  51    .06700        3.1532        0.0000        6.5710        6.5710       3.417759       0.00000
  50    .07753        3.1532        0.0000        6.5708        6.5708       3.417523       0.18887
  49    .09103        3.1532        0.0000        6.5705        6.5705       3.417229       0.18362
  48    0.1069        3.1532        0.0000        6.5701        6.5701       3.416895       0.17806
  47    0.1255        3.1532        0.0000        6.5697        6.5697       3.416515       0.17238
  46    0.1487        3.1532        0.0000        6.5693        6.5693       3.416041       0.17268
  45    0.1794        3.1532        0.0000        6.5686        6.5686       3.415404       0.17474
  44    0.2165        3.1532        0.0000        6.5679        6.5679       3.414666       0.16788
  43    0.2613        3.1532        0.0000        6.5670        6.5670       3.413814       0.16078
  42    0.3336        3.1532        0.0000        6.5657        6.5657       3.412450       0.15894
  41    0.4307        3.1532        0.0000        6.5640        6.5640       3.410728       0.14971
  40    0.5894        3.1532        0.0000        6.5613        6.5613       3.408112       0.13913
  39     1.339        3.1532        0.0000        6.5516        6.5516       3.398334       0.11008
  38     1.782        3.1532        0.0000        6.5473        6.5473       3.394118       0.08027
  37     2.292        3.1532        0.0000        6.5434        6.5435       3.390230       0.06439
  36     2.964        3.1532        0.0000        6.5395        6.5395       3.386275       0.04965
  35     3.853        3.1532        0.0000        6.5355        6.5356       3.382331       0.03743
  34     5.035        3.1532        0.0000        6.5315        6.5315       3.378326       0.02861
  33     6.613        3.1532        0.0000        6.5271        6.5271       3.373928       0.02351
  32     8.786        3.1532        0.0001        6.5216        6.5216       3.368425       0.02137
  31     11.80        3.1532        0.0001        6.5135        6.5136       3.360332       0.02266
  30     15.07        3.1532        0.0001        6.5041        6.5042       3.350945       0.02424
  29     18.79        3.1532        0.0001        6.4925        6.4927       3.339403       0.02617
  28     23.16        3.1533        0.0002        6.4779        6.4780       3.324774       0.02829
  27     28.12        3.1533        0.0002        6.4599        6.4601       3.306748       0.03064
  26     33.73        3.1534        0.0002        6.4384        6.4386       3.285251       0.03232
  25     40.54        3.1535        0.0003        6.4112        6.4115       3.258031       0.03377
  24     48.69        3.1536        0.0003        6.3775        6.3778       3.224261       0.03495
  23     57.69        3.1538        0.0004        6.3404        6.3408       3.187000       0.03493
  22     68.43        3.1540        0.0004        6.2971        6.2976       3.143577       0.03414
  21     81.20        3.1543        0.0005        6.2483        6.2488       3.094441       0.03247
  20     96.49        3.1548        0.0006        6.1948        6.1954       3.040628       0.02970
  19     114.6        3.1555        0.0007        6.1381        6.1389       2.983386       0.02673
  18     136.5        3.1564        0.0009        6.0790        6.0799       2.923443       0.02305
  17     162.9        3.1577        0.0010        6.0160        6.0171       2.859323       0.02050
  16     196.4        3.1598        0.0012        5.9399        5.9411       2.781288       0.01964
  15     218.7        3.1614        0.0013        5.8896        5.8910       2.729540       0.01965
  14     243.0        3.1636        0.0015        5.8322        5.8337       2.670079       0.02062
  13     269.0        3.1666        0.0016        5.7624        5.7640       2.597388       0.02358
  12     297.5        3.1710        0.0018        5.6767        5.6785       2.507550       0.02665
  11     328.5        3.1769        0.0019        5.5726        5.5745       2.397692       0.02987
  10     361.9        3.1848        0.0021        5.4473        5.4494       2.264646       0.03366
   9     398.1        3.1955        0.0023        5.2995        5.3018       2.106318       0.03689
   8     437.6        3.2098        0.0025        5.1275        5.1299       1.920169       0.03980
   7     480.5        3.2293        0.0026        4.9290        4.9316       1.702289       0.04279
   6     533.0        3.2603        0.0028        4.6794        4.6822       1.421893       0.04511
   5     589.8        3.3038        0.0030        4.4188        4.4218       1.117971       0.04511
   4     651.6        3.3658        0.0032        4.1521        4.1553       0.789422       0.04493
   3     718.7        3.4510        0.0033        3.8929        3.8963       0.445317       0.04324
   2     792.3        3.5659        0.0035        3.6469        3.6504       0.084447       0.04139
   1     891.5        0.0061        0.0257        0.0000        0.0257       0.019524       0.00552
   0    1013.0        0.0063        0.0251        0.0000        0.0251       0.018782       0.00005



 Wavenumbers:  5150. -  6150. cm-1, ATM      1
 LEVEL PRESSURE   UPWARD FLUX   DIFDOWN FLUX  DIRDOWN FLUX  DOWNWARD FLUX   NET FLUX    HEATING RATE
          mb          W/m2          W/m2          W/m2        W/m2          W/m2       degree/day
  51    .06700        7.7475        0.0000       16.4735       16.4735       8.726055       0.00000
  50    .07753        7.7475        0.0000       16.4735       16.4735       8.726021       0.02765
  49    .09103        7.7475        0.0000       16.4734       16.4734       8.725976       0.02814
  48    0.1069        7.7475        0.0000       16.4734       16.4734       8.725922       0.02863
  47    0.1255        7.7475        0.0000       16.4733       16.4733       8.725858       0.02908
  46    0.1487        7.7475        0.0000       16.4732       16.4732       8.725774       0.03063
  45    0.1794        7.7475        0.0000       16.4731       16.4731       8.725654       0.03273
  44    0.2165        7.7475        0.0000       16.4730       16.4730       8.725508       0.03335
  43    0.2613        7.7474        0.0000       16.4728       16.4728       8.725329       0.03380
  42    0.3336        7.7474        0.0000       16.4725       16.4725       8.725023       0.03568
  41    0.4307        7.7474        0.0000       16.4720       16.4720       8.724603       0.03649
  40    0.5894        7.7474        0.0000       16.4713       16.4713       8.723901       0.03732
  39     1.339        7.7474        0.0000       16.4679       16.4679       8.720488       0.03842
  38     1.782        7.7474        0.0001       16.4659       16.4659       8.718485       0.03813
  37     2.292        7.7474        0.0001       16.4635       16.4636       8.716189       0.03803
  36     2.964        7.7474        0.0001       16.4605       16.4606       8.713213       0.03736
  35     3.853        7.7474        0.0001       16.4567       16.4568       8.709350       0.03666
  34     5.035        7.7474        0.0001       16.4516       16.4517       8.704339       0.03580
  33     6.613        7.7474        0.0002       16.4451       16.4453       8.697857       0.03465
  32     8.786        7.7474        0.0003       16.4367       16.4369       8.689513       0.03240
  31     11.80        7.7474        0.0004       16.4254       16.4257       8.678312       0.03136
  30     15.07        7.7474        0.0005       16.4141       16.4146       8.667167       0.02878
  29     18.79        7.7474        0.0006       16.4024       16.4030       8.655574       0.02628
  28     23.16        7.7474        0.0007       16.3900       16.3907       8.643224       0.02388
  27     28.12        7.7475        0.0008       16.3771       16.3779       8.630452       0.02171
  26     33.73        7.7475        0.0010       16.3641       16.3651       8.617591       0.01934
  25     40.54        7.7476        0.0012       16.3502       16.3514       8.603766       0.01715
  24     48.69        7.7478        0.0014       16.3354       16.3368       8.589046       0.01523
  23     57.69        7.7479        0.0017       16.3211       16.3228       8.574849       0.01331
  22     68.43        7.7482        0.0020       16.3062       16.3083       8.560085       0.01161
  21     81.20        7.7485        0.0024       16.2903       16.2927       8.544222       0.01048
  20     96.49        7.7489        0.0029       16.2726       16.2755       8.526569       0.00974
  19     114.6        7.7494        0.0034       16.2521       16.2555       8.506044       0.00958
  18     136.5        7.7501        0.0040       16.2245       16.2286       8.478509       0.01059
  17     162.9        7.7509        0.0048       16.1747       16.1795       8.428636       0.01594
  16     196.4        7.7521        0.0058       16.0518       16.0576       8.305526       0.03099
  15     218.7        7.7529        0.0064       15.8984       15.9047       8.151825       0.05835
  14     243.0        7.7540        0.0070       15.6153       15.6222       7.868264       0.09835
  13     269.0        7.7555        0.0076       15.1390       15.1466       7.391122       0.15478
  12     297.5        7.7576        0.0082       14.5779       14.5861       6.828494       0.16687
  11     328.5        7.7607        0.0088       13.8780       13.8868       6.126083       0.19098
  10     361.9        7.7653        0.0093       13.0814       13.0907       5.325454       0.20257
   9     398.1        7.7719        0.0097       12.2728       12.2826       4.510723       0.18981
   8     437.6        7.7816        0.0102       11.4776       11.4878       3.706123       0.17203
   7     480.5        7.7967        0.0106       10.7300       10.7406       2.943884       0.14970
   6     533.0        7.8237        0.0112       10.0326       10.0438       2.220059       0.11644
   5     589.8        7.8669        0.0118        9.5050        9.5168       1.649957       0.08462
   4     651.6        7.9368        0.0125        9.0814        9.0939       1.157158       0.06739
   3     718.7        8.0447        0.0134        8.7024        8.7158       0.671155       0.06108
   2     792.3        8.2052        0.0143        8.3379        8.3523       0.147051       0.06011
   1     891.5        0.0196        0.0799        0.0000        0.0799       0.060245       0.00739
   0    1013.0        0.0198        0.0790        0.0000        0.0790       0.059228       0.00007



 Wavenumbers:  6150. -  7700. cm-1, ATM      1
 LEVEL PRESSURE   UPWARD FLUX   DIFDOWN FLUX  DIRDOWN FLUX  DOWNWARD FLUX   NET FLUX    HEATING RATE
          mb          W/m2          W/m2          W/m2        W/m2          W/m2       degree/day
  51    .06700       12.1409        0.0000       30.4684       30.4684      18.327457       0.00000
  50    .07753       12.1409        0.0000       30.4683       30.4683      18.327405       0.04144
  49    .09103       12.1409        0.0000       30.4683       30.4683      18.327339       0.04174
  48    0.1069       12.1409        0.0000       30.4682       30.4682      18.327260       0.04202
  47    0.1255       12.1409        0.0000       30.4681       30.4681      18.327166       0.04227
  46    0.1487       12.1409        0.0000       30.4680       30.4680      18.327045       0.04411
  45    0.1794       12.1409        0.0000       30.4678       30.4678      18.326875       0.04669
  44    0.2165       12.1409        0.0000       30.4676       30.4676      18.326668       0.04715
  43    0.2613       12.1409        0.0000       30.4673       30.4673      18.326416       0.04744
  42    0.3336       12.1409        0.0000       30.4669       30.4669      18.325990       0.04974
  41    0.4307       12.1409        0.0000       30.4663       30.4663      18.325409       0.05052
  40    0.5894       12.1409        0.0001       30.4653       30.4653      18.324441       0.05146
  39     1.339       12.1408        0.0002       30.4604       30.4606      18.319757       0.05273
  38     1.782       12.1408        0.0002       30.4576       30.4578      18.317008       0.05235
  37     2.292       12.1407        0.0003       30.4543       30.4546      18.313849       0.05231
  36     2.964       12.1407        0.0004       30.4501       30.4504      18.309742       0.05156
  35     3.853       12.1406        0.0005       30.4445       30.4450      18.304384       0.05084
  34     5.035       12.1405        0.0006       30.4373       30.4379      18.297385       0.05000
  33     6.613       12.1404        0.0008       30.4278       30.4286      18.288237       0.04890
  32     8.786       12.1402        0.0011       30.4154       30.4165      18.276284       0.04642
  31     11.80       12.1399        0.0014       30.3984       30.3998      18.259898       0.04588
  30     15.07       12.1396        0.0019       30.3810       30.3828      18.243184       0.04315
  29     18.79       12.1393        0.0023       30.3623       30.3646      18.225282       0.04059
  28     23.16       12.1389        0.0028       30.3417       30.3445      18.205597       0.03806
  27     28.12       12.1385        0.0035       30.3196       30.3230      18.184496       0.03587
  26     33.73       12.1381        0.0041       30.2965       30.3006      18.162574       0.03296
  25     40.54       12.1375        0.0050       30.2708       30.2757      18.138233       0.03020
  24     48.69       12.1368        0.0060       30.2423       30.2482      18.111452       0.02771
  23     57.69       12.1360        0.0071       30.2139       30.2209      18.084879       0.02491
  22     68.43       12.1351        0.0084       30.1834       30.1917      18.056595       0.02223
  21     81.20       12.1341        0.0099       30.1500       30.1599      18.025854       0.02031
  20     96.49       12.1328        0.0118       30.1126       30.1244      17.991620       0.01890
  19     114.6       12.1313        0.0140       30.0695       30.0835      17.952210       0.01840
  18     136.5       12.1295        0.0166       30.0139       30.0305      17.901014       0.01969
  17     162.9       12.1274        0.0197       29.9225       29.9422      17.814752       0.02757
  16     196.4       12.1248        0.0237       29.7333       29.7570      17.632172       0.04596
  15     218.7       12.1233        0.0262       29.5259       29.5521      17.428834       0.07720
  14     243.0       12.1218        0.0289       29.1375       29.1664      17.044609       0.13326
  13     269.0       12.1208        0.0315       28.3800       28.4115      16.290699       0.24457
  12     297.5       12.1210        0.0340       27.3895       27.4236      15.302625       0.29305
  11     328.5       12.1230        0.0364       26.2257       26.2622      14.139169       0.31634
  10     361.9       12.1282        0.0387       24.8453       24.8841      12.755850       0.34999
   9     398.1       12.1383        0.0408       23.3471       23.3878      11.249544       0.35094
   8     437.6       12.1563        0.0426       21.7966       21.8392       9.682928       0.33495
   7     480.5       12.1883        0.0442       20.1977       20.2419       8.053587       0.32000
   6     533.0       12.2504        0.0459       18.4969       18.5428       6.292346       0.28333
   5     589.8       12.3541        0.0476       16.9754       17.0230       4.668888       0.24097
   4     651.6       12.5259        0.0493       15.6022       15.6515       3.125557       0.21105
   3     718.7       12.7936        0.0513       14.4232       14.4744       1.680863       0.18156
   2     792.3       13.1966        0.0535       13.4386       13.4921       0.295449       0.15889
   1     891.5        0.0270        0.1106        0.0000        0.1106       0.083672       0.01802
   0    1013.0        0.0273        0.1090        0.0000        0.1090       0.081659       0.00014



 Wavenumbers:  7700. -  8050. cm-1, ATM      1
 LEVEL PRESSURE   UPWARD FLUX   DIFDOWN FLUX  DIRDOWN FLUX  DOWNWARD FLUX   NET FLUX    HEATING RATE
          mb          W/m2          W/m2          W/m2        W/m2          W/m2       degree/day
  51    .06700        5.7237        0.0000        7.2006        7.2006       1.476891       0.00000
  50    .07753        5.7237        0.0000        7.2006        7.2006       1.476870       0.01728
  49    .09103        5.7237        0.0000        7.2005        7.2005       1.476843       0.01693
  48    0.1069        5.7237        0.0000        7.2005        7.2005       1.476811       0.01658
  47    0.1255        5.7237        0.0000        7.2005        7.2005       1.476776       0.01622
  46    0.1487        5.7237        0.0000        7.2004        7.2005       1.476730       0.01646
  45    0.1794        5.7237        0.0000        7.2004        7.2004       1.476669       0.01694
  44    0.2165        5.7237        0.0000        7.2003        7.2003       1.476596       0.01661
  43    0.2613        5.7238        0.0000        7.2003        7.2003       1.476509       0.01630
  42    0.3336        5.7238        0.0000        7.2001        7.2001       1.476366       0.01668
  41    0.4307        5.7238        0.0000        7.2000        7.2000       1.476176       0.01650
  40    0.5894        5.7239        0.0000        7.1997        7.1997       1.475867       0.01648
  39     1.339        5.7241        0.0001        7.1984        7.1985       1.474401       0.01650
  38     1.782        5.7242        0.0001        7.1977        7.1978       1.473540       0.01639
  37     2.292        5.7244        0.0001        7.1968        7.1970       1.472544       0.01650
  36     2.964        5.7246        0.0002        7.1957        7.1959       1.471236       0.01642
  35     3.853        5.7249        0.0002        7.1942        7.1944       1.469509       0.01639
  34     5.035        5.7253        0.0003        7.1922        7.1925       1.467217       0.01638
  33     6.613        5.7258        0.0004        7.1896        7.1900       1.464156       0.01636
  32     8.786        5.7265        0.0005        7.1860        7.1865       1.460037       0.01600
  31     11.80        5.7275        0.0006        7.1810        7.1816       1.454153       0.01647
  30     15.07        5.7285        0.0008        7.1755        7.1764       1.447850       0.01627
  29     18.79        5.7297        0.0010        7.1694        7.1705       1.440747       0.01610
  28     23.16        5.7311        0.0013        7.1623        7.1636       1.432475       0.01600
  27     28.12        5.7327        0.0015        7.1542        7.1558       1.423048       0.01603
  26     33.73        5.7345        0.0018        7.1452        7.1471       1.412541       0.01580
  25     40.54        5.7367        0.0022        7.1344        7.1366       1.399906       0.01567
  24     48.69        5.7394        0.0026        7.1215        7.1242       1.384761       0.01567
  23     57.69        5.7423        0.0031        7.1074        7.1106       1.368236       0.01549
  22     68.43        5.7459        0.0037        7.0909        7.0946       1.348704       0.01536
  21     81.20        5.7501        0.0044        7.0713        7.0757       1.325643       0.01524
  20     96.49        5.7552        0.0052        7.0484        7.0536       1.298453       0.01501
  19     114.6        5.7613        0.0062        7.0217        7.0279       1.266564       0.01489
  18     136.5        5.7686        0.0073        6.9906        6.9979       1.229296       0.01433
  17     162.9        5.7775        0.0087        6.9544        6.9631       1.185615       0.01396
  16     196.4        5.7891        0.0104        6.9087        6.9192       1.130033       0.01399
  15     218.7        5.7969        0.0116        6.8794        6.8910       1.094066       0.01365
  14     243.0        5.8056        0.0128        6.8481        6.8610       1.055390       0.01341
  13     269.0        5.8151        0.0142        6.8147        6.8289       1.013815       0.01349
  12     297.5        5.8256        0.0156        6.7791        6.7947       0.969073       0.01327
  11     328.5        5.8374        0.0172        6.7409        6.7582       0.920743       0.01314
  10     361.9        5.8506        0.0189        6.7002        6.7191       0.868451       0.01323
   9     398.1        5.8655        0.0207        6.6563        6.6770       0.811520       0.01326
   8     437.6        5.8823        0.0227        6.6089        6.6315       0.749212       0.01332
   7     480.5        5.9017        0.0247        6.5570        6.5817       0.680043       0.01358
   6     533.0        5.9276        0.0273        6.4915        6.5188       0.591145       0.01430
   5     589.8        5.9585        0.0300        6.4182        6.4482       0.489781       0.01505
   4     651.6        5.9955        0.0329        6.3359        6.3688       0.373288       0.01593
   3     718.7        6.0397        0.0360        6.2441        6.2801       0.240465       0.01669
   2     792.3        6.0915        0.0392        6.1437        6.1830       0.091453       0.01709
   1     891.5        0.0140        0.0576        0.0000        0.0576       0.043598       0.00407
   0    1013.0        0.0142        0.0567        0.0000        0.0567       0.042482       0.00008



 Wavenumbers:  8050. - 12850. cm-1, ATM      1
 LEVEL PRESSURE   UPWARD FLUX   DIFDOWN FLUX  DIRDOWN FLUX  DOWNWARD FLUX   NET FLUX    HEATING RATE
          mb          W/m2          W/m2          W/m2        W/m2          W/m2       degree/day
  51    .06700       74.5556        0.0000      100.8135      100.8135      26.257872       0.00000
  50    .07753       74.5556        0.0000      100.8135      100.8135      26.257872       0.00000
  49    .09103       74.5556        0.0001      100.8134      100.8135      26.257872      -0.00000
  48    0.1069       74.5556        0.0001      100.8134      100.8135      26.257872      -0.00000
  47    0.1255       74.5556        0.0002      100.8133      100.8134      26.257872       0.00000
  46    0.1487       74.5555        0.0002      100.8132      100.8134      26.257872      -0.00000
  45    0.1794       74.5555        0.0003      100.8131      100.8134      26.257872       0.00000
  44    0.2165       74.5554        0.0004      100.8129      100.8133      26.257872      -0.00000
  43    0.2613       74.5554        0.0005      100.8127      100.8133      26.257872      -0.00000
  42    0.3336       74.5553        0.0007      100.8125      100.8132      26.257872       0.00000
  41    0.4307       74.5552        0.0010      100.8121      100.8130      26.257872       0.00000
  40    0.5894       74.5550        0.0014      100.8115      100.8128      26.257872       0.00000
  39     1.339       74.5540        0.0034      100.8085      100.8119      26.257872      -0.00000
  38     1.782       74.5534        0.0045      100.8068      100.8113      26.257872       0.00000
  37     2.292       74.5528        0.0059      100.8047      100.8106      26.257872       0.00000
  36     2.964       74.5519        0.0077      100.8021      100.8098      26.257872      -0.00000
  35     3.853       74.5508        0.0100      100.7986      100.8086      26.257872       0.00000
  34     5.035       74.5492        0.0131      100.7940      100.8071      26.257872      -0.00000
  33     6.613       74.5472        0.0173      100.7878      100.8051      26.257872       0.00000
  32     8.786       74.5445        0.0229      100.7794      100.8023      26.257872       0.00000
  31     11.80       74.5406        0.0310      100.7674      100.7984      26.257872      -0.00000
  30     15.07       74.5363        0.0397      100.7546      100.7942      26.257872       0.00000
  29     18.79       74.5316        0.0495      100.7400      100.7894      26.257872       0.00000
  28     23.16       74.5260        0.0609      100.7230      100.7839      26.257872      -0.00000
  27     28.12       74.5196        0.0740      100.7035      100.7775      26.257872       0.00000
  26     33.73       74.5125        0.0887      100.6817      100.7703      26.257872       0.00000
  25     40.54       74.5038        0.1065      100.6552      100.7617      26.257872       0.00000
  24     48.69       74.4934        0.1279      100.6234      100.7513      26.257872      -0.00000
  23     57.69       74.4819        0.1515      100.5883      100.7398      26.257872       0.00000
  22     68.43       74.4682        0.1796      100.5464      100.7261      26.257872      -0.00000
  21     81.20       74.4519        0.2132      100.4965      100.7097      26.257872       0.00000
  20     96.49       74.4324        0.2533      100.4370      100.6902      26.257872       0.00000
  19     114.6       74.4094        0.3009      100.3585      100.6594      26.250035       0.00366
  18     136.5       74.3821        0.3575      100.2634      100.6209      26.238769       0.00433
  17     162.9       74.3497        0.4250      100.1407      100.5657      26.215970       0.00729
  16     196.4       74.3078        0.5127       99.9505      100.4632      26.155328       0.01526
  15     218.7       74.2805        0.5703       99.7889      100.3592      26.078753       0.02907
  14     243.0       74.2514        0.6329       99.5472      100.1801      25.928679       0.05205
  13     269.0       74.2221        0.7004       99.1452       99.8456      25.623514       0.09899
  12     297.5       74.1946        0.7729       98.5975       99.3704      25.175819       0.13278
  11     328.5       74.1721        0.8508       97.8659       98.7166      24.544553       0.17164
  10     361.9       74.1594        0.9336       96.8848       97.8184      23.658986       0.22406
   9     398.1       74.1632        1.0213       95.6330       96.6543      22.491141       0.27208
   8     437.6       74.1954        1.1135       94.0655       95.1790      20.983576       0.32233
   7     480.5       74.2799        1.2092       92.0807       93.2900      19.010128       0.38758
   6     533.0       74.4697        1.3229       89.4449       90.7678      16.298101       0.43628
   5     589.8       74.8063        1.4410       86.5544       87.9954      13.189040       0.46149
   4     651.6       75.3750        1.5629       83.4174       84.9803       9.605265       0.49009
   3     718.7       76.2503        1.6895       80.2037       81.8931       5.642812       0.49797
   2     792.3       77.5266        1.8215       77.0811       78.9026       1.375960       0.48936
   1     891.5        0.1827        0.7437        0.0000        0.7437       0.561006       0.06935
   0    1013.0        0.1841        0.7345        0.0000        0.7345       0.550338       0.00074



 Wavenumbers: 12850. - 16000. cm-1, ATM      1
 LEVEL PRESSURE   UPWARD FLUX   DIFDOWN FLUX  DIRDOWN FLUX  DOWNWARD FLUX   NET FLUX    HEATING RATE
          mb          W/m2          W/m2          W/m2        W/m2          W/m2       degree/day
  51    .06700       53.2140        0.0000       63.1686       63.1686       9.954583       0.00000
  50    .07753       53.2140        0.0001       63.1677       63.1678       9.953799       0.62846
  49    .09103       53.2140        0.0001       63.1666       63.1668       9.952821       0.61135
  48    0.1069       53.2139        0.0002       63.1654       63.1656       9.951706       0.59353
  47    0.1255       53.2139        0.0003       63.1640       63.1644       9.950436       0.57572
  46    0.1487       53.2139        0.0005       63.1623       63.1628       9.948849       0.57828
  45    0.1794       53.2139        0.0006       63.1600       63.1606       9.946718       0.58507
  44    0.2165       53.2139        0.0009       63.1573       63.1582       9.944248       0.56187
  43    0.2613       53.2139        0.0011       63.1542       63.1553       9.941392       0.53842
  42    0.3336       53.2140        0.0015       63.1493       63.1508       9.936826       0.53237
  41    0.4307       53.2141        0.0021       63.1431       63.1452       9.931091       0.49862
  40    0.5894       53.2145        0.0030       63.1338       63.1368       9.922349       0.46489
  39     1.339       53.2180        0.0072       63.0956       63.1028       9.884780       0.42295
  38     1.782       53.2216        0.0097       63.0740       63.0838       9.862153       0.43078
  37     2.292       53.2271        0.0126       63.0477       63.0603       9.833160       0.48020
  36     2.964       53.2365        0.0164       63.0095       63.0260       9.789451       0.54869
  35     3.853       53.2519        0.0215       62.9533       62.9747       9.722839       0.63216
  34     5.035       53.2752        0.0281       62.8725       62.9006       9.625409       0.69599
  33     6.613       53.3079        0.0370       62.7621       62.7991       9.491183       0.71757
  32     8.786       53.3503        0.0490       62.6182       62.6672       9.316864       0.67699
  31     11.80       53.4053        0.0660       62.4284       62.4944       9.089099       0.63767
  30     15.07       53.4575        0.0843       62.2426       62.3269       8.869393       0.56724
  29     18.79       53.5105        0.1049       62.0493       62.1542       8.643757       0.51159
  28     23.16       53.5653        0.1290       61.8424       61.9714       8.406101       0.45955
  27     28.12       53.6199        0.1564       61.6278       61.7842       8.164359       0.41094
  26     33.73       53.6692        0.1871       61.4177       61.6047       7.935525       0.34406
  25     40.54       53.7153        0.2241       61.1983       61.4224       7.707060       0.28344
  24     48.69       53.7577        0.2686       60.9680       61.2366       7.478874       0.23614
  23     57.69       53.7916        0.3175       60.7478       61.0653       7.273704       0.19232
  22     68.43       53.8182        0.3757       60.5202       60.8959       7.077706       0.15408
  21     81.20       53.8309        0.4450       60.2938       60.7388       6.907877       0.11222
  20     96.49       53.8287        0.5276       60.0643       60.5919       6.763118       0.07990
  19     114.6       53.8254        0.6264       59.8078       60.4341       6.608745       0.07208
  18     136.5       53.8139        0.7432       59.5157       60.2590       6.445069       0.06294
  17     162.9       53.7934        0.8822       59.1770       60.0592       6.265822       0.05729
  16     196.4       53.7522        1.0620       58.7604       59.8224       6.070198       0.04924
  15     218.7       53.7201        1.1799       58.4948       59.6747       5.954590       0.04389
  14     243.0       53.6830        1.3078       58.2089       59.5167       5.833644       0.04195
  13     269.0       53.6413        1.4462       57.9006       59.3467       5.705484       0.04157
  12     297.5       53.5952        1.5955       57.5668       59.1622       5.567004       0.04107
  11     328.5       53.5470        1.7565       57.2005       58.9570       5.409982       0.04269
  10     361.9       53.4980        1.9294       56.7963       58.7257       5.227772       0.04610
   9     398.1       53.4501        2.1150       56.3475       58.4625       5.012372       0.05018
   8     437.6       53.4073        2.3135       55.8422       58.1558       4.748416       0.05644
   7     480.5       53.3766        2.5252       55.2625       57.7878       4.411149       0.06624
   6     533.0       53.3642        2.7838       54.4972       57.2810       3.916780       0.07953
   5     589.8       53.3833        3.0593       53.6307       56.6900       3.306718       0.09055
   4     651.6       53.4496        3.3510       52.6606       56.0116       2.561977       0.10185
   3     718.7       53.5738        3.6593       51.6100       55.2694       1.695556       0.10889
   2     792.3       53.7700        3.9842       50.5019       54.4861       0.716103       0.11233
   1     891.5        0.5514        0.9997        0.0000        0.9997       0.448356       0.02278
   0    1013.0        0.5532        0.9919        0.0000        0.9919       0.438703       0.00067



 Wavenumbers: 16000. - 22650. cm-1, ATM      1
 LEVEL PRESSURE   UPWARD FLUX   DIFDOWN FLUX  DIRDOWN FLUX  DOWNWARD FLUX   NET FLUX    HEATING RATE
          mb          W/m2          W/m2          W/m2        W/m2          W/m2       degree/day
  51    .06700       88.9053        0.0000      100.7153      100.7153      11.810041       0.00000
  50    .07753       88.9052        0.0003      100.7147      100.7151      11.809917       0.09892
  49    .09103       88.9050        0.0008      100.7140      100.7148      11.809738       0.11220
  48    0.1069       88.9049        0.0013      100.7131      100.7144      11.809498       0.12795
  47    0.1255       88.9048        0.0018      100.7121      100.7139      11.809176       0.14584
  46    0.1487       88.9046        0.0025      100.7108      100.7133      11.808702       0.17282
  45    0.1794       88.9044        0.0035      100.7089      100.7124      11.807960       0.20348
  44    0.2165       88.9043        0.0047      100.7066      100.7112      11.806955       0.22869
  43    0.2613       88.9041        0.0060      100.7037      100.7097      11.805591       0.25709
  42    0.3336       88.9040        0.0083      100.6987      100.7070      11.802998       0.30233
  41    0.4307       88.9040        0.0113      100.6918      100.7031      11.799089       0.33985
  40    0.5894       88.9043        0.0162      100.6797      100.6959      11.791635       0.39640
  39     1.339       88.9123        0.0393      100.6095      100.6488      11.736572       0.61991
  38     1.782       88.9217        0.0530      100.5585      100.6114      11.689678       0.89279
  37     2.292       88.9371        0.0687      100.4903      100.5589      11.621817       1.12396
  36     2.964       88.9642        0.0893      100.3868      100.4761      11.511925       1.37947
  35     3.853       89.0095        0.1166      100.2306      100.3472      11.337665       1.65376
  34     5.035       89.0792        0.1527      100.0045      100.1572      11.077930       1.85544
  33     6.613       89.1773        0.2009       99.6939       99.8948      10.717457       1.92709
  32     8.786       89.3045        0.2657       99.2881       99.5537      10.249243       1.81838
  31     11.80       89.4679        0.3580       98.7496       99.1076       9.639781       1.70630
  30     15.07       89.6217        0.4569       98.2198       98.6767       9.055045       1.50967
  29     18.79       89.7760        0.5682       97.6651       98.2333       8.457334       1.35519
  28     23.16       89.9339        0.6978       97.0671       97.7649       7.831047       1.21104
  27     28.12       90.0882        0.8454       96.4406       97.2860       7.197748       1.07657
  26     33.73       90.2234        1.0101       95.8179       96.8280       6.604635       0.89176
  25     40.54       90.3432        1.2085       95.1548       96.3633       6.020152       0.72512
  24     48.69       90.4455        1.4468       94.4420       95.8888       5.443275       0.59698
  23     57.69       90.5173        1.7076       93.7416       95.4492       4.931935       0.47930
  22     68.43       90.5590        2.0170       92.9954       95.0123       4.453365       0.37622
  21     81.20       90.5488        2.3843       92.2231       94.6075       4.058664       0.26081
  20     96.49       90.4813        2.8202       91.4110       94.2312       3.749834       0.17045
  19     114.6       90.3737        3.3344       90.5070       93.8414       3.467689       0.13174
  18     136.5       90.2283        3.9391       89.4803       93.4193       3.191034       0.10638
  17     162.9       90.0397        4.6524       88.3022       92.9546       2.914905       0.08826
  16     196.4       89.7605        5.5674       86.8606       92.4280       2.667553       0.06226
  15     218.7       89.5653        6.1622       85.9492       92.1114       2.546130       0.04610
  14     243.0       89.3486        6.8033       84.9789       91.7822       2.433652       0.03901
  13     269.0       89.1093        7.4917       83.9493       91.4410       2.331690       0.03308
  12     297.5       88.8470        8.2284       82.8589       91.0873       2.240365       0.02709
  11     328.5       88.5637        9.0160       81.6982       90.7143       2.150570       0.02442
  10     361.9       88.2597        9.8545       80.4669       90.3214       2.061712       0.02248
   9     398.1       87.9346       10.7459       79.1611       89.9070       1.972458       0.02079
   8     437.6       87.5893       11.6908       77.7777       89.4685       1.879207       0.01994
   7     480.5       87.2248       12.6896       76.3136       89.0033       1.778458       0.01979
   6     533.0       86.7852       13.8996       74.5359       88.4355       1.650228       0.02063
   5     589.8       86.3244       15.1800       72.6469       87.8269       1.502565       0.02192
   4     651.6       85.8458       16.5292       70.6456       87.1747       1.328964       0.02374
   3     718.7       85.3506       17.9453       68.5367       86.4820       1.131423       0.02483
   2     792.3       84.8420       19.4233       66.3287       85.7520       0.909972       0.02540
   1     891.5        2.9361        3.7488        0.0000        3.7488       0.812692       0.00828
   0    1013.0        2.9303        3.7343        0.0000        3.7343       0.803994       0.00060



 Wavenumbers: 22650. - 29000. cm-1, ATM      1
 LEVEL PRESSURE   UPWARD FLUX   DIFDOWN FLUX  DIRDOWN FLUX  DOWNWARD FLUX   NET FLUX    HEATING RATE
          mb          W/m2          W/m2          W/m2        W/m2          W/m2       degree/day
  51    .06700       37.6603        0.0000       38.0063       38.0063       0.346030       0.00000
  50    .07753       37.6601        0.0004       38.0057       38.0061       0.346030       0.00000
  49    .09103       37.6599        0.0009       38.0050       38.0059       0.346030       0.00000
  48    0.1069       37.6597        0.0015       38.0042       38.0057       0.346030       0.00000
  47    0.1255       37.6594        0.0021       38.0033       38.0055       0.346030       0.00000
  46    0.1487       37.6591        0.0030       38.0022       38.0051       0.346030       0.00000
  45    0.1794       37.6586        0.0041       38.0006       38.0047       0.346030      -0.00000
  44    0.2165       37.6581        0.0054       37.9987       38.0042       0.346030      -0.00000
  43    0.2613       37.6575        0.0070       37.9965       38.0035       0.346030       0.00000
  42    0.3336       37.6565        0.0096       37.9928       38.0025       0.346030       0.00000
  41    0.4307       37.6551        0.0131       37.9880       38.0011       0.346030       0.00000
  40    0.5894       37.6528        0.0188       37.9800       37.9989       0.346030       0.00000
  39     1.339       37.6422        0.0458       37.9425       37.9882       0.346030      -0.00000
  38     1.782       37.6360        0.0616       37.9204       37.9820       0.346030       0.00000
  37     2.292       37.6288        0.0799       37.8949       37.9748       0.346030       0.00000
  36     2.964       37.6193        0.1039       37.8614       37.9653       0.346030       0.00000
  35     3.853       37.6068        0.1356       37.8172       37.9528       0.346030      -0.00000
  34     5.035       37.5902        0.1777       37.7586       37.9363       0.346030       0.00000
  33     6.613       37.5681        0.2338       37.6803       37.9141       0.346030       0.00000
  32     8.786       37.5383        0.3093       37.5750       37.8844       0.346030      -0.00000
  31     11.80       37.4959        0.4170       37.4249       37.8419       0.346030       0.00000
  30     15.07       37.4504        0.5323       37.2642       37.7965       0.346030       0.00000
  29     18.79       37.3993        0.6620       37.0833       37.7453       0.346030      -0.00000
  28     23.16       37.3398        0.8129       36.8730       37.6859       0.346030       0.00000
  27     28.12       37.2722        0.9844       36.6338       37.6182       0.346030       0.00000
  26     33.73       37.1969        1.1753       36.3677       37.5430       0.346030      -0.00000
  25     40.54       37.1067        1.4041       36.0486       37.4527       0.346030       0.00000
  24     48.69       36.9988        1.6776       35.6672       37.3448       0.346030      -0.00000
  23     57.69       36.8815        1.9749       35.2527       37.2276       0.346030       0.00000
  22     68.43       36.7436        2.3247       34.7649       37.0896       0.346030      -0.00000
  21     81.20       36.5815        2.7353       34.1922       36.9275       0.346030       0.00000
  20     96.49       36.3918        3.2161       33.5217       36.7378       0.346030       0.00000
  19     114.6       36.1712        3.7749       32.7424       36.5172       0.346030       0.00000
  18     136.5       35.9162        4.4206       31.8416       36.2622       0.346030       0.00000
  17     162.9       35.6214        5.1667       30.8008       35.9675       0.346030       0.00000
  16     196.4       35.2531        6.0985       29.5007       35.5992       0.346030       0.00000
  15     218.7       35.0196        6.6889       28.6767       35.3656       0.346030      -0.00000
  14     243.0       34.7730        7.3123       27.8068       35.1190       0.346030       0.00000
  13     269.0       34.5140        7.9667       26.8933       34.8600       0.346030       0.00000
  12     297.5       34.2433        8.6501       25.9393       34.5894       0.346030       0.00000
  11     328.5       33.9612        9.3621       24.9451       34.3072       0.346030      -0.00000
  10     361.9       33.6690       10.0990       23.9160       34.0150       0.346030       0.00000
   9     398.1       33.3673       10.8592       22.8541       33.7133       0.346030       0.00000
   8     437.6       33.0575       11.6391       21.7645       33.4035       0.346030       0.00000
   7     480.5       32.7411       12.4350       20.6521       33.0871       0.346030       0.00000
   6     533.0       32.3723       13.3614       19.3569       32.7183       0.346030       0.00000
   5     589.8       31.9988       14.2981       18.0467       32.3449       0.346030       0.00000
   4     651.6       31.6235       15.2379       16.7316       31.9695       0.346030      -0.00000
   3     718.7       31.2491       16.1737       15.4214       31.5951       0.346030       0.00000
   2     792.3       30.8787       17.0971       14.1276       31.2247       0.346030      -0.00000
   1     891.5        1.2522        1.5926        0.0000        1.5926       0.340337       0.00048
   0    1013.0        1.2404        1.5808        0.0000        1.5808       0.340337       0.00000



 Wavenumbers: 29000. - 38000. cm-1, ATM      1
 LEVEL PRESSURE   UPWARD FLUX   DIFDOWN FLUX  DIRDOWN FLUX  DOWNWARD FLUX   NET FLUX    HEATING RATE
          mb          W/m2          W/m2          W/m2        W/m2          W/m2       degree/day
  51    .06700        5.3898        0.0000       13.4026       13.4026       8.012796       0.00000
  50    .07753        5.3896        0.0003       13.3983       13.3986       8.008997       3.04488
  49    .09103        5.3893        0.0007       13.3921       13.3928       8.003477       3.45023
  48    0.1069        5.3890        0.0011       13.3840       13.3851       7.996099       3.92742
  47    0.1255        5.3887        0.0016       13.3733       13.3749       7.986252       4.46393
  46    0.1487        5.3883        0.0022       13.3579       13.3601       7.971808       5.26529
  45    0.1794        5.3877        0.0031       13.3340       13.3371       7.949404       6.15035
  44    0.2165        5.3870        0.0040       13.3024       13.3064       7.919380       6.83001
  43    0.2613        5.3863        0.0052       13.2604       13.2656       7.879317       7.55153
  42    0.3336        5.3851        0.0071       13.1833       13.1904       7.805296       8.63013
  41    0.4307        5.3836        0.0096       13.0729       13.0825       7.698902       9.25076
  40    0.5894        5.3813        0.0135       12.8796       12.8931       7.511815       9.94905
  39     1.339        5.3734        0.0300       11.9165       11.9465       6.573143      10.56774
  38     1.782        5.3705        0.0384       11.4399       11.4784       6.107881       8.85784
  37     2.292        5.3685        0.0475       10.9796       11.0271       5.658549       7.44211
  36     2.964        5.3679        0.0586       10.4786       10.5372       5.169281       6.14179
  35     3.853        5.3698        0.0723        9.9429       10.0152       4.645424       4.97150
  34     5.035        5.3750        0.0895        9.4007        9.4902       4.115213       3.78761
  33     6.613        5.3837        0.1113        8.8752        8.9865       3.602775       2.73949
  32     8.786        5.3956        0.1394        8.3786        8.5180       3.122377       1.86569
  31     11.80        5.4105        0.1781        7.8897        8.0677       2.657223       1.30229
  30     15.07        5.4239        0.2180        7.5108        7.7288       2.304894       0.90964
  29     18.79        5.4369        0.2615        7.1776        7.4391       2.002255       0.68617
  28     23.16        5.4496        0.3106        6.8664        7.1770       1.727467       0.53135
  27     28.12        5.4611        0.3649        6.5780        6.9429       1.481862       0.41751
  26     33.73        5.4687        0.4242        6.3195        6.7436       1.274915       0.31115
  25     40.54        5.4717        0.4941        6.0663        6.5604       1.088714       0.23100
  24     48.69        5.4695        0.5762        5.8128        6.3890       0.919552       0.17506
  23     57.69        5.4615        0.6638        5.5777        6.2415       0.780059       0.13075
  22     68.43        5.4460        0.7654        5.3379        6.1033       0.657351       0.09647
  21     81.20        5.4184        0.8835        5.0965        5.9799       0.561555       0.06330
  20     96.49        5.3776        1.0200        4.8476        5.8676       0.490009       0.03949
  19     114.6        5.3273        1.1750        4.5799        5.7548       0.427540       0.02917
  18     136.5        5.2688        1.3485        4.2891        5.6376       0.368785       0.02259
  17     162.9        5.2022        1.5416        3.9732        5.5148       0.312544       0.01798
  16     196.4        5.1175        1.7737        3.6080        5.3817       0.264234       0.01216
  15     218.7        5.0642        1.9155        3.3898        5.3053       0.241132       0.00877
  14     243.0        5.0090        2.0606        3.1686        5.2291       0.220100       0.00729
  13     269.0        4.9523        2.2077        2.9461        5.1538       0.201478       0.00604
  12     297.5        4.8946        2.3559        2.7239        5.0799       0.185298       0.00480
  11     328.5        4.8367        2.5038        2.5029        5.0067       0.170031       0.00415
  10     361.9        4.7791        2.6502        2.2846        4.9348       0.155703       0.00363
   9     398.1        4.7224        2.7940        2.0708        4.8647       0.142311       0.00312
   8     437.6        4.6670        2.9340        1.8626        4.7966       0.129572       0.00272
   7     480.5        4.6135        3.0690        1.6621        4.7311       0.117627       0.00235
   6     533.0        4.5550        3.2161        1.4437        4.6597       0.104766       0.00207
   5     589.8        4.5002        3.3537        1.2390        4.5927       0.092463       0.00183
   4     651.6        4.4498        3.4804        1.0500        4.5304       0.080551       0.00163
   3     718.7        4.4043        3.5955        0.8778        4.4733       0.068990       0.00145
   2     792.3        4.3639        3.6979        0.7237        4.4217       0.057757       0.00129
   1     891.5        0.1853        0.2359        0.0000        0.2359       0.050576       0.00061
   0    1013.0        0.1820        0.2319        0.0000        0.2319       0.049936       0.00004



 Wavenumbers: 38000. - 50000. cm-1, ATM      1
 LEVEL PRESSURE   UPWARD FLUX   DIFDOWN FLUX  DIRDOWN FLUX  DOWNWARD FLUX   NET FLUX    HEATING RATE
          mb          W/m2          W/m2          W/m2        W/m2          W/m2       degree/day
  51    .06700        0.0051        0.0000        0.8267        0.8267       0.821528       0.00000
  50    .07753        0.0051        0.0001        0.8242        0.8243       0.819196       1.86936
  49    .09103        0.0050        0.0002        0.8207        0.8209       0.815872       2.07705
  48    0.1069        0.0049        0.0002        0.8162        0.8164       0.811514       2.31984
  47    0.1255        0.0048        0.0004        0.8103        0.8106       0.805801       2.59006
  46    0.1487        0.0047        0.0005        0.8018        0.8023       0.797567       3.00143
  45    0.1794        0.0045        0.0007        0.7889        0.7896       0.785013       3.44648
  44    0.2165        0.0044        0.0009        0.7720        0.7729       0.768507       3.75474
  43    0.2613        0.0042        0.0011        0.7500        0.7511       0.746955       4.06246
  42    0.3336        0.0039        0.0015        0.7106        0.7121       0.708267       4.51071
  41    0.4307        0.0035        0.0019        0.6566        0.6584       0.654972       4.63387
  40    0.5894        0.0029        0.0024        0.5680        0.5704       0.567464       4.65357
  39     1.339        0.0015        0.0030        0.2422        0.2452       0.243720       3.64476
  38     1.782        0.0010        0.0026        0.1493        0.1519       0.150889       1.76735
  37     2.292        0.0007        0.0022        0.0924        0.0946       0.093932       0.94336
  36     2.964        0.0005        0.0018        0.0539        0.0557       0.055224       0.48589
  35     3.853        0.0003        0.0013        0.0295        0.0308       0.030502       0.23462
  34     5.035        0.0002        0.0010        0.0154        0.0164       0.016181       0.10230
  33     6.613        0.0001        0.0007        0.0073        0.0080       0.007912       0.04420
  32     8.786        0.0000        0.0004        0.0030        0.0034       0.003390       0.01756
  31     11.80        0.0000        0.0003        0.0010        0.0012       0.001199       0.00613
  30     15.07        0.0000        0.0001        0.0003        0.0005       0.000463       0.00190
  29     18.79        0.0000        0.0001        0.0001        0.0002       0.000182       0.00064
  28     23.16        0.0000        0.0000        0.0000        0.0001       0.000071       0.00022
  27     28.12        0.0000        0.0000        0.0000        0.0000       0.000028       0.00007
  26     33.73        0.0000        0.0000        0.0000        0.0000       0.000011       0.00002
  25     40.54        0.0000        0.0000        0.0000        0.0000       0.000005       0.00001
  24     48.69        0.0000        0.0000        0.0000        0.0000       0.000002       0.00000
  23     57.69        0.0000        0.0000        0.0000        0.0000       0.000001       0.00000
  22     68.43        0.0000        0.0000        0.0000        0.0000       0.000000       0.00000
  21     81.20        0.0000        0.0000        0.0000        0.0000       0.000000       0.00000
  20     96.49        0.0000        0.0000        0.0000        0.0000       0.000000       0.00000
  19     114.6        0.0000        0.0000        0.0000        0.0000       0.000000       0.00000
  18     136.5        0.0000        0.0000        0.0000        0.0000       0.000000       0.00000
  17     162.9        0.0000        0.0000        0.0000        0.0000       0.000000       0.00000
  16     196.4        0.0000        0.0000        0.0000        0.0000       0.000000       0.00000
  15     218.7        0.0000        0.0000        0.0000        0.0000       0.000000       0.00000
  14     243.0        0.0000        0.0000        0.0000        0.0000       0.000000       0.00000
  13     269.0        0.0000        0.0000        0.0000        0.0000       0.000000       0.00000
  12     297.5        0.0000        0.0000        0.0000        0.0000       0.000000       0.00000
  11     328.5        0.0000        0.0000        0.0000        0.0000       0.000000       0.00000
  10     361.9        0.0000        0.0000        0.0000        0.0000       0.000000       0.00000
   9     398.1        0.0000        0.0000        0.0000        0.0000       0.000000       0.00000
   8     437.6        0.0000        0.0000        0.0000        0.0000       0.000000       0.00000
   7     480.5        0.0000        0.0000        0.0000        0.0000       0.000000       0.00000
   6     533.0        0.0000        0.0000        0.0000        0.0000       0.000000       0.00000
   5     589.8        0.0000        0.0000        0.0000        0.0000       0.000000       0.00000
   4     651.6        0.0000        0.0000        0.0000        0.0000       0.000000       0.00000
   3     718.7        0.0000        0.0000        0.0000        0.0000       0.000000       0.00000
   2     792.3        0.0000        0.0000        0.0000        0.0000       0.000000       0.00000
   1     891.5        0.0000        0.0000        0.0000        0.0000       0.000000       0.00000
   0    1013.0        0.0000        0.0000        0.0000        0.0000       0.000000       0.00000



 Wavenumbers:   820. -  2600. cm-1, ATM      1
 LEVEL PRESSURE   UPWARD FLUX   DIFDOWN FLUX  DIRDOWN FLUX  DOWNWARD FLUX   NET FLUX    HEATING RATE
          mb          W/m2          W/m2          W/m2        W/m2          W/m2       degree/day
  51    .06700        0.9511        0.0000        3.8670        3.8670       2.915953       0.00000
  50    .07753        0.9511        0.0000        3.8643        3.8643       2.913236       2.17772
  49    .09103        0.9511        0.0000        3.8635        3.8635       2.912426       0.50640
  48    0.1069        0.9511        0.0000        3.8626        3.8626       2.911535       0.47417
  47    0.1255        0.9511        0.0000        3.8616        3.8616       2.910574       0.43561
  46    0.1487        0.9511        0.0000        3.8605        3.8605       2.909464       0.40439
  45    0.1794        0.9511        0.0000        3.8592        3.8592       2.908129       0.36650
  44    0.2165        0.9511        0.0000        3.8578        3.8578       2.906751       0.31348
  43    0.2613        0.9511        0.0000        3.8564        3.8564       2.905291       0.27524
  42    0.3336        0.9511        0.0000        3.8541        3.8541       2.903060       0.26015
  41    0.4307        0.9511        0.0000        3.8512        3.8512       2.900177       0.25066
  40    0.5894        0.9511        0.0000        3.8465        3.8465       2.895450       0.25136
  39     1.339        0.9511        0.0000        3.8251        3.8251       2.874072       0.24067
  38     1.782        0.9511        0.0000        3.8133        3.8133       2.862258       0.22492
  37     2.292        0.9511        0.0000        3.8003        3.8003       2.849195       0.21636
  36     2.964        0.9511        0.0000        3.7841        3.7841       2.833064       0.20250
  35     3.853        0.9511        0.0000        3.7642        3.7642       2.813146       0.18902
  34     5.035        0.9511        0.0000        3.7395        3.7395       2.788451       0.17641
  33     6.613        0.9511        0.0000        3.7090        3.7090       2.757910       0.16327
  32     8.786        0.9511        0.0000        3.6726        3.6726       2.721509       0.14137
  31     11.80        0.9511        0.0000        3.6320        3.6320       2.680903       0.11368
  30     15.07        0.9511        0.0000        3.6016        3.6016       2.650507       0.07848
  29     18.79        0.9511        0.0000        3.5777        3.5777       2.626595       0.05422
  28     23.16        0.9512        0.0000        3.5564        3.5564       2.605224       0.04132
  27     28.12        0.9512        0.0000        3.5348        3.5348       2.583659       0.03666
  26     33.73        0.9512        0.0000        3.5118        3.5118       2.560603       0.03466
  25     40.54        0.9512        0.0000        3.4849        3.4849       2.533687       0.03339
  24     48.69        0.9513        0.0000        3.4537        3.4537       2.502401       0.03238
  23     57.69        0.9513        0.0000        3.4210        3.4210       2.469690       0.03066
  22     68.43        0.9514        0.0000        3.3844        3.3844       2.433059       0.02880
  21     81.20        0.9514        0.0000        3.3441        3.3441       2.392706       0.02666
  20     96.49        0.9515        0.0000        3.2998        3.2998       2.348274       0.02452
  19     114.6        0.9516        0.0000        3.2506        3.2507       2.299044       0.02299
  18     136.5        0.9517        0.0000        3.1936        3.1936       2.241877       0.02198
  17     162.9        0.9520        0.0000        3.1181        3.1181       2.166175       0.02420
  16     196.4        0.9524        0.0000        3.0090        3.0090       2.056603       0.02758
  15     218.7        0.9527        0.0000        2.9420        2.9420       1.989314       0.02555
  14     243.0        0.9532        0.0000        2.8605        2.8605       1.907336       0.02843
  13     269.0        0.9539        0.0000        2.7419        2.7420       1.788057       0.03869
  12     297.5        0.9552        0.0000        2.5729        2.5729       1.617703       0.05053
  11     328.5        0.9572        0.0000        2.3602        2.3602       1.403015       0.05837
  10     361.9        0.9602        0.0000        2.1524        2.1524       1.192203       0.05334
   9     398.1        0.9645        0.0000        1.9974        1.9974       1.032893       0.03712
   8     437.6        0.9705        0.0000        1.8835        1.8835       0.912998       0.02563
   7     480.5        0.9791        0.0000        1.7734        1.7735       0.794397       0.02329
   6     533.0        0.9930        0.0000        1.6397        1.6398       0.646779       0.02375
   5     589.8        1.0129        0.0000        1.5068        1.5069       0.493918       0.02269
   4     651.6        1.0424        0.0000        1.3807        1.3807       0.338322       0.02128
   3     718.7        1.0819        0.0000        1.2680        1.2681       0.186196       0.01912
   2     792.3        1.1316        0.0000        1.1659        1.1660       0.034434       0.01741
   1     891.5        0.0009        0.0044        0.0000        0.0044       0.003456       0.00264
   0    1013.0        0.0010        0.0041        0.0000        0.0041       0.003040       0.00003

  Modules and versions used in this calculation:

       rrtmg_sw.1col.f90:  $Revision$                    rrtmg_sw_init.f90:  $Revision$        
     rrtmgsw_cldprop.f90:  $Revision$                  rrtmgsw_cldprmc.f90:  NOT USED          
     rrtmg_sw_reftra.f90:  $Revision$                  rrtmg_sw_spcvrt.f90:  NOT USED          
     rrtmg_sw_spcvmc.f90:  NOT USED                    rrtmgsw_setcoef.f90:  NOT USED          
     rrtmg_sw_taumol.f90:  $Revision$                  rrtmg_sw_vrtqdr.f90:  NOT USED          
                rrtatm.f:  NOT USED                             util_xxx.f:  NOT USED          
                 extra.f:  NOT USED                       rrtmg_sw_k_g.f90:  $Revision$        

