

 Wavenumbers:   820. - 50000. cm-1, ATM      1
 LEVEL PRESSURE   UPWARD FLUX   DIFDOWN FLUX  DIRDOWN FLUX  DOWNWARD FLUX   NET FLUX    HEATING RATE
          mb          W/m2          W/m2          W/m2        W/m2          W/m2       degree/day
  51    .06700      282.3736        0.0000      397.8738      397.8738     115.500223       0.00000
  50    .07753      282.3730        0.0012      397.8577      397.8589     115.485928      11.45785
  49    .09103      282.3723        0.0027      397.8418      397.8445     115.472234       8.55924
  48    0.1069      282.3715        0.0044      397.8230      397.8273     115.455879       8.70602
  47    0.1255      282.3706        0.0063      397.7997      397.8060     115.435426       9.27206
  46    0.1487      282.3695        0.0088      397.7676      397.7764     115.406955      10.37803
  45    0.1794      282.3681        0.0122      397.7205      397.7327     115.364642      11.61587
  44    0.2165      282.3664        0.0162      397.6602      397.6764     115.309967      12.43777
  43    0.2613      282.3646        0.0209      397.5829      397.6038     115.239133      13.35180
  42    0.3336      282.3618        0.0286      397.4449      397.4735     115.111627      14.86603
  41    0.4307      282.3584        0.0387      397.2524      397.2911     114.932657      15.56103
  40    0.5894      282.3535        0.0550      396.9253      396.9803     114.626750      16.26774
  39     1.339      282.3426        0.1279      395.4254      395.5532     113.210654      15.94266
  38     1.782      282.3442        0.1687      394.7288      394.8975     112.553266      12.51562
  37     2.292      282.3534        0.2153      394.0572      394.2724     111.919054      10.50421
  36     2.964      282.3761        0.2757      393.3007      393.5764     111.200312       9.02238
  35     3.853      282.4209        0.3547      392.4318      392.7865     110.365592       7.92165
  34     5.035      282.4952        0.4587      391.4441      391.9028     109.407550       6.84385
  33     6.613      282.6025        0.5965      390.3268      390.9232     108.320683       5.81039
  32     8.786      282.7411        0.7807      389.0624      389.8431     107.102010       4.73289
  31     11.80      282.9142        1.0423      387.5500      388.5923     105.678140       3.98639
  30     15.07      283.0704        1.3209      386.1556      387.4765     104.406124       3.28410
  29     18.79      283.2206        1.6332      384.7502      386.3834     103.162835       2.81892
  28     23.16      283.3657        1.9951      383.2686      385.2638     101.898105       2.44558
  27     28.12      283.4961        2.4057      381.7329      384.1386     100.642496       2.13445
  26     33.73      283.5902        2.8620      380.1982      383.0601      99.469904       1.76302
  25     40.54      283.6438        3.4092      378.5384      381.9476      98.303787       1.44670
  24     48.69      283.6508        4.0633      376.7214      380.7848      97.133926       1.21062
  23     57.69      283.6033        4.7752      374.8959      379.6711      96.067818       0.99932
  22     68.43      283.4875        5.6148      372.8999      378.5147      95.027231       0.81804
  21     81.20      283.2676        6.6046      370.7496      377.3542      94.086650       0.62152
  20     96.49      282.9317        7.7696      368.4056      376.1752      93.243488       0.46536
  19     114.6      282.5091        9.1310      365.7513      374.8823      92.373164       0.40638
  18     136.5      281.9920       10.7130      362.7231      373.4361      91.444122       0.35724
  17     162.9      281.3677       12.5534      359.1748      371.7282      90.360473       0.34638
  16     196.4      280.5281       14.8757      354.5718      369.4475      88.919401       0.36273
  15     218.7      279.9723       16.3622      351.4437      367.8059      87.833607       0.41224
  14     243.0      279.3738       17.9444      347.7111      365.6555      86.281683       0.53826
  13     269.0      278.7359       19.6206      342.9441      362.5647      83.828854       0.79569
  12     297.5      278.0630       21.3889      337.4137      358.8026      80.739590       0.91624
  11     328.5      277.3653       23.2513      331.1302      354.3815      77.016253       1.01236
  10     361.9      276.6535       25.2023      324.1219      349.3242      72.670691       1.09947
   9     398.1      275.9400       27.2418      316.6066      343.8484      67.908353       1.10952
   8     437.6      275.2489       29.3653      308.5895      337.9548      62.705880       1.11232
   7     480.5      274.6245       31.5673      299.9349      331.5022      56.877711       1.14463
   6     533.0      274.0468       34.1793      289.7021      323.8815      49.834683       1.13300
   5     589.8      273.7007       36.8799      279.3388      316.2187      42.517987       1.08604
   4     651.6      273.7406       39.6571      268.7786      308.4357      34.695147       1.06979
   3     718.7      274.2996       42.5026      258.2837      300.7863      26.486714       1.03157
   2     792.3      275.5535       45.4026      248.0774      293.4800      17.926494       0.98176
   1     891.5       27.5844       42.6695        0.0000       42.6695      15.085089       0.24179
   0    1013.0       27.5500       42.2077        0.0000       42.2077      14.657785       0.02967



 Wavenumbers:  2600. -  3250. cm-1, ATM      1
 LEVEL PRESSURE   UPWARD FLUX   DIFDOWN FLUX  DIRDOWN FLUX  DOWNWARD FLUX   NET FLUX    HEATING RATE
          mb          W/m2          W/m2          W/m2        W/m2          W/m2       degree/day
  51    .06700        1.2019        0.0000        3.5066        3.5066       2.304766       0.00000
  50    .07753        1.2019        0.0000        3.5066        3.5066       2.304758       0.00640
  49    .09103        1.2019        0.0000        3.5066        3.5066       2.304748       0.00627
  48    0.1069        1.2019        0.0000        3.5066        3.5066       2.304737       0.00613
  47    0.1255        1.2019        0.0000        3.5066        3.5066       2.304723       0.00599
  46    0.1487        1.2019        0.0000        3.5066        3.5066       2.304707       0.00607
  45    0.1794        1.2019        0.0000        3.5065        3.5065       2.304684       0.00624
  44    0.2165        1.2019        0.0000        3.5065        3.5065       2.304657       0.00611
  43    0.2613        1.2019        0.0000        3.5065        3.5065       2.304625       0.00598
  42    0.3336        1.2019        0.0000        3.5064        3.5064       2.304573       0.00615
  41    0.4307        1.2019        0.0000        3.5064        3.5064       2.304502       0.00618
  40    0.5894        1.2019        0.0000        3.5062        3.5062       2.304383       0.00633
  39     1.339        1.2019        0.0000        3.5055        3.5055       2.303684       0.00787
  38     1.782        1.2019        0.0000        3.5050        3.5050       2.303153       0.01011
  37     2.292        1.2019        0.0000        3.5043        3.5043       2.302460       0.01147
  36     2.964        1.2019        0.0000        3.5033        3.5033       2.301469       0.01245
  35     3.853        1.2019        0.0000        3.5019        3.5019       2.300092       0.01307
  34     5.035        1.2019        0.0000        3.5001        3.5001       2.298231       0.01329
  33     6.613        1.2019        0.0000        3.4977        3.4977       2.295821       0.01288
  32     8.786        1.2019        0.0000        3.4947        3.4947       2.292850       0.01154
  31     11.80        1.2019        0.0000        3.4911        3.4911       2.289213       0.01018
  30     15.07        1.2019        0.0000        3.4878        3.4878       2.285991       0.00832
  29     18.79        1.2019        0.0000        3.4848        3.4848       2.282926       0.00695
  28     23.16        1.2019        0.0000        3.4816        3.4816       2.279703       0.00623
  27     28.12        1.2019        0.0000        3.4779        3.4779       2.276082       0.00616
  26     33.73        1.2019        0.0000        3.4735        3.4735       2.271610       0.00672
  25     40.54        1.2019        0.0000        3.4671        3.4672       2.265275       0.00786
  24     48.69        1.2019        0.0000        3.4582        3.4583       2.256367       0.00922
  23     57.69        1.2019        0.0000        3.4472        3.4472       2.245301       0.01037
  22     68.43        1.2019        0.0000        3.4329        3.4330       2.231015       0.01123
  21     81.20        1.2020        0.0000        3.4152        3.4152       2.213248       0.01174
  20     96.49        1.2020        0.0000        3.3940        3.3941       2.192050       0.01170
  19     114.6        1.2021        0.0000        3.3692        3.3692       2.167084       0.01166
  18     136.5        1.2022        0.0001        3.3419        3.3420       2.139756       0.01051
  17     162.9        1.2024        0.0001        3.3129        3.3129       2.110515       0.00935
  16     196.4        1.2028        0.0001        3.2793        3.2794       2.076640       0.00853
  15     218.7        1.2031        0.0001        3.2578        3.2579       2.054730       0.00832
  14     243.0        1.2037        0.0001        3.2320        3.2321       2.028397       0.00913
  13     269.0        1.2045        0.0001        3.1968        3.1969       1.992399       0.01168
  12     297.5        1.2059        0.0001        3.1489        3.1491       1.943161       0.01460
  11     328.5        1.2080        0.0001        3.0821        3.0822       1.874222       0.01874
  10     361.9        1.2110        0.0001        2.9902        2.9904       1.779358       0.02400
   9     398.1        1.2154        0.0001        2.8715        2.8716       1.656203       0.02869
   8     437.6        1.2218        0.0002        2.7276        2.7278       1.505992       0.03212
   7     480.5        1.2314        0.0002        2.5595        2.5597       1.328250       0.03491
   6     533.0        1.2477        0.0002        2.3617        2.3619       1.114185       0.03444
   5     589.8        1.2718        0.0002        2.1649        2.1651       0.893318       0.03278
   4     651.6        1.3078        0.0002        1.9608        1.9609       0.653163       0.03284
   3     718.7        1.3597        0.0002        1.7593        1.7595       0.399842       0.03184
   2     792.3        1.4329        0.0002        1.5761        1.5762       0.143339       0.02942
   1     891.5        0.0183        0.0855        0.0000        0.0855       0.067254       0.00647
   0    1013.0        0.0197        0.0787        0.0000        0.0787       0.058934       0.00058



 Wavenumbers:  3250. -  4000. cm-1, ATM      1
 LEVEL PRESSURE   UPWARD FLUX   DIFDOWN FLUX  DIRDOWN FLUX  DOWNWARD FLUX   NET FLUX    HEATING RATE
          mb          W/m2          W/m2          W/m2        W/m2          W/m2       degree/day
  51    .06700        0.0114        0.0000        5.9117        5.9117       5.900263       0.00000
  50    .07753        0.0114        0.0000        5.9075        5.9075       5.896073       3.35808
  49    .09103        0.0114        0.0000        5.9050        5.9050       5.893631       1.52677
  48    0.1069        0.0114        0.0000        5.9032        5.9032       5.891764       0.99346
  47    0.1255        0.0114        0.0000        5.9014        5.9014       5.890006       0.79708
  46    0.1487        0.0114        0.0000        5.8995        5.8995       5.888117       0.68848
  45    0.1794        0.0114        0.0000        5.8974        5.8974       5.885969       0.58983
  44    0.2165        0.0114        0.0000        5.8952        5.8952       5.883852       0.48155
  43    0.2613        0.0114        0.0000        5.8931        5.8931       5.881693       0.40696
  42    0.3336        0.0114        0.0000        5.8899        5.8899       5.878535       0.36820
  41    0.4307        0.0114        0.0000        5.8861        5.8861       5.874698       0.33365
  40    0.5894        0.0114        0.0000        5.8803        5.8803       5.868895       0.30857
  39     1.339        0.0114        0.0000        5.8597        5.8597       5.848297       0.23189
  38     1.782        0.0114        0.0000        5.8513        5.8513       5.839873       0.16039
  37     2.292        0.0114        0.0000        5.8431        5.8431       5.831702       0.13533
  36     2.964        0.0114        0.0000        5.8334        5.8334       5.822062       0.12100
  35     3.853        0.0114        0.0000        5.8213        5.8213       5.809887       0.11555
  34     5.035        0.0114        0.0000        5.8052        5.8052       5.793791       0.11498
  33     6.613        0.0114        0.0000        5.7833        5.7834       5.771970       0.11666
  32     8.786        0.0114        0.0000        5.7531        5.7531       5.741769       0.11729
  31     11.80        0.0114        0.0000        5.7090        5.7090       5.697600       0.12366
  30     15.07        0.0114        0.0000        5.6615        5.6615       5.650135       0.12254
  29     18.79        0.0114        0.0000        5.6093        5.6094       5.598000       0.11821
  28     23.16        0.0114        0.0000        5.5524        5.5524       5.541074       0.11008
  27     28.12        0.0114        0.0000        5.4935        5.4935       5.482195       0.10009
  26     33.73        0.0113        0.0000        5.4348        5.4349       5.423506       0.08824
  25     40.54        0.0113        0.0001        5.3707        5.3708       5.359444       0.07948
  24     48.69        0.0113        0.0001        5.2985        5.2985       5.287211       0.07475
  23     57.69        0.0113        0.0001        5.2215        5.2216       5.210272       0.07212
  22     68.43        0.0113        0.0001        5.1318        5.1319       5.120612       0.07048
  21     81.20        0.0113        0.0001        5.0284        5.0285       5.017183       0.06834
  20     96.49        0.0113        0.0001        4.9122        4.9123       4.901049       0.06410
  19     114.6        0.0112        0.0001        4.7780        4.7782       4.766937       0.06262
  18     136.5        0.0112        0.0002        4.6285        4.6287       4.617459       0.05748
  17     162.9        0.0112        0.0002        4.4406        4.4407       4.429546       0.06006
  16     196.4        0.0112        0.0002        4.1548        4.1550       4.143871       0.07191
  15     218.7        0.0111        0.0002        3.9564        3.9566       3.945488       0.07532
  14     243.0        0.0111        0.0002        3.7055        3.7058       3.694648       0.08700
  13     269.0        0.0111        0.0002        3.3399        3.3401       3.328994       0.11862
  12     297.5        0.0111        0.0002        2.8954        2.8956       2.884473       0.13184
  11     328.5        0.0112        0.0002        2.4388        2.4390       2.427869       0.12415
  10     361.9        0.0113        0.0002        2.0269        2.0271       2.015813       0.10425
   9     398.1        0.0115        0.0002        1.6753        1.6755       1.664021       0.08196
   8     437.6        0.0118        0.0002        1.3592        1.3594       1.347546       0.06766
   7     480.5        0.0125        0.0002        1.0616        1.0618       1.049319       0.05857
   6     533.0        0.0138        0.0001        0.7543        0.7544       0.740656       0.04965
   5     589.8        0.0162        0.0001        0.4951        0.4952       0.479014       0.03884
   4     651.6        0.0210        0.0001        0.2943        0.2943       0.273346       0.02813
   3     718.7        0.0304        0.0001        0.1528        0.1529       0.122461       0.01896
   2     792.3        0.0497        0.0000        0.0658        0.0658       0.016182       0.01219
   1     891.5        0.0000        0.0003        0.0000        0.0003       0.000297       0.00135
   0    1013.0        0.0000        0.0001        0.0000        0.0001       0.000054       0.00002



 Wavenumbers:  4000. -  4650. cm-1, ATM      1
 LEVEL PRESSURE   UPWARD FLUX   DIFDOWN FLUX  DIRDOWN FLUX  DOWNWARD FLUX   NET FLUX    HEATING RATE
          mb          W/m2          W/m2          W/m2        W/m2          W/m2       degree/day
  51    .06700        4.2494        0.0000        6.9421        6.9421       2.692636       0.00000
  50    .07753        4.2494        0.0000        6.9421        6.9421       2.692635       0.00079
  49    .09103        4.2494        0.0000        6.9421        6.9421       2.692634       0.00078
  48    0.1069        4.2494        0.0000        6.9421        6.9421       2.692632       0.00076
  47    0.1255        4.2494        0.0000        6.9421        6.9421       2.692631       0.00074
  46    0.1487        4.2494        0.0000        6.9421        6.9421       2.692629       0.00075
  45    0.1794        4.2494        0.0000        6.9421        6.9421       2.692626       0.00077
  44    0.2165        4.2494        0.0000        6.9421        6.9421       2.692622       0.00076
  43    0.2613        4.2494        0.0000        6.9420        6.9420       2.692619       0.00074
  42    0.3336        4.2494        0.0000        6.9420        6.9420       2.692612       0.00076
  41    0.4307        4.2494        0.0000        6.9420        6.9420       2.692603       0.00077
  40    0.5894        4.2494        0.0000        6.9420        6.9420       2.692588       0.00079
  39     1.339        4.2494        0.0000        6.9419        6.9419       2.692499       0.00100
  38     1.782        4.2494        0.0000        6.9418        6.9419       2.692430       0.00132
  37     2.292        4.2494        0.0000        6.9418        6.9418       2.692336       0.00155
  36     2.964        4.2494        0.0000        6.9416        6.9416       2.692197       0.00175
  35     3.853        4.2494        0.0000        6.9414        6.9414       2.691990       0.00196
  34     5.035        4.2494        0.0000        6.9411        6.9411       2.691685       0.00218
  33     6.613        4.2494        0.0000        6.9406        6.9407       2.691237       0.00240
  32     8.786        4.2494        0.0000        6.9399        6.9400       2.690576       0.00257
  31     11.80        4.2494        0.0001        6.9389        6.9389       2.689540       0.00290
  30     15.07        4.2494        0.0001        6.9377        6.9377       2.688327       0.00313
  29     18.79        4.2494        0.0001        6.9362        6.9363       2.686865       0.00332
  28     23.16        4.2494        0.0001        6.9343        6.9345       2.685055       0.00350
  27     28.12        4.2494        0.0001        6.9321        6.9323       2.682873       0.00371
  26     33.73        4.2494        0.0002        6.9294        6.9296       2.680194       0.00403
  25     40.54        4.2494        0.0002        6.9258        6.9260       2.676579       0.00449
  24     48.69        4.2494        0.0002        6.9210        6.9212       2.671788       0.00496
  23     57.69        4.2495        0.0003        6.9154        6.9156       2.666147       0.00529
  22     68.43        4.2495        0.0003        6.9083        6.9086       2.659124       0.00552
  21     81.20        4.2496        0.0004        6.8998        6.9001       2.650522       0.00568
  20     96.49        4.2498        0.0004        6.8894        6.8899       2.640114       0.00574
  19     114.6        4.2500        0.0005        6.8765        6.8770       2.627051       0.00610
  18     136.5        4.2503        0.0006        6.8610        6.8616       2.611247       0.00608
  17     162.9        4.2509        0.0007        6.8417        6.8424       2.591509       0.00631
  16     196.4        4.2518        0.0009        6.8147        6.8155       2.563691       0.00700
  15     218.7        4.2527        0.0010        6.7948        6.7958       2.543109       0.00781
  14     243.0        4.2539        0.0011        6.7698        6.7708       2.516903       0.00909
  13     269.0        4.2559        0.0012        6.7349        6.7360       2.480091       0.01194
  12     297.5        4.2589        0.0013        6.6869        6.6882       2.429225       0.01509
  11     328.5        4.2632        0.0014        6.6194        6.6208       2.357623       0.01947
  10     361.9        4.2688        0.0016        6.5295        6.5310       2.262231       0.02414
   9     398.1        4.2762        0.0017        6.4202        6.4219       2.145701       0.02715
   8     437.6        4.2862        0.0018        6.2962        6.2980       2.011834       0.02862
   7     480.5        4.3001        0.0020        6.1555        6.1575       1.857385       0.03033
   6     533.0        4.3230        0.0022        5.9675        5.9697       1.646706       0.03389
   5     589.8        4.3568        0.0023        5.7368        5.7391       1.382245       0.03925
   4     651.6        4.4076        0.0025        5.4662        5.4687       1.061118       0.04392
   3     718.7        4.4806        0.0027        5.1912        5.1938       0.713247       0.04372
   2     792.3        4.5826        0.0028        4.9395        4.9423       0.359733       0.04054
   1     891.5        0.0761        0.3245        0.0000        0.3245       0.248438       0.00947
   0    1013.0        0.0785        0.3133        0.0000        0.3133       0.234728       0.00095



 Wavenumbers:  4650. -  5150. cm-1, ATM      1
 LEVEL PRESSURE   UPWARD FLUX   DIFDOWN FLUX  DIRDOWN FLUX  DOWNWARD FLUX   NET FLUX    HEATING RATE
          mb          W/m2          W/m2          W/m2        W/m2          W/m2       degree/day
  51    .06700        2.9835        0.0000        6.5710        6.5710       3.587488       0.00000
  50    .07753        2.9835        0.0000        6.5708        6.5708       3.587253       0.18887
  49    .09103        2.9835        0.0000        6.5705        6.5705       3.586959       0.18362
  48    0.1069        2.9835        0.0000        6.5701        6.5701       3.586624       0.17806
  47    0.1255        2.9835        0.0000        6.5697        6.5697       3.586244       0.17238
  46    0.1487        2.9835        0.0000        6.5693        6.5693       3.585770       0.17268
  45    0.1794        2.9835        0.0000        6.5686        6.5686       3.585134       0.17474
  44    0.2165        2.9835        0.0000        6.5679        6.5679       3.584396       0.16788
  43    0.2613        2.9835        0.0000        6.5670        6.5670       3.583543       0.16078
  42    0.3336        2.9835        0.0000        6.5657        6.5657       3.582180       0.15894
  41    0.4307        2.9835        0.0000        6.5640        6.5640       3.580458       0.14971
  40    0.5894        2.9835        0.0000        6.5613        6.5613       3.577841       0.13913
  39     1.339        2.9835        0.0000        6.5516        6.5516       3.568063       0.11008
  38     1.782        2.9835        0.0000        6.5473        6.5473       3.563847       0.08027
  37     2.292        2.9835        0.0000        6.5434        6.5435       3.559960       0.06439
  36     2.964        2.9835        0.0000        6.5395        6.5395       3.556005       0.04965
  35     3.853        2.9835        0.0000        6.5355        6.5356       3.552060       0.03743
  34     5.035        2.9835        0.0000        6.5315        6.5315       3.548056       0.02861
  33     6.613        2.9835        0.0000        6.5271        6.5271       3.543658       0.02351
  32     8.786        2.9835        0.0001        6.5216        6.5216       3.538156       0.02137
  31     11.80        2.9835        0.0001        6.5135        6.5136       3.530065       0.02265
  30     15.07        2.9835        0.0001        6.5041        6.5042       3.520679       0.02423
  29     18.79        2.9835        0.0001        6.4925        6.4927       3.509139       0.02616
  28     23.16        2.9835        0.0002        6.4779        6.4780       3.494514       0.02828
  27     28.12        2.9836        0.0002        6.4599        6.4601       3.476493       0.03063
  26     33.73        2.9836        0.0002        6.4384        6.4386       3.455001       0.03231
  25     40.54        2.9837        0.0003        6.4112        6.4115       3.427790       0.03376
  24     48.69        2.9838        0.0003        6.3775        6.3778       3.394032       0.03493
  23     57.69        2.9840        0.0004        6.3404        6.3407       3.356787       0.03491
  22     68.43        2.9842        0.0004        6.2971        6.2976       3.313385       0.03412
  21     81.20        2.9845        0.0005        6.2483        6.2488       3.264278       0.03245
  20     96.49        2.9849        0.0006        6.1948        6.1954       3.210506       0.02968
  19     114.6        2.9855        0.0007        6.1381        6.1389       3.153319       0.02670
  18     136.5        2.9864        0.0009        6.0790        6.0799       3.093453       0.02302
  17     162.9        2.9876        0.0010        6.0160        6.0171       3.029439       0.02046
  16     196.4        2.9895        0.0012        5.9399        5.9411       2.951568       0.01960
  15     218.7        2.9910        0.0013        5.8896        5.8910       2.899949       0.01960
  14     243.0        2.9930        0.0015        5.8322        5.8337       2.840653       0.02057
  13     269.0        2.9958        0.0016        5.7624        5.7640       2.768193       0.02351
  12     297.5        2.9998        0.0018        5.6767        5.6785       2.678676       0.02655
  11     328.5        3.0053        0.0019        5.5726        5.5745       2.569251       0.02975
  10     361.9        3.0126        0.0021        5.4473        5.4494       2.436788       0.03351
   9     398.1        3.0225        0.0023        5.2995        5.3017       2.279242       0.03670
   8     437.6        3.0358        0.0024        5.1275        5.1299       2.094142       0.03958
   7     480.5        3.0539        0.0026        4.9290        4.9316       1.877702       0.04251
   6     533.0        3.0826        0.0028        4.6794        4.6822       1.599598       0.04474
   5     589.8        3.1228        0.0030        4.4188        4.4217       1.298916       0.04463
   4     651.6        3.1802        0.0031        4.1521        4.1552       0.975035       0.04429
   3     718.7        3.2588        0.0033        3.8929        3.8962       0.637436       0.04243
   2     792.3        3.3648        0.0035        3.6469        3.6503       0.285557       0.04036
   1     891.5        0.0520        0.2266        0.0000        0.2266       0.174626       0.00944
   0    1013.0        0.0542        0.2163        0.0000        0.2163       0.162062       0.00087



 Wavenumbers:  5150. -  6150. cm-1, ATM      1
 LEVEL PRESSURE   UPWARD FLUX   DIFDOWN FLUX  DIRDOWN FLUX  DOWNWARD FLUX   NET FLUX    HEATING RATE
          mb          W/m2          W/m2          W/m2        W/m2          W/m2       degree/day
  51    .06700        7.3479        0.0000       16.4735       16.4735       9.125653       0.00000
  50    .07753        7.3479        0.0000       16.4735       16.4735       9.125619       0.02764
  49    .09103        7.3479        0.0000       16.4734       16.4734       9.125574       0.02814
  48    0.1069        7.3479        0.0000       16.4734       16.4734       9.125520       0.02862
  47    0.1255        7.3479        0.0000       16.4733       16.4733       9.125456       0.02907
  46    0.1487        7.3479        0.0000       16.4732       16.4732       9.125372       0.03063
  45    0.1794        7.3479        0.0000       16.4731       16.4731       9.125253       0.03272
  44    0.2165        7.3479        0.0000       16.4730       16.4730       9.125106       0.03334
  43    0.2613        7.3479        0.0000       16.4728       16.4728       9.124927       0.03379
  42    0.3336        7.3478        0.0000       16.4725       16.4725       9.124621       0.03567
  41    0.4307        7.3478        0.0000       16.4720       16.4720       9.124201       0.03649
  40    0.5894        7.3478        0.0000       16.4713       16.4713       9.123499       0.03732
  39     1.339        7.3478        0.0000       16.4679       16.4679       9.120087       0.03842
  38     1.782        7.3478        0.0001       16.4659       16.4659       9.118084       0.03812
  37     2.292        7.3478        0.0001       16.4635       16.4636       9.115789       0.03802
  36     2.964        7.3478        0.0001       16.4605       16.4606       9.112813       0.03735
  35     3.853        7.3478        0.0001       16.4567       16.4568       9.108951       0.03665
  34     5.035        7.3478        0.0001       16.4516       16.4517       9.103941       0.03579
  33     6.613        7.3478        0.0002       16.4451       16.4453       9.097460       0.03464
  32     8.786        7.3478        0.0003       16.4367       16.4369       9.089119       0.03239
  31     11.80        7.3478        0.0003       16.4254       16.4257       9.077922       0.03135
  30     15.07        7.3478        0.0004       16.4141       16.4146       9.066781       0.02876
  29     18.79        7.3478        0.0006       16.4024       16.4030       9.055194       0.02627
  28     23.16        7.3478        0.0007       16.3900       16.3907       9.042850       0.02387
  27     28.12        7.3478        0.0008       16.3771       16.3779       9.030086       0.02170
  26     33.73        7.3479        0.0010       16.3641       16.3651       9.017235       0.01932
  25     40.54        7.3479        0.0012       16.3502       16.3514       9.003425       0.01713
  24     48.69        7.3481        0.0014       16.3354       16.3368       8.988723       0.01521
  23     57.69        7.3482        0.0017       16.3211       16.3228       8.974548       0.01329
  22     68.43        7.3484        0.0020       16.3062       16.3083       8.959813       0.01158
  21     81.20        7.3487        0.0024       16.2903       16.2927       8.943986       0.01046
  20     96.49        7.3491        0.0028       16.2726       16.2755       8.926377       0.00972
  19     114.6        7.3495        0.0034       16.2521       16.2554       8.905906       0.00956
  18     136.5        7.3501        0.0040       16.2245       16.2285       8.878438       0.01056
  17     162.9        7.3508        0.0047       16.1747       16.1795       8.828648       0.01591
  16     196.4        7.3519        0.0057       16.0518       16.0575       8.705653       0.03096
  15     218.7        7.3527        0.0063       15.8984       15.9047       8.552033       0.05832
  14     243.0        7.3536        0.0069       15.6153       15.6222       8.268571       0.09831
  13     269.0        7.3550        0.0075       15.1390       15.1465       7.791558       0.15474
  12     297.5        7.3569        0.0081       14.5779       14.5860       7.229109       0.16682
  11     328.5        7.3597        0.0087       13.8780       13.8867       6.526956       0.19091
  10     361.9        7.3639        0.0092       13.0814       13.0906       5.726702       0.20247
   9     398.1        7.3700        0.0096       12.2728       12.2825       4.912515       0.18969
   8     437.6        7.3789        0.0101       11.4776       11.4877       4.108724       0.17186
   7     480.5        7.3927        0.0105       10.7300       10.7405       3.347745       0.14945
   6     533.0        7.4174        0.0110       10.0326       10.0436       2.626210       0.11607
   5     589.8        7.4568        0.0116        9.5050        9.5167       2.059825       0.08407
   4     651.6        7.5206        0.0124        9.0814        9.0938       1.573147       0.06655
   3     718.7        7.6189        0.0132        8.7024        8.7157       1.096779       0.05987
   2     792.3        7.7648        0.0141        8.3379        8.3521       0.587319       0.05843
   1     891.5        0.1369        0.5693        0.0000        0.5693       0.432342       0.01319
   0    1013.0        0.1395        0.5563        0.0000        0.5563       0.416802       0.00108



 Wavenumbers:  6150. -  7700. cm-1, ATM      1
 LEVEL PRESSURE   UPWARD FLUX   DIFDOWN FLUX  DIRDOWN FLUX  DOWNWARD FLUX   NET FLUX    HEATING RATE
          mb          W/m2          W/m2          W/m2        W/m2          W/m2       degree/day
  51    .06700       11.4883        0.0000       30.4684       30.4684      18.980036       0.00000
  50    .07753       11.4883        0.0000       30.4683       30.4683      18.979984       0.04144
  49    .09103       11.4883        0.0000       30.4683       30.4683      18.979917       0.04174
  48    0.1069       11.4883        0.0000       30.4682       30.4682      18.979839       0.04202
  47    0.1255       11.4883        0.0000       30.4681       30.4681      18.979745       0.04227
  46    0.1487       11.4883        0.0000       30.4680       30.4680      18.979624       0.04411
  45    0.1794       11.4883        0.0000       30.4678       30.4678      18.979454       0.04669
  44    0.2165       11.4883        0.0000       30.4676       30.4676      18.979247       0.04715
  43    0.2613       11.4883        0.0000       30.4673       30.4673      18.978995       0.04744
  42    0.3336       11.4883        0.0000       30.4669       30.4669      18.978569       0.04974
  41    0.4307       11.4883        0.0000       30.4663       30.4663      18.977988       0.05052
  40    0.5894       11.4883        0.0001       30.4653       30.4653      18.977020       0.05146
  39     1.339       11.4882        0.0002       30.4604       30.4606      18.972336       0.05273
  38     1.782       11.4882        0.0002       30.4576       30.4578      18.969586       0.05235
  37     2.292       11.4882        0.0003       30.4543       30.4546      18.966428       0.05231
  36     2.964       11.4881        0.0004       30.4501       30.4504      18.962321       0.05156
  35     3.853       11.4880        0.0005       30.4445       30.4450      18.956963       0.05084
  34     5.035       11.4879        0.0006       30.4373       30.4379      18.949964       0.05000
  33     6.613       11.4878        0.0008       30.4278       30.4286      18.940816       0.04890
  32     8.786       11.4876        0.0011       30.4154       30.4165      18.928863       0.04642
  31     11.80       11.4873        0.0014       30.3984       30.3998      18.912477       0.04588
  30     15.07       11.4870        0.0018       30.3810       30.3828      18.895763       0.04315
  29     18.79       11.4867        0.0023       30.3623       30.3646      18.877861       0.04059
  28     23.16       11.4863        0.0028       30.3417       30.3445      18.858177       0.03806
  27     28.12       11.4859        0.0034       30.3196       30.3230      18.837075       0.03587
  26     33.73       11.4854        0.0041       30.2965       30.3006      18.815154       0.03296
  25     40.54       11.4849        0.0049       30.2708       30.2757      18.790813       0.03020
  24     48.69       11.4842        0.0059       30.2423       30.2482      18.764032       0.02771
  23     57.69       11.4834        0.0070       30.2139       30.2209      18.737460       0.02491
  22     68.43       11.4825        0.0083       30.1834       30.1917      18.709177       0.02223
  21     81.20       11.4814        0.0098       30.1500       30.1598      18.678438       0.02031
  20     96.49       11.4801        0.0117       30.1126       30.1243      18.644204       0.01889
  19     114.6       11.4786        0.0139       30.0695       30.0834      18.604797       0.01840
  18     136.5       11.4768        0.0165       30.0139       30.0304      18.553605       0.01968
  17     162.9       11.4747        0.0195       29.9225       29.9420      18.467350       0.02757
  16     196.4       11.4720        0.0235       29.7333       29.7568      18.284788       0.04595
  15     218.7       11.4704        0.0260       29.5259       29.5519      18.081469       0.07719
  14     243.0       11.4689        0.0287       29.1375       29.1662      17.697281       0.13325
  13     269.0       11.4678        0.0313       28.3800       28.4113      16.943456       0.24454
  12     297.5       11.4677        0.0337       27.3895       27.4233      15.955558       0.29300
  11     328.5       11.4694        0.0361       26.2257       26.2618      14.792437       0.31625
  10     361.9       11.4740        0.0384       24.8453       24.8837      13.409716       0.34984
   9     398.1       11.4830        0.0404       23.3471       23.3874      11.904408       0.35070
   8     437.6       11.4994        0.0422       21.7966       21.8388      10.339450       0.33460
   7     480.5       11.5285        0.0437       20.1977       20.2414       8.712940       0.31944
   6     533.0       11.5852        0.0453       18.4969       18.5423       6.957103       0.28246
   5     589.8       11.6798        0.0470       16.9754       17.0224       5.342628       0.23964
   4     651.6       11.8365        0.0487       15.6022       15.6508       3.814350       0.20900
   3     718.7       12.0801        0.0506       14.4232       14.4738       2.393719       0.17853
   2     792.3       12.4451        0.0527       13.4386       13.4914       1.046222       0.15454
   1     891.5        0.2004        0.8594        0.0000        0.8594       0.659034       0.03295
   0    1013.0        0.2070        0.8257        0.0000        0.8257       0.618672       0.00280



 Wavenumbers:  7700. -  8050. cm-1, ATM      1
 LEVEL PRESSURE   UPWARD FLUX   DIFDOWN FLUX  DIRDOWN FLUX  DOWNWARD FLUX   NET FLUX    HEATING RATE
          mb          W/m2          W/m2          W/m2        W/m2          W/m2       degree/day
  51    .06700        5.4428        0.0000        7.2006        7.2006       1.757760       0.00000
  50    .07753        5.4428        0.0000        7.2006        7.2006       1.757739       0.01712
  49    .09103        5.4428        0.0000        7.2005        7.2005       1.757712       0.01678
  48    0.1069        5.4428        0.0000        7.2005        7.2005       1.757681       0.01643
  47    0.1255        5.4428        0.0000        7.2005        7.2005       1.757646       0.01607
  46    0.1487        5.4428        0.0000        7.2004        7.2005       1.757601       0.01631
  45    0.1794        5.4429        0.0000        7.2004        7.2004       1.757540       0.01678
  44    0.2165        5.4429        0.0000        7.2003        7.2003       1.757468       0.01646
  43    0.2613        5.4429        0.0000        7.2003        7.2003       1.757382       0.01615
  42    0.3336        5.4429        0.0000        7.2001        7.2001       1.757240       0.01653
  41    0.4307        5.4429        0.0000        7.2000        7.2000       1.757052       0.01635
  40    0.5894        5.4430        0.0000        7.1997        7.1997       1.756745       0.01633
  39     1.339        5.4432        0.0001        7.1984        7.1985       1.755293       0.01635
  38     1.782        5.4433        0.0001        7.1977        7.1978       1.754440       0.01624
  37     2.292        5.4435        0.0001        7.1968        7.1970       1.753453       0.01635
  36     2.964        5.4437        0.0002        7.1957        7.1959       1.752157       0.01627
  35     3.853        5.4440        0.0002        7.1942        7.1944       1.750446       0.01624
  34     5.035        5.4443        0.0003        7.1922        7.1925       1.748174       0.01623
  33     6.613        5.4448        0.0004        7.1896        7.1899       1.745142       0.01621
  32     8.786        5.4455        0.0005        7.1860        7.1865       1.741060       0.01585
  31     11.80        5.4464        0.0006        7.1810        7.1816       1.735231       0.01632
  30     15.07        5.4474        0.0008        7.1755        7.1764       1.728987       0.01612
  29     18.79        5.4485        0.0010        7.1694        7.1705       1.721950       0.01595
  28     23.16        5.4498        0.0012        7.1623        7.1636       1.713756       0.01585
  27     28.12        5.4513        0.0015        7.1542        7.1558       1.704418       0.01587
  26     33.73        5.4530        0.0018        7.1452        7.1471       1.694011       0.01565
  25     40.54        5.4551        0.0022        7.1344        7.1366       1.681498       0.01552
  24     48.69        5.4576        0.0026        7.1215        7.1241       1.666501       0.01552
  23     57.69        5.4604        0.0031        7.1074        7.1105       1.650138       0.01534
  22     68.43        5.4637        0.0037        7.0909        7.0945       1.630801       0.01520
  21     81.20        5.4677        0.0043        7.0713        7.0757       1.607974       0.01508
  20     96.49        5.4725        0.0051        7.0484        7.0536       1.581066       0.01485
  19     114.6        5.4783        0.0061        7.0217        7.0278       1.549515       0.01473
  18     136.5        5.4852        0.0072        6.9906        6.9978       1.512652       0.01417
  17     162.9        5.4935        0.0086        6.9544        6.9630       1.469460       0.01381
  16     196.4        5.5045        0.0103        6.9087        6.9190       1.414524       0.01383
  15     218.7        5.5119        0.0114        6.8794        6.8909       1.378989       0.01349
  14     243.0        5.5200        0.0127        6.8481        6.8608       1.340788       0.01325
  13     269.0        5.5290        0.0140        6.8147        6.8287       1.299739       0.01332
  12     297.5        5.5389        0.0154        6.7791        6.7945       1.255580       0.01310
  11     328.5        5.5500        0.0170        6.7409        6.7579       1.207898       0.01296
  10     361.9        5.5625        0.0187        6.7002        6.7188       1.156332       0.01305
   9     398.1        5.5765        0.0204        6.6563        6.6767       1.100217       0.01307
   8     437.6        5.5924        0.0224        6.6089        6.6312       1.038831       0.01312
   7     480.5        5.6107        0.0244        6.5570        6.5814       0.970721       0.01338
   6     533.0        5.6351        0.0269        6.4915        6.5184       0.883237       0.01407
   5     589.8        5.6643        0.0296        6.4182        6.4478       0.783553       0.01480
   4     651.6        5.6993        0.0324        6.3359        6.3683       0.669075       0.01566
   3     718.7        5.7410        0.0355        6.2441        6.2796       0.538656       0.01639
   2     792.3        5.7900        0.0387        6.1437        6.1824       0.392470       0.01677
   1     891.5        0.1073        0.4421        0.0000        0.4421       0.334755       0.00491
   0    1013.0        0.1090        0.4348        0.0000        0.4348       0.325764       0.00062



 Wavenumbers:  8050. - 12850. cm-1, ATM      1
 LEVEL PRESSURE   UPWARD FLUX   DIFDOWN FLUX  DIRDOWN FLUX  DOWNWARD FLUX   NET FLUX    HEATING RATE
          mb          W/m2          W/m2          W/m2        W/m2          W/m2       degree/day
  51    .06700       70.7462        0.0000      100.8135      100.8135      30.067266       0.00000
  50    .07753       70.7462        0.0000      100.8135      100.8135      30.067266       0.00000
  49    .09103       70.7462        0.0001      100.8134      100.8135      30.067266      -0.00000
  48    0.1069       70.7462        0.0001      100.8134      100.8135      30.067266      -0.00000
  47    0.1255       70.7462        0.0002      100.8133      100.8134      30.067266       0.00000
  46    0.1487       70.7461        0.0002      100.8132      100.8134      30.067266       0.00000
  45    0.1794       70.7461        0.0003      100.8131      100.8134      30.067266       0.00000
  44    0.2165       70.7460        0.0004      100.8129      100.8133      30.067266      -0.00000
  43    0.2613       70.7460        0.0005      100.8127      100.8133      30.067266      -0.00000
  42    0.3336       70.7459        0.0007      100.8125      100.8132      30.067266       0.00000
  41    0.4307       70.7458        0.0010      100.8121      100.8130      30.067266       0.00000
  40    0.5894       70.7456        0.0014      100.8115      100.8128      30.067266      -0.00000
  39     1.339       70.7446        0.0033      100.8085      100.8118      30.067266      -0.00000
  38     1.782       70.7440        0.0045      100.8068      100.8112      30.067266       0.00000
  37     2.292       70.7433        0.0058      100.8047      100.8106      30.067266       0.00000
  36     2.964       70.7424        0.0076      100.8021      100.8097      30.067266       0.00000
  35     3.853       70.7412        0.0099      100.7986      100.8085      30.067266      -0.00000
  34     5.035       70.7397        0.0130      100.7940      100.8069      30.067266      -0.00000
  33     6.613       70.7376        0.0171      100.7878      100.8049      30.067266       0.00000
  32     8.786       70.7348        0.0226      100.7794      100.8021      30.067266       0.00000
  31     11.80       70.7308        0.0306      100.7674      100.7980      30.067266      -0.00000
  30     15.07       70.7264        0.0391      100.7546      100.7937      30.067266      -0.00000
  29     18.79       70.7215        0.0488      100.7400      100.7888      30.067266      -0.00000
  28     23.16       70.7158        0.0601      100.7230      100.7831      30.067266       0.00000
  27     28.12       70.7093        0.0730      100.7035      100.7765      30.067266      -0.00000
  26     33.73       70.7019        0.0875      100.6817      100.7692      30.067266       0.00000
  25     40.54       70.6931        0.1051      100.6552      100.7603      30.067266       0.00000
  24     48.69       70.6823        0.1262      100.6234      100.7496      30.067266      -0.00000
  23     57.69       70.6705        0.1495      100.5883      100.7378      30.067266       0.00000
  22     68.43       70.6565        0.1773      100.5464      100.7237      30.067266       0.00000
  21     81.20       70.6397        0.2104      100.4965      100.7070      30.067266      -0.00000
  20     96.49       70.6197        0.2500      100.4370      100.6869      30.067266       0.00000
  19     114.6       70.5960        0.2970      100.3585      100.6555      30.059441       0.00365
  18     136.5       70.5680        0.3528      100.2634      100.6162      30.048191       0.00433
  17     162.9       70.5347        0.4194      100.1407      100.5601      30.025418       0.00728
  16     196.4       70.4917        0.5060       99.9505      100.4565      29.964828       0.01525
  15     218.7       70.4635        0.5629       99.7889      100.3518      29.888301       0.02905
  14     243.0       70.4335        0.6246       99.5472      100.1718      29.738330       0.05201
  13     269.0       70.4030        0.6912       99.1452       99.8365      29.433439       0.09891
  12     297.5       70.3739        0.7628       98.5975       99.3603      28.986337       0.13261
  11     328.5       70.3492        0.8396       97.8659       98.7054      28.356231       0.17132
  10     361.9       70.3333        0.9213       96.8848       97.8061      27.472754       0.22353
   9     398.1       70.3323        1.0078       95.6330       96.6408      26.308429       0.27126
   8     437.6       70.3574        1.0987       94.0655       95.1641      24.806719       0.32107
   7     480.5       70.4304        1.1930       92.0807       93.2737      22.843262       0.38562
   6     533.0       70.5998        1.3049       89.4449       90.7498      20.150015       0.43326
   5     589.8       70.9041        1.4211       86.5544       87.9755      17.071386       0.45697
   4     651.6       71.4216        1.5410       83.4174       84.9584      13.536798       0.48336
   3     718.7       72.2197        1.6655       80.2037       81.8692       9.649451       0.48853
   2     792.3       73.3826        1.7952       77.0811       78.8763       5.493704       0.47662
   1     891.5        1.2999        5.4262        0.0000        5.4262       4.126297       0.11636
   0    1013.0        1.3248        5.2843        0.0000        5.2843       3.959561       0.01158



 Wavenumbers: 12850. - 16000. cm-1, ATM      1
 LEVEL PRESSURE   UPWARD FLUX   DIFDOWN FLUX  DIRDOWN FLUX  DOWNWARD FLUX   NET FLUX    HEATING RATE
          mb          W/m2          W/m2          W/m2        W/m2          W/m2       degree/day
  51    .06700       50.8066        0.0000       63.1686       63.1686      12.361983       0.00000
  50    .07753       50.8066        0.0001       63.1677       63.1678      12.361199       0.62799
  49    .09103       50.8066        0.0001       63.1666       63.1668      12.360222       0.61082
  48    0.1069       50.8065        0.0002       63.1654       63.1656      12.359108       0.59293
  47    0.1255       50.8065        0.0003       63.1640       63.1644      12.357840       0.57503
  46    0.1487       50.8065        0.0005       63.1623       63.1628      12.356255       0.57746
  45    0.1794       50.8065        0.0006       63.1600       63.1606      12.354128       0.58411
  44    0.2165       50.8065        0.0008       63.1573       63.1581      12.351662       0.56079
  43    0.2613       50.8065        0.0011       63.1542       63.1553      12.348812       0.53720
  42    0.3336       50.8065        0.0015       63.1493       63.1508      12.344258       0.53094
  41    0.4307       50.8067        0.0021       63.1431       63.1452      12.338542       0.49702
  40    0.5894       50.8069        0.0029       63.1338       63.1368      12.329835       0.46301
  39     1.339       50.8102        0.0072       63.0956       63.1027      12.292528       0.42002
  38     1.782       50.8135        0.0096       63.0740       63.0837      12.270123       0.42654
  37     2.292       50.8187        0.0125       63.0477       63.0602      12.241452       0.47487
  36     2.964       50.8275        0.0162       63.0095       63.0258      12.198264       0.54214
  35     3.853       50.8420        0.0212       62.9533       62.9745      12.132481       0.62430
  34     5.035       50.8640        0.0278       62.8725       62.9003      12.036289       0.68715
  33     6.613       50.8948        0.0366       62.7621       62.7986      11.903786       0.70836
  32     8.786       50.9349        0.0484       62.6182       62.6666      11.731715       0.66826
  31     11.80       50.9867        0.0652       62.4284       62.4936      11.506895       0.62942
  30     15.07       51.0359        0.0833       62.2426       62.3259      11.290035       0.55989
  29     18.79       51.0856        0.1037       62.0493       62.1529      11.067328       0.50495
  28     23.16       51.1371        0.1274       61.8424       61.9698      10.832765       0.45357
  27     28.12       51.1881        0.1545       61.6278       61.7823      10.594177       0.40558
  26     33.73       51.2341        0.1848       61.4177       61.6024      10.368322       0.33958
  25     40.54       51.2768        0.2213       61.1983       61.4196      10.142820       0.27976
  24     48.69       51.3157        0.2653       60.9680       61.2333       9.917587       0.23308
  23     57.69       51.3463        0.3135       60.7478       61.0613       9.715063       0.18984
  22     68.43       51.3696        0.3710       60.5202       60.8912       9.521568       0.15211
  21     81.20       51.3794        0.4394       60.2938       60.7333       9.353833       0.11084
  20     96.49       51.3745        0.5210       60.0643       60.5852       9.210748       0.07897
  19     114.6       51.3680        0.6185       59.8078       60.4262       9.058229       0.07122
  18     136.5       51.3531        0.7338       59.5157       60.2495       8.896413       0.06222
  17     162.9       51.3289        0.8709       59.1770       60.0480       8.719077       0.05668
  16     196.4       51.2835        1.0484       58.7604       59.8088       8.525279       0.04878
  15     218.7       51.2488        1.1647       58.4948       59.6595       8.410644       0.04352
  14     243.0       51.2091        1.2909       58.2089       59.4998       8.290671       0.04161
  13     269.0       51.1645        1.4274       57.9006       59.3280       8.163508       0.04125
  12     297.5       51.1154        1.5747       57.5668       59.1415       8.026092       0.04076
  11     328.5       51.0637        1.7335       57.2005       58.9340       7.870331       0.04235
  10     361.9       51.0107        1.9041       56.7963       58.7004       7.689679       0.04571
   9     398.1       50.9583        2.0871       56.3475       58.4346       7.476274       0.04972
   8     437.6       50.9101        2.2829       55.8422       58.1251       7.214999       0.05586
   7     480.5       50.8725        2.4915       55.2625       57.7541       6.881546       0.06549
   6     533.0       50.8502        2.7465       54.4972       57.2436       6.393461       0.07852
   5     589.8       50.8564        3.0179       53.6307       56.6486       5.792244       0.08924
   4     651.6       50.9059        3.3053       52.6606       55.9659       5.060003       0.10014
   3     718.7       51.0084        3.6089       51.6100       55.2190       4.210605       0.10675
   2     792.3       51.1768        3.9288       50.5019       54.4307       3.253852       0.10973
   1     891.5        3.4726        6.3401        0.0000        6.3401       2.867536       0.03287
   0    1013.0        3.4953        6.2673        0.0000        6.2673       2.772009       0.00663



 Wavenumbers: 16000. - 22650. cm-1, ATM      1
 LEVEL PRESSURE   UPWARD FLUX   DIFDOWN FLUX  DIRDOWN FLUX  DOWNWARD FLUX   NET FLUX    HEATING RATE
          mb          W/m2          W/m2          W/m2        W/m2          W/m2       degree/day
  51    .06700       85.6672        0.0000      100.7153      100.7153      15.048109       0.00000
  50    .07753       85.6671        0.0003      100.7147      100.7151      15.047987       0.09774
  49    .09103       85.6670        0.0008      100.7140      100.7148      15.047810       0.11085
  48    0.1069       85.6668        0.0012      100.7131      100.7144      15.047572       0.12641
  47    0.1255       85.6667        0.0018      100.7121      100.7139      15.047254       0.14409
  46    0.1487       85.6665        0.0025      100.7108      100.7133      15.046786       0.17074
  45    0.1794       85.6663        0.0035      100.7089      100.7124      15.046054       0.20104
  44    0.2165       85.6661        0.0046      100.7066      100.7112      15.045061       0.22594
  43    0.2613       85.6659        0.0060      100.7037      100.7096      15.043713       0.25401
  42    0.3336       85.6657        0.0082      100.6987      100.7069      15.041151       0.29871
  41    0.4307       85.6657        0.0112      100.6918      100.7029      15.037289       0.33577
  40    0.5894       85.6658        0.0160      100.6797      100.6958      15.029924       0.39165
  39     1.339       85.6729        0.0389      100.6095      100.6484      14.975523       0.61247
  38     1.782       85.6817        0.0524      100.5585      100.6109      14.929191       0.88207
  37     2.292       85.6961        0.0680      100.4903      100.5582      14.862146       1.11045
  36     2.964       85.7216        0.0884      100.3868      100.4752      14.753577       1.36286
  35     3.853       85.7646        0.1154      100.2306      100.3460      14.581418       1.63382
  34     5.035       85.8308        0.1511      100.0045      100.1556      14.324823       1.83301
  33     6.613       85.9239        0.1988       99.6939       99.8927      13.968725       1.90370
  32     8.786       86.0447        0.2629       99.2881       99.5510      13.506222       1.79620
  31     11.80       86.1997        0.3543       98.7496       99.1039      12.904243       1.68535
  30     15.07       86.3452        0.4521       98.2198       98.6720      12.326740       1.49100
  29     18.79       86.4909        0.5623       97.6651       98.2274      11.736479       1.33830
  28     23.16       86.6395        0.6904       97.0671       97.7576      11.118059       1.19582
  27     28.12       86.7843        0.8365       96.4406       97.2771      10.492780       1.06293
  26     33.73       86.9101        0.9994       95.8179       96.8173       9.907241       0.88037
  25     40.54       87.0202        1.1956       95.1548       96.3505       9.330284       0.71578
  24     48.69       87.1124        1.4313       94.4420       95.8733       8.760899       0.58922
  23     57.69       87.1746        1.6892       93.7416       95.4308       8.256257       0.47303
  22     68.43       87.2066        1.9952       92.9954       94.9906       7.784007       0.37125
  21     81.20       87.1870        2.3584       92.2231       94.5816       7.394563       0.25734
  20     96.49       87.1105        2.7894       91.4110       94.2003       7.089880       0.16816
  19     114.6       86.9931        3.2977       90.5070       93.8047       6.811556       0.12996
  18     136.5       86.8369        3.8954       89.4803       93.3756       6.538680       0.10493
  17     162.9       86.6361        4.6003       88.3022       92.9025       6.266362       0.08704
  16     196.4       86.3426        5.5045       86.8606       92.3651       6.022464       0.06139
  15     218.7       86.1385        6.0921       85.9492       92.0413       5.902754       0.04545
  14     243.0       85.9124        6.7253       84.9789       91.7043       5.791876       0.03846
  13     269.0       85.6631        7.4052       83.9493       91.3545       5.691379       0.03260
  12     297.5       85.3902        8.1326       82.8589       90.9916       5.601377       0.02669
  11     328.5       85.0955        8.9102       81.6982       90.6084       5.512897       0.02406
  10     361.9       84.7794        9.7378       80.4669       90.2047       5.425354       0.02215
   9     398.1       84.4411       10.6174       79.1611       89.7786       5.337439       0.02048
   8     437.6       84.0817       11.5496       77.7777       89.3273       5.245607       0.01963
   7     480.5       83.7020       12.5347       76.3136       88.8484       5.146418       0.01948
   6     533.0       83.2433       13.7277       74.5359       88.2635       5.020223       0.02030
   5     589.8       82.7615       14.9896       72.6469       87.6365       4.874975       0.02156
   4     651.6       82.2599       16.3186       70.6456       86.9642       4.704330       0.02334
   3     718.7       81.7393       17.7130       68.5367       86.2496       4.510305       0.02438
   2     792.3       81.2031       19.1674       66.3287       85.4961       4.292986       0.02492
   1     891.5       15.0558       19.2346        0.0000       19.2346       4.178759       0.00972
   0    1013.0       15.0307       19.1547        0.0000       19.1547       4.124008       0.00380



 Wavenumbers: 22650. - 29000. cm-1, ATM      1
 LEVEL PRESSURE   UPWARD FLUX   DIFDOWN FLUX  DIRDOWN FLUX  DOWNWARD FLUX   NET FLUX    HEATING RATE
          mb          W/m2          W/m2          W/m2        W/m2          W/m2       degree/day
  51    .06700       36.3163        0.0000       38.0063       38.0063       1.689975       0.00000
  50    .07753       36.3162        0.0004       38.0057       38.0061       1.689975       0.00000
  49    .09103       36.3160        0.0009       38.0050       38.0059       1.689975       0.00000
  48    0.1069       36.3157        0.0014       38.0042       38.0057       1.689975       0.00000
  47    0.1255       36.3155        0.0021       38.0033       38.0054       1.689975       0.00000
  46    0.1487       36.3151        0.0029       38.0022       38.0051       1.689975      -0.00000
  45    0.1794       36.3147        0.0040       38.0006       38.0046       1.689975       0.00000
  44    0.2165       36.3141        0.0054       37.9987       38.0041       1.689975      -0.00000
  43    0.2613       36.3135        0.0069       37.9965       38.0034       1.689975       0.00000
  42    0.3336       36.3124        0.0095       37.9928       38.0024       1.689975      -0.00000
  41    0.4307       36.3110        0.0130       37.9880       38.0010       1.689975       0.00000
  40    0.5894       36.3087        0.0186       37.9800       37.9987       1.689975       0.00000
  39     1.339       36.2978        0.0453       37.9425       37.9878       1.689975      -0.00000
  38     1.782       36.2914        0.0609       37.9204       37.9813       1.689975       0.00000
  37     2.292       36.2840        0.0790       37.8949       37.9739       1.689975       0.00000
  36     2.964       36.2742        0.1028       37.8614       37.9642       1.689975      -0.00000
  35     3.853       36.2614        0.1341       37.8172       37.9514       1.689975       0.00000
  34     5.035       36.2444        0.1758       37.7586       37.9343       1.689975       0.00000
  33     6.613       36.2216        0.2313       37.6803       37.9116       1.689975       0.00000
  32     8.786       36.1910        0.3060       37.5750       37.8810       1.689975      -0.00000
  31     11.80       36.1474        0.4125       37.4249       37.8374       1.689975       0.00000
  30     15.07       36.1007        0.5265       37.2642       37.7907       1.689975      -0.00000
  29     18.79       36.0481        0.6548       37.0833       37.7381       1.689975       0.00000
  28     23.16       35.9870        0.8039       36.8730       37.6769       1.689975      -0.00000
  27     28.12       35.9174        0.9736       36.6338       37.6074       1.689975       0.00000
  26     33.73       35.8400        1.1623       36.3677       37.5300       1.689975       0.00000
  25     40.54       35.7471        1.3885       36.0486       37.4371       1.689975      -0.00000
  24     48.69       35.6361        1.6589       35.6672       37.3261       1.689975       0.00000
  23     57.69       35.5154        1.9527       35.2527       37.2054       1.689975      -0.00000
  22     68.43       35.3733        2.2983       34.7649       37.0633       1.689975       0.00000
  21     81.20       35.2063        2.7041       34.1922       36.8963       1.689975      -0.00000
  20     96.49       35.0107        3.1789       33.5217       36.7007       1.689975       0.00000
  19     114.6       34.7831        3.7307       32.7424       36.4731       1.689975       0.00000
  18     136.5       34.5198        4.3681       31.8416       36.2097       1.689975       0.00000
  17     162.9       34.2151        5.1043       30.8008       35.9051       1.689975       0.00000
  16     196.4       33.8338        6.0231       29.5007       35.5238       1.689975      -0.00000
  15     218.7       33.5918        6.6051       28.6767       35.2818       1.689975       0.00000
  14     243.0       33.3359        7.2191       27.8068       35.0259       1.689975       0.00000
  13     269.0       33.0667        7.8634       26.8933       34.7567       1.689975       0.00000
  12     297.5       32.7851        8.5358       25.9393       34.4751       1.689975       0.00000
  11     328.5       32.4911        9.2359       24.9451       34.1810       1.689975       0.00000
  10     361.9       32.1860        9.9599       23.9160       33.8759       1.689975       0.00000
   9     398.1       31.8704       10.7062       22.8541       33.5603       1.689975       0.00000
   8     437.6       31.5455       11.4711       21.7645       33.2355       1.689975      -0.00000
   7     480.5       31.2129       12.2507       20.6521       32.9028       1.689975       0.00000
   6     533.0       30.8239       13.1570       19.3569       32.5139       1.689975       0.00000
   5     589.8       30.4286       14.0718       18.0467       32.1185       1.689975       0.00000
   4     651.6       30.0294       14.9878       16.7316       31.7194       1.689975      -0.00000
   3     718.7       29.6292       15.8977       15.4214       31.3192       1.689975       0.00000
   2     792.3       29.2309       16.7932       14.1276       30.9208       1.689975       0.00000
   1     891.5        6.2142        7.9032        0.0000        7.9032       1.688970       0.00009
   0    1013.0        6.1558        7.8447        0.0000        7.8447       1.688970       0.00000



 Wavenumbers: 29000. - 38000. cm-1, ATM      1
 LEVEL PRESSURE   UPWARD FLUX   DIFDOWN FLUX  DIRDOWN FLUX  DOWNWARD FLUX   NET FLUX    HEATING RATE
          mb          W/m2          W/m2          W/m2        W/m2          W/m2       degree/day
  51    .06700        5.2103        0.0000       13.4026       13.4026       8.192262       0.00000
  50    .07753        5.2101        0.0003       13.3983       13.3986       8.188463       3.04470
  49    .09103        5.2099        0.0007       13.3921       13.3928       8.182944       3.45003
  48    0.1069        5.2096        0.0011       13.3840       13.3851       8.175566       3.92719
  47    0.1255        5.2092        0.0016       13.3733       13.3749       8.165720       4.46366
  46    0.1487        5.2088        0.0022       13.3579       13.3601       8.151276       5.26497
  45    0.1794        5.2082        0.0030       13.3340       13.3371       8.128874       6.14997
  44    0.2165        5.2076        0.0040       13.3024       13.3064       8.098851       6.82957
  43    0.2613        5.2068        0.0052       13.2604       13.2656       8.058792       7.55103
  42    0.3336        5.2056        0.0071       13.1833       13.1904       7.984776       8.62953
  41    0.4307        5.2041        0.0096       13.0729       13.0825       7.878389       9.25007
  40    0.5894        5.2018        0.0135       12.8796       12.8931       7.691318       9.94822
  39     1.339        5.1936        0.0299       11.9165       11.9464       6.752765      10.56640
  38     1.782        5.1906        0.0383       11.4399       11.4782       6.287603       8.85593
  37     2.292        5.1884        0.0473       10.9796       11.0269       5.838414       7.43975
  36     2.964        5.1875        0.0583       10.4786       10.5369       5.349372       6.13895
  35     3.853        5.1890        0.0719        9.9429       10.0148       4.825868       4.96815
  34     5.035        5.1935        0.0890        9.4007        9.4897       4.296177       3.78389
  33     6.613        5.2014        0.1106        8.8752        8.9858       3.784458       2.73565
  32     8.786        5.2121        0.1385        8.3786        8.5171       3.304994       1.86206
  31     11.80        5.2254        0.1768        7.8897        8.0665       2.841062       1.29886
  30     15.07        5.2373        0.2164        7.5108        7.7272       2.489924       0.90657
  29     18.79        5.2486        0.2596        7.1776        7.4372       2.188524       0.68337
  28     23.16        5.2595        0.3082        6.8664        7.1746       1.915063       0.52879
  27     28.12        5.2692        0.3620        6.5780        6.9400       1.670837       0.41517
  26     33.73        5.2749        0.4206        6.3195        6.7401       1.465218       0.30915
  25     40.54        5.2758        0.4899        6.0663        6.5561       1.280368       0.22933
  24     48.69        5.2713        0.5710        5.8128        6.3839       1.112581       0.17363
  23     57.69        5.2611        0.6577        5.5777        6.2354       0.974349       0.12957
  22     68.43        5.2431        0.7581        5.3379        6.0960       0.852860       0.09551
  21     81.20        5.2131        0.8747        5.0965        5.9712       0.758105       0.06261
  20     96.49        5.1697        1.0095        4.8476        5.8571       0.687401       0.03902
  19     114.6        5.1165        1.1624        4.5799        5.7423       0.625727       0.02880
  18     136.5        5.0548        1.3335        4.2891        5.6226       0.567781       0.02228
  17     162.9        4.9844        1.5236        3.9732        5.4968       0.512387       0.01771
  16     196.4        4.8950        1.7519        3.6080        5.3599       0.464876       0.01196
  15     218.7        4.8387        1.8911        3.3898        5.2809       0.442188       0.00861
  14     243.0        4.7803        2.0333        3.1686        5.2019       0.421557       0.00716
  13     269.0        4.7202        2.1774        2.9461        5.1235       0.403311       0.00592
  12     297.5        4.6587        2.3223        2.7239        5.0462       0.387479       0.00470
  11     328.5        4.5969        2.4665        2.5029        4.9694       0.372562       0.00406
  10     361.9        4.5350        2.6090        2.2846        4.8936       0.358584       0.00354
   9     398.1        4.4737        2.7485        2.0708        4.8192       0.345541       0.00304
   8     437.6        4.4133        2.8839        1.8626        4.7465       0.333156       0.00265
   7     480.5        4.3544        3.0139        1.6621        4.6760       0.321567       0.00228
   6     533.0        4.2893        3.1547        1.4437        4.5984       0.309116       0.00200
   5     589.8        4.2273        3.2856        1.2390        4.5246       0.297237       0.00176
   4     651.6        4.1692        3.4049        1.0500        4.4549       0.285768       0.00157
   3     718.7        4.1151        3.5120        0.8778        4.3898       0.274670       0.00139
   2     792.3        4.0656        3.6058        0.7237        4.3295       0.263921       0.00123
   1     891.5        0.9375        1.1937        0.0000        1.1937       0.256149       0.00066
   0    1013.0        0.9210        1.1736        0.0000        1.1736       0.252686       0.00024



 Wavenumbers: 38000. - 50000. cm-1, ATM      1
 LEVEL PRESSURE   UPWARD FLUX   DIFDOWN FLUX  DIRDOWN FLUX  DOWNWARD FLUX   NET FLUX    HEATING RATE
          mb          W/m2          W/m2          W/m2        W/m2          W/m2       degree/day
  51    .06700        0.0051        0.0000        0.8267        0.8267       0.821528       0.00000
  50    .07753        0.0051        0.0001        0.8242        0.8243       0.819196       1.86936
  49    .09103        0.0050        0.0002        0.8207        0.8209       0.815872       2.07705
  48    0.1069        0.0049        0.0002        0.8162        0.8164       0.811514       2.31984
  47    0.1255        0.0048        0.0004        0.8103        0.8106       0.805801       2.59006
  46    0.1487        0.0047        0.0005        0.8018        0.8023       0.797567       3.00143
  45    0.1794        0.0045        0.0007        0.7889        0.7896       0.785013       3.44648
  44    0.2165        0.0044        0.0009        0.7720        0.7729       0.768507       3.75474
  43    0.2613        0.0042        0.0011        0.7500        0.7511       0.746955       4.06246
  42    0.3336        0.0039        0.0015        0.7106        0.7121       0.708267       4.51071
  41    0.4307        0.0035        0.0019        0.6566        0.6584       0.654972       4.63387
  40    0.5894        0.0029        0.0024        0.5680        0.5704       0.567464       4.65357
  39     1.339        0.0015        0.0030        0.2422        0.2452       0.243720       3.64476
  38     1.782        0.0010        0.0026        0.1493        0.1519       0.150889       1.76735
  37     2.292        0.0007        0.0022        0.0924        0.0946       0.093932       0.94336
  36     2.964        0.0005        0.0018        0.0539        0.0557       0.055224       0.48589
  35     3.853        0.0003        0.0013        0.0295        0.0308       0.030502       0.23462
  34     5.035        0.0002        0.0010        0.0154        0.0164       0.016181       0.10230
  33     6.613        0.0001        0.0007        0.0073        0.0080       0.007912       0.04420
  32     8.786        0.0000        0.0004        0.0030        0.0034       0.003390       0.01756
  31     11.80        0.0000        0.0003        0.0010        0.0012       0.001199       0.00613
  30     15.07        0.0000        0.0001        0.0003        0.0005       0.000463       0.00190
  29     18.79        0.0000        0.0001        0.0001        0.0002       0.000182       0.00064
  28     23.16        0.0000        0.0000        0.0000        0.0001       0.000071       0.00022
  27     28.12        0.0000        0.0000        0.0000        0.0000       0.000028       0.00007
  26     33.73        0.0000        0.0000        0.0000        0.0000       0.000011       0.00002
  25     40.54        0.0000        0.0000        0.0000        0.0000       0.000005       0.00001
  24     48.69        0.0000        0.0000        0.0000        0.0000       0.000002       0.00000
  23     57.69        0.0000        0.0000        0.0000        0.0000       0.000001       0.00000
  22     68.43        0.0000        0.0000        0.0000        0.0000       0.000000       0.00000
  21     81.20        0.0000        0.0000        0.0000        0.0000       0.000000       0.00000
  20     96.49        0.0000        0.0000        0.0000        0.0000       0.000000       0.00000
  19     114.6        0.0000        0.0000        0.0000        0.0000       0.000000       0.00000
  18     136.5        0.0000        0.0000        0.0000        0.0000       0.000000       0.00000
  17     162.9        0.0000        0.0000        0.0000        0.0000       0.000000       0.00000
  16     196.4        0.0000        0.0000        0.0000        0.0000       0.000000       0.00000
  15     218.7        0.0000        0.0000        0.0000        0.0000       0.000000       0.00000
  14     243.0        0.0000        0.0000        0.0000        0.0000       0.000000       0.00000
  13     269.0        0.0000        0.0000        0.0000        0.0000       0.000000       0.00000
  12     297.5        0.0000        0.0000        0.0000        0.0000       0.000000       0.00000
  11     328.5        0.0000        0.0000        0.0000        0.0000       0.000000       0.00000
  10     361.9        0.0000        0.0000        0.0000        0.0000       0.000000       0.00000
   9     398.1        0.0000        0.0000        0.0000        0.0000       0.000000       0.00000
   8     437.6        0.0000        0.0000        0.0000        0.0000       0.000000       0.00000
   7     480.5        0.0000        0.0000        0.0000        0.0000       0.000000       0.00000
   6     533.0        0.0000        0.0000        0.0000        0.0000       0.000000       0.00000
   5     589.8        0.0000        0.0000        0.0000        0.0000       0.000000       0.00000
   4     651.6        0.0000        0.0000        0.0000        0.0000       0.000000       0.00000
   3     718.7        0.0000        0.0000        0.0000        0.0000       0.000000       0.00000
   2     792.3        0.0000        0.0000        0.0000        0.0000       0.000000       0.00000
   1     891.5        0.0000        0.0000        0.0000        0.0000       0.000000       0.00000
   0    1013.0        0.0000        0.0000        0.0000        0.0000       0.000000       0.00000



 Wavenumbers:   820. -  2600. cm-1, ATM      1
 LEVEL PRESSURE   UPWARD FLUX   DIFDOWN FLUX  DIRDOWN FLUX  DOWNWARD FLUX   NET FLUX    HEATING RATE
          mb          W/m2          W/m2          W/m2        W/m2          W/m2       degree/day
  51    .06700        0.8965        0.0000        3.8670        3.8670       2.970497       0.00000
  50    .07753        0.8965        0.0000        3.8643        3.8643       2.967780       2.17771
  49    .09103        0.8965        0.0000        3.8635        3.8635       2.966970       0.50640
  48    0.1069        0.8965        0.0000        3.8626        3.8626       2.966079       0.47417
  47    0.1255        0.8965        0.0000        3.8616        3.8616       2.965118       0.43561
  46    0.1487        0.8965        0.0000        3.8605        3.8605       2.964008       0.40439
  45    0.1794        0.8965        0.0000        3.8592        3.8592       2.962673       0.36650
  44    0.2165        0.8965        0.0000        3.8578        3.8578       2.961295       0.31348
  43    0.2613        0.8965        0.0000        3.8564        3.8564       2.959835       0.27524
  42    0.3336        0.8965        0.0000        3.8541        3.8541       2.957604       0.26015
  41    0.4307        0.8965        0.0000        3.8512        3.8512       2.954721       0.25065
  40    0.5894        0.8965        0.0000        3.8465        3.8465       2.949994       0.25136
  39     1.339        0.8965        0.0000        3.8251        3.8251       2.928617       0.24067
  38     1.782        0.8965        0.0000        3.8133        3.8133       2.916803       0.22492
  37     2.292        0.8965        0.0000        3.8003        3.8003       2.903740       0.21635
  36     2.964        0.8965        0.0000        3.7841        3.7841       2.887609       0.20249
  35     3.853        0.8965        0.0000        3.7642        3.7642       2.867691       0.18902
  34     5.035        0.8965        0.0000        3.7395        3.7395       2.842997       0.17641
  33     6.613        0.8965        0.0000        3.7090        3.7090       2.812456       0.16327
  32     8.786        0.8966        0.0000        3.6726        3.6726       2.776056       0.14136
  31     11.80        0.8966        0.0000        3.6320        3.6320       2.735451       0.11368
  30     15.07        0.8966        0.0000        3.6016        3.6016       2.705056       0.07847
  29     18.79        0.8966        0.0000        3.5777        3.5777       2.681145       0.05421
  28     23.16        0.8966        0.0000        3.5564        3.5564       2.659776       0.04132
  27     28.12        0.8966        0.0000        3.5348        3.5348       2.638212       0.03666
  26     33.73        0.8967        0.0000        3.5118        3.5118       2.615158       0.03466
  25     40.54        0.8967        0.0000        3.4849        3.4849       2.588245       0.03339
  24     48.69        0.8967        0.0000        3.4537        3.4537       2.556961       0.03237
  23     57.69        0.8968        0.0000        3.4210        3.4210       2.524254       0.03066
  22     68.43        0.8968        0.0000        3.3844        3.3844       2.487626       0.02879
  21     81.20        0.8969        0.0000        3.3441        3.3441       2.447278       0.02666
  20     96.49        0.8969        0.0000        3.2998        3.2998       2.402852       0.02452
  19     114.6        0.8970        0.0000        3.2506        3.2507       2.353628       0.02298
  18     136.5        0.8971        0.0000        3.1936        3.1936       2.296471       0.02198
  17     162.9        0.8973        0.0000        3.1181        3.1181       2.220785       0.02419
  16     196.4        0.8977        0.0000        3.0090        3.0090       2.111244       0.02757
  15     218.7        0.8980        0.0000        2.9420        2.9420       2.043979       0.02554
  14     243.0        0.8985        0.0000        2.8605        2.8605       1.962034       0.02842
  13     269.0        0.8992        0.0000        2.7419        2.7420       1.842811       0.03868
  12     297.5        0.9003        0.0000        2.5729        2.5729       1.672548       0.05050
  11     328.5        0.9022        0.0000        2.3602        2.3602       1.458001       0.05833
  10     361.9        0.9050        0.0000        2.1524        2.1524       1.247402       0.05328
   9     398.1        0.9090        0.0000        1.9974        1.9974       1.088390       0.03705
   8     437.6        0.9146        0.0000        1.8835        1.8835       0.968905       0.02555
   7     480.5        0.9226        0.0000        1.7734        1.7735       0.850881       0.02318
   6     533.0        0.9356        0.0000        1.6397        1.6398       0.704198       0.02360
   5     589.8        0.9542        0.0000        1.5068        1.5069       0.552669       0.02249
   4     651.6        0.9817        0.0000        1.3807        1.3807       0.399037       0.02101
   3     718.7        1.0185        0.0000        1.2680        1.2681       0.249568       0.01878
   2     792.3        1.0648        0.0000        1.1659        1.1660       0.101236       0.01701
   1     891.5        0.0133        0.0639        0.0000        0.0639       0.050631       0.00431
   0    1013.0        0.0146        0.0581        0.0000        0.0581       0.043535       0.00049

  Modules and versions used in this calculation:

       rrtmg_sw.1col.f90:  $Revision$                    rrtmg_sw_init.f90:  $Revision$        
     rrtmgsw_cldprop.f90:  $Revision$                  rrtmgsw_cldprmc.f90:  NOT USED          
     rrtmg_sw_reftra.f90:  $Revision$                  rrtmg_sw_spcvrt.f90:  NOT USED          
     rrtmg_sw_spcvmc.f90:  NOT USED                    rrtmgsw_setcoef.f90:  NOT USED          
     rrtmg_sw_taumol.f90:  $Revision$                  rrtmg_sw_vrtqdr.f90:  NOT USED          
                rrtatm.f:  NOT USED                             util_xxx.f:  NOT USED          
                 extra.f:  NOT USED                       rrtmg_sw_k_g.f90:  $Revision$        

