

 Wavenumbers:   820. - 50000. cm-1, ATM      1
 LEVEL PRESSURE   UPWARD FLUX   DIFDOWN FLUX  DIRDOWN FLUX  DOWNWARD FLUX   NET FLUX    HEATING RATE
          mb          W/m2          W/m2          W/m2        W/m2          W/m2       degree/day
  51    .06700      219.4351        0.0000      397.8738      397.8738     178.438646       0.00000
  50    .07753      219.4345        0.0012      397.8577      397.8589     178.424359      11.45113
  49    .09103      219.4338        0.0026      397.8418      397.8445     178.410677       8.55181
  48    0.1069      219.4329        0.0043      397.8230      397.8273     178.394337       8.69774
  47    0.1255      219.4320        0.0062      397.7997      397.8059     178.373905       9.26283
  46    0.1487      219.4308        0.0087      397.7676      397.7763     178.345464      10.36728
  45    0.1794      219.4293        0.0120      397.7205      397.7325     178.303196      11.60338
  44    0.2165      219.4275        0.0159      397.6602      397.6761     178.248581      12.42390
  43    0.2613      219.4256        0.0205      397.5829      397.6034     178.177830      13.33637
  42    0.3336      219.4225        0.0281      397.4449      397.4729     178.050477      14.84805
  41    0.4307      219.4186        0.0380      397.2524      397.2904     177.871738      15.54096
  40    0.5894      219.4130        0.0540      396.9253      396.9793     177.566268      16.24450
  39     1.339      219.3974        0.1254      395.4254      395.5507     176.153348      15.90692
  38     1.782      219.3955        0.1654      394.7288      394.8942     175.498634      12.46469
  37     2.292      219.3998        0.2109      394.0572      394.2681     174.868272      10.44044
  36     2.964      219.4150        0.2701      393.3007      393.5708     174.155742       8.94441
  35     3.853      219.4483        0.3474      392.4318      392.7792     173.330852       7.82836
  34     5.035      219.5057        0.4491      391.4441      391.8931     172.387468       6.73914
  33     6.613      219.5895        0.5838      390.3268      390.9105     171.320997       5.70136
  32     8.786      219.6974        0.7639      389.0624      389.8263     170.128954       4.62946
  31     11.80      219.8295        1.0196      387.5500      388.5696     168.740020       3.88858
  30     15.07      219.9456        1.2918      386.1556      387.4474     167.501842       3.19674
  29     18.79      220.0537        1.5970      384.7502      386.3471     166.293480       2.73973
  28     23.16      220.1533        1.9505      383.2686      385.2191     165.065744       2.37404
  27     28.12      220.2363        2.3514      381.7329      384.0843     163.847997       2.07009
  26     33.73      220.2836        2.7968      380.1982      382.9950     162.711373       1.70894
  25     40.54      220.2880        3.3309      378.5384      381.8693     161.581288       1.40200
  24     48.69      220.2429        3.9691      376.7214      380.6906     160.447653       1.17314
  23     57.69      220.1451        4.6635      374.8959      379.5594     159.414343       0.96857
  22     68.43      219.9768        5.4821      372.8999      378.3821     158.405241       0.79329
  21     81.20      219.7048        6.4469      370.7496      377.1966     157.491710       0.60365
  20     96.49      219.3164        7.5819      368.4056      375.9875     156.671070       0.45293
  19     114.6      218.8349        8.9075      365.7513      374.6588     155.823839       0.39560
  18     136.5      218.2513       10.4469      362.7231      373.1700     154.918710       0.34804
  17     162.9      217.5505       12.2362      359.1748      371.4110     153.860559       0.33823
  16     196.4      216.6179       14.4920      354.5718      369.0639     152.445989       0.35606
  15     218.7      216.0029       15.9347      351.4437      367.3784     151.375480       0.40643
  14     243.0      215.3402       17.4690      347.7111      365.1802     149.839961       0.53257
  13     269.0      214.6312       19.0932      342.9441      362.0374     147.406163       0.78951
  12     297.5      213.8784       20.8051      337.4137      358.2188     144.340371       0.90928
  11     328.5      213.0879       22.6061      331.1302      353.7363     140.648437       1.00383
  10     361.9      212.2665       24.4908      324.1219      348.6127     136.346194       1.08851
   9     398.1      211.4205       26.4585      316.6066      343.0651     131.644544       1.09538
   8     437.6      210.5641       28.5045      308.5895      337.0940     126.529887       1.09355
   7     480.5      209.7225       30.6230      299.9349      330.5579     120.835440       1.11837
   6     533.0      208.8078       33.1315      289.7021      322.8336     114.025802       1.09545
   5     589.8      207.9922       35.7197      279.3388      315.0585     107.066289       1.03302
   4     651.6      207.3588       38.3753      268.7786      307.1539      99.795090       0.99436
   3     718.7      206.9743       41.0892      258.2837      299.3729      92.398550       0.92954
   2     792.3      206.9239       43.8472      248.0774      291.9246      85.000691       0.84845
   1     891.5      102.0885      160.1436       21.4882      181.6318      79.543275       0.46440
   0    1013.0      102.1526      157.8018       20.2065      178.0083      75.855667       0.25605



 Wavenumbers:  2600. -  3250. cm-1, ATM      1
 LEVEL PRESSURE   UPWARD FLUX   DIFDOWN FLUX  DIRDOWN FLUX  DOWNWARD FLUX   NET FLUX    HEATING RATE
          mb          W/m2          W/m2          W/m2        W/m2          W/m2       degree/day
  51    .06700        0.6678        0.0000        3.5066        3.5066       2.838857       0.00000
  50    .07753        0.6678        0.0000        3.5066        3.5066       2.838849       0.00640
  49    .09103        0.6678        0.0000        3.5066        3.5066       2.838839       0.00627
  48    0.1069        0.6678        0.0000        3.5066        3.5066       2.838827       0.00613
  47    0.1255        0.6678        0.0000        3.5066        3.5066       2.838814       0.00599
  46    0.1487        0.6678        0.0000        3.5066        3.5066       2.838797       0.00607
  45    0.1794        0.6678        0.0000        3.5065        3.5065       2.838774       0.00624
  44    0.2165        0.6678        0.0000        3.5065        3.5065       2.838748       0.00611
  43    0.2613        0.6678        0.0000        3.5065        3.5065       2.838716       0.00598
  42    0.3336        0.6678        0.0000        3.5064        3.5064       2.838663       0.00615
  41    0.4307        0.6678        0.0000        3.5064        3.5064       2.838592       0.00618
  40    0.5894        0.6678        0.0000        3.5062        3.5062       2.838473       0.00633
  39     1.339        0.6678        0.0000        3.5055        3.5055       2.837774       0.00787
  38     1.782        0.6678        0.0000        3.5050        3.5050       2.837243       0.01011
  37     2.292        0.6678        0.0000        3.5043        3.5043       2.836551       0.01147
  36     2.964        0.6678        0.0000        3.5033        3.5033       2.835559       0.01245
  35     3.853        0.6678        0.0000        3.5019        3.5019       2.834182       0.01307
  34     5.035        0.6678        0.0000        3.5001        3.5001       2.832321       0.01329
  33     6.613        0.6678        0.0000        3.4977        3.4977       2.829912       0.01288
  32     8.786        0.6678        0.0000        3.4947        3.4947       2.826941       0.01154
  31     11.80        0.6678        0.0000        3.4911        3.4911       2.823305       0.01018
  30     15.07        0.6678        0.0000        3.4878        3.4878       2.820083       0.00832
  29     18.79        0.6678        0.0000        3.4848        3.4848       2.817019       0.00695
  28     23.16        0.6678        0.0000        3.4816        3.4816       2.813798       0.00623
  27     28.12        0.6678        0.0000        3.4779        3.4779       2.810179       0.00615
  26     33.73        0.6678        0.0000        3.4735        3.4735       2.805710       0.00672
  25     40.54        0.6678        0.0000        3.4671        3.4671       2.799380       0.00785
  24     48.69        0.6678        0.0000        3.4582        3.4583       2.790480       0.00921
  23     57.69        0.6678        0.0000        3.4472        3.4472       2.779424       0.01036
  22     68.43        0.6678        0.0000        3.4329        3.4329       2.765153       0.01122
  21     81.20        0.6678        0.0000        3.4152        3.4152       2.747408       0.01173
  20     96.49        0.6678        0.0000        3.3940        3.3941       2.726240       0.01168
  19     114.6        0.6679        0.0000        3.3692        3.3692       2.701317       0.01164
  18     136.5        0.6679        0.0001        3.3419        3.3420       2.674051       0.01048
  17     162.9        0.6680        0.0001        3.3129        3.3129       2.644903       0.00932
  16     196.4        0.6682        0.0001        3.2793        3.2794       2.611196       0.00848
  15     218.7        0.6684        0.0001        3.2578        3.2578       2.589448       0.00826
  14     243.0        0.6687        0.0001        3.2320        3.2321       2.563371       0.00904
  13     269.0        0.6691        0.0001        3.1968        3.1969       2.527788       0.01154
  12     297.5        0.6699        0.0001        3.1489        3.1491       2.479191       0.01441
  11     328.5        0.6710        0.0001        3.0821        3.0822       2.411225       0.01848
  10     361.9        0.6726        0.0001        2.9902        2.9904       2.317801       0.02364
   9     398.1        0.6749        0.0001        2.8715        2.8716       2.196738       0.02821
   8     437.6        0.6782        0.0001        2.7276        2.7278       2.049560       0.03147
   7     480.5        0.6833        0.0002        2.5595        2.5597       1.876407       0.03401
   6     533.0        0.6918        0.0002        2.3617        2.3619       1.670149       0.03318
   5     589.8        0.7042        0.0002        2.1649        2.1651       1.460870       0.03106
   4     651.6        0.7227        0.0002        1.9608        1.9609       1.238186       0.03045
   3     718.7        0.7492        0.0002        1.7593        1.7595       1.010332       0.02864
   2     792.3        0.7859        0.0002        1.5761        1.5762       0.790317       0.02523
   1     891.5        0.0616        0.5794        0.1251        0.7045       0.642964       0.01254
   0    1013.0        0.0673        0.5207        0.1057        0.6264       0.559152       0.00582



 Wavenumbers:  3250. -  4000. cm-1, ATM      1
 LEVEL PRESSURE   UPWARD FLUX   DIFDOWN FLUX  DIRDOWN FLUX  DOWNWARD FLUX   NET FLUX    HEATING RATE
          mb          W/m2          W/m2          W/m2        W/m2          W/m2       degree/day
  51    .06700        0.0044        0.0000        5.9117        5.9117       5.907267       0.00000
  50    .07753        0.0044        0.0000        5.9075        5.9075       5.903077       3.35808
  49    .09103        0.0044        0.0000        5.9050        5.9050       5.900634       1.52677
  48    0.1069        0.0044        0.0000        5.9032        5.9032       5.898768       0.99346
  47    0.1255        0.0044        0.0000        5.9014        5.9014       5.897010       0.79708
  46    0.1487        0.0044        0.0000        5.8995        5.8995       5.895121       0.68848
  45    0.1794        0.0044        0.0000        5.8974        5.8974       5.892973       0.58983
  44    0.2165        0.0044        0.0000        5.8952        5.8952       5.890856       0.48155
  43    0.2613        0.0044        0.0000        5.8931        5.8931       5.888697       0.40696
  42    0.3336        0.0044        0.0000        5.8899        5.8899       5.885539       0.36820
  41    0.4307        0.0044        0.0000        5.8861        5.8861       5.881701       0.33365
  40    0.5894        0.0044        0.0000        5.8803        5.8803       5.875899       0.30857
  39     1.339        0.0044        0.0000        5.8597        5.8597       5.855301       0.23189
  38     1.782        0.0044        0.0000        5.8513        5.8513       5.846877       0.16039
  37     2.292        0.0044        0.0000        5.8431        5.8431       5.838706       0.13533
  36     2.964        0.0044        0.0000        5.8334        5.8334       5.829066       0.12100
  35     3.853        0.0044        0.0000        5.8213        5.8213       5.816891       0.11555
  34     5.035        0.0044        0.0000        5.8052        5.8052       5.800795       0.11498
  33     6.613        0.0044        0.0000        5.7833        5.7834       5.778974       0.11666
  32     8.786        0.0044        0.0000        5.7531        5.7531       5.748773       0.11729
  31     11.80        0.0044        0.0000        5.7090        5.7090       5.704604       0.12366
  30     15.07        0.0044        0.0000        5.6615        5.6615       5.657139       0.12254
  29     18.79        0.0044        0.0000        5.6093        5.6094       5.605003       0.11821
  28     23.16        0.0044        0.0000        5.5524        5.5524       5.548078       0.11008
  27     28.12        0.0043        0.0000        5.4935        5.4935       5.489199       0.10009
  26     33.73        0.0043        0.0000        5.4348        5.4349       5.430510       0.08824
  25     40.54        0.0043        0.0001        5.3707        5.3708       5.366448       0.07948
  24     48.69        0.0043        0.0001        5.2985        5.2985       5.294215       0.07475
  23     57.69        0.0043        0.0001        5.2215        5.2216       5.217276       0.07212
  22     68.43        0.0043        0.0001        5.1318        5.1319       5.127616       0.07048
  21     81.20        0.0043        0.0001        5.0284        5.0285       5.024187       0.06834
  20     96.49        0.0043        0.0001        4.9122        4.9123       4.908053       0.06410
  19     114.6        0.0042        0.0001        4.7780        4.7782       4.773942       0.06262
  18     136.5        0.0042        0.0002        4.6285        4.6287       4.624463       0.05748
  17     162.9        0.0042        0.0002        4.4406        4.4407       4.436551       0.06006
  16     196.4        0.0042        0.0002        4.1548        4.1550       4.150877       0.07191
  15     218.7        0.0041        0.0002        3.9564        3.9566       3.952495       0.07532
  14     243.0        0.0041        0.0002        3.7055        3.7058       3.701658       0.08700
  13     269.0        0.0041        0.0002        3.3399        3.3401       3.336014       0.11861
  12     297.5        0.0041        0.0002        2.8954        2.8956       2.891513       0.13183
  11     328.5        0.0041        0.0002        2.4388        2.4390       2.434949       0.12414
  10     361.9        0.0041        0.0002        2.0269        2.0271       2.022969       0.10424
   9     398.1        0.0042        0.0002        1.6753        1.6755       1.671307       0.08193
   8     437.6        0.0043        0.0002        1.3592        1.3594       1.355060       0.06762
   7     480.5        0.0045        0.0002        1.0616        1.0618       1.057244       0.05849
   6     533.0        0.0050        0.0001        0.7543        0.7544       0.749430       0.04952
   5     589.8        0.0059        0.0001        0.4951        0.4952       0.489352       0.03860
   4     651.6        0.0076        0.0001        0.2943        0.2943       0.286731       0.02771
   3     718.7        0.0110        0.0001        0.1528        0.1529       0.141842       0.01821
   2     792.3        0.0180        0.0000        0.0658        0.0658       0.047853       0.01078
   1     891.5        0.0001        0.0086        0.0014        0.0101       0.010007       0.00322
   0    1013.0        0.0002        0.0021        0.0001        0.0022       0.001947       0.00056



 Wavenumbers:  4000. -  4650. cm-1, ATM      1
 LEVEL PRESSURE   UPWARD FLUX   DIFDOWN FLUX  DIRDOWN FLUX  DOWNWARD FLUX   NET FLUX    HEATING RATE
          mb          W/m2          W/m2          W/m2        W/m2          W/m2       degree/day
  51    .06700        2.3743        0.0000        6.9421        6.9421       4.567724       0.00000
  50    .07753        2.3743        0.0000        6.9421        6.9421       4.567723       0.00079
  49    .09103        2.3743        0.0000        6.9421        6.9421       4.567722       0.00078
  48    0.1069        2.3743        0.0000        6.9421        6.9421       4.567720       0.00076
  47    0.1255        2.3743        0.0000        6.9421        6.9421       4.567718       0.00074
  46    0.1487        2.3743        0.0000        6.9421        6.9421       4.567716       0.00075
  45    0.1794        2.3743        0.0000        6.9421        6.9421       4.567714       0.00077
  44    0.2165        2.3743        0.0000        6.9421        6.9421       4.567710       0.00076
  43    0.2613        2.3743        0.0000        6.9420        6.9420       4.567706       0.00074
  42    0.3336        2.3743        0.0000        6.9420        6.9420       4.567700       0.00076
  41    0.4307        2.3743        0.0000        6.9420        6.9420       4.567691       0.00077
  40    0.5894        2.3743        0.0000        6.9420        6.9420       4.567676       0.00079
  39     1.339        2.3743        0.0000        6.9419        6.9419       4.567587       0.00100
  38     1.782        2.3743        0.0000        6.9418        6.9419       4.567518       0.00132
  37     2.292        2.3743        0.0000        6.9418        6.9418       4.567424       0.00155
  36     2.964        2.3743        0.0000        6.9416        6.9416       4.567285       0.00175
  35     3.853        2.3743        0.0000        6.9414        6.9414       4.567078       0.00196
  34     5.035        2.3743        0.0000        6.9411        6.9411       4.566774       0.00218
  33     6.613        2.3743        0.0000        6.9406        6.9407       4.566326       0.00239
  32     8.786        2.3743        0.0000        6.9399        6.9400       4.565665       0.00256
  31     11.80        2.3743        0.0000        6.9389        6.9389       4.564630       0.00290
  30     15.07        2.3743        0.0001        6.9377        6.9377       4.563419       0.00313
  29     18.79        2.3743        0.0001        6.9362        6.9363       4.561959       0.00331
  28     23.16        2.3743        0.0001        6.9343        6.9344       4.560154       0.00349
  27     28.12        2.3743        0.0001        6.9321        6.9323       4.557978       0.00370
  26     33.73        2.3743        0.0001        6.9294        6.9296       4.555307       0.00402
  25     40.54        2.3743        0.0002        6.9258        6.9260       4.551704       0.00447
  24     48.69        2.3743        0.0002        6.9210        6.9212       4.546934       0.00494
  23     57.69        2.3743        0.0002        6.9154        6.9156       4.541321       0.00526
  22     68.43        2.3743        0.0003        6.9083        6.9086       4.534339       0.00549
  21     81.20        2.3743        0.0003        6.8998        6.9001       4.525798       0.00564
  20     96.49        2.3744        0.0004        6.8894        6.8898       4.515476       0.00570
  19     114.6        2.3745        0.0005        6.8765        6.8770       4.502543       0.00604
  18     136.5        2.3746        0.0005        6.8610        6.8615       4.486927       0.00600
  17     162.9        2.3748        0.0007        6.8417        6.8423       4.467476       0.00622
  16     196.4        2.3753        0.0008        6.8147        6.8155       4.440148       0.00688
  15     218.7        2.3757        0.0009        6.7948        6.7957       4.419989       0.00765
  14     243.0        2.3764        0.0010        6.7698        6.7707       4.394389       0.00888
  13     269.0        2.3774        0.0011        6.7349        6.7359       4.358530       0.01163
  12     297.5        2.3790        0.0012        6.6869        6.6880       4.309076       0.01467
  11     328.5        2.3812        0.0013        6.6194        6.6207       4.239468       0.01893
  10     361.9        2.3842        0.0014        6.5295        6.5309       4.146711       0.02347
   9     398.1        2.3881        0.0015        6.4202        6.4217       4.033663       0.02634
   8     437.6        2.3933        0.0017        6.2962        6.2978       3.904484       0.02762
   7     480.5        2.4007        0.0018        6.1555        6.1573       3.756605       0.02904
   6     533.0        2.4127        0.0019        5.9675        5.9695       3.556774       0.03215
   5     589.8        2.4304        0.0021        5.7368        5.7388       3.308437       0.03686
   4     651.6        2.4568        0.0022        5.4662        5.4685       3.011674       0.04058
   3     718.7        2.4943        0.0024        5.1912        5.1936       2.699257       0.03926
   2     792.3        2.5458        0.0025        4.9395        4.9420       2.396237       0.03475
   1     891.5        0.1579        1.9220        0.4242        2.3462       2.188295       0.01769
   0    1013.0        0.1640        1.8340        0.3940        2.2280       2.063988       0.00863



 Wavenumbers:  4650. -  5150. cm-1, ATM      1
 LEVEL PRESSURE   UPWARD FLUX   DIFDOWN FLUX  DIRDOWN FLUX  DOWNWARD FLUX   NET FLUX    HEATING RATE
          mb          W/m2          W/m2          W/m2        W/m2          W/m2       degree/day
  51    .06700        1.6604        0.0000        6.5710        6.5710       4.910589       0.00000
  50    .07753        1.6604        0.0000        6.5708        6.5708       4.910353       0.18887
  49    .09103        1.6604        0.0000        6.5705        6.5705       4.910060       0.18362
  48    0.1069        1.6604        0.0000        6.5701        6.5701       4.909725       0.17806
  47    0.1255        1.6604        0.0000        6.5697        6.5697       4.909345       0.17238
  46    0.1487        1.6604        0.0000        6.5693        6.5693       4.908871       0.17268
  45    0.1794        1.6604        0.0000        6.5686        6.5686       4.908235       0.17473
  44    0.2165        1.6604        0.0000        6.5679        6.5679       4.907497       0.16788
  43    0.2613        1.6604        0.0000        6.5670        6.5670       4.906644       0.16078
  42    0.3336        1.6604        0.0000        6.5657        6.5657       4.905280       0.15894
  41    0.4307        1.6604        0.0000        6.5640        6.5640       4.903559       0.14971
  40    0.5894        1.6604        0.0000        6.5613        6.5613       4.900942       0.13913
  39     1.339        1.6604        0.0000        6.5516        6.5516       4.891165       0.11008
  38     1.782        1.6604        0.0000        6.5473        6.5473       4.886949       0.08027
  37     2.292        1.6604        0.0000        6.5434        6.5435       4.883061       0.06438
  36     2.964        1.6604        0.0000        6.5395        6.5395       4.879107       0.04964
  35     3.853        1.6604        0.0000        6.5355        6.5356       4.875163       0.03742
  34     5.035        1.6604        0.0000        6.5315        6.5315       4.871160       0.02860
  33     6.613        1.6604        0.0000        6.5271        6.5271       4.866764       0.02350
  32     8.786        1.6604        0.0001        6.5216        6.5216       4.861267       0.02135
  31     11.80        1.6604        0.0001        6.5135        6.5135       4.853183       0.02263
  30     15.07        1.6604        0.0001        6.5041        6.5042       4.843807       0.02421
  29     18.79        1.6604        0.0001        6.4925        6.4926       4.832282       0.02613
  28     23.16        1.6604        0.0001        6.4779        6.4780       4.817676       0.02824
  27     28.12        1.6604        0.0002        6.4599        6.4600       4.799682       0.03059
  26     33.73        1.6604        0.0002        6.4384        6.4386       4.778226       0.03226
  25     40.54        1.6604        0.0002        6.4112        6.4115       4.751065       0.03370
  24     48.69        1.6604        0.0003        6.3775        6.3778       4.717379       0.03486
  23     57.69        1.6605        0.0003        6.3404        6.3407       4.680225       0.03483
  22     68.43        1.6606        0.0004        6.2971        6.2975       4.636950       0.03402
  21     81.20        1.6607        0.0005        6.2483        6.2487       4.588018       0.03233
  20     96.49        1.6609        0.0006        6.1948        6.1954       4.534486       0.02955
  19     114.6        1.6612        0.0007        6.1381        6.1388       4.477630       0.02655
  18     136.5        1.6616        0.0008        6.0790        6.0798       4.418218       0.02285
  17     162.9        1.6621        0.0009        6.0160        6.0170       4.354836       0.02026
  16     196.4        1.6630        0.0011        5.9399        5.9410       4.277940       0.01936
  15     218.7        1.6638        0.0012        5.8896        5.8909       4.227088       0.01931
  14     243.0        1.6647        0.0013        5.8322        5.8335       4.168787       0.02022
  13     269.0        1.6662        0.0015        5.7624        5.7639       4.097725       0.02305
  12     297.5        1.6682        0.0016        5.6767        5.6784       4.010170       0.02597
  11     328.5        1.6710        0.0018        5.5726        5.5744       3.903400       0.02903
  10     361.9        1.6747        0.0019        5.4473        5.4492       3.774509       0.03261
   9     398.1        1.6798        0.0021        5.2995        5.3016       3.621738       0.03559
   8     437.6        1.6866        0.0022        5.1275        5.1297       3.443037       0.03821
   7     480.5        1.6960        0.0024        4.9290        4.9313       3.235339       0.04079
   6     533.0        1.7108        0.0025        4.6794        4.6819       2.971085       0.04251
   5     589.8        1.7316        0.0027        4.4188        4.4215       2.689850       0.04174
   4     651.6        1.7612        0.0028        4.1521        4.1549       2.393727       0.04050
   3     718.7        1.8016        0.0030        3.8929        3.8959       2.094323       0.03763
   2     792.3        1.8557        0.0031        3.6469        3.6500       1.794233       0.03442
   1     891.5        0.1144        1.3939        0.3060        1.6998       1.585431       0.01777
   0    1013.0        0.1203        1.3096        0.2772        1.5868       1.466503       0.00826



 Wavenumbers:  5150. -  6150. cm-1, ATM      1
 LEVEL PRESSURE   UPWARD FLUX   DIFDOWN FLUX  DIRDOWN FLUX  DOWNWARD FLUX   NET FLUX    HEATING RATE
          mb          W/m2          W/m2          W/m2        W/m2          W/m2       degree/day
  51    .06700        4.1399        0.0000       16.4735       16.4735      12.333631       0.00000
  50    .07753        4.1399        0.0000       16.4735       16.4735      12.333596       0.02762
  49    .09103        4.1399        0.0000       16.4734       16.4734      12.333551       0.02812
  48    0.1069        4.1399        0.0000       16.4734       16.4734      12.333497       0.02861
  47    0.1255        4.1399        0.0000       16.4733       16.4733      12.333433       0.02906
  46    0.1487        4.1399        0.0000       16.4732       16.4732      12.333349       0.03061
  45    0.1794        4.1399        0.0000       16.4731       16.4731      12.333230       0.03270
  44    0.2165        4.1399        0.0000       16.4730       16.4730      12.333084       0.03332
  43    0.2613        4.1399        0.0000       16.4728       16.4728      12.332904       0.03377
  42    0.3336        4.1399        0.0000       16.4725       16.4725      12.332599       0.03566
  41    0.4307        4.1399        0.0000       16.4720       16.4720      12.332179       0.03647
  40    0.5894        4.1399        0.0000       16.4713       16.4713      12.331478       0.03730
  39     1.339        4.1399        0.0000       16.4679       16.4679      12.328067       0.03839
  38     1.782        4.1398        0.0000       16.4659       16.4659      12.326067       0.03809
  37     2.292        4.1398        0.0001       16.4635       16.4636      12.323773       0.03798
  36     2.964        4.1398        0.0001       16.4605       16.4606      12.320801       0.03731
  35     3.853        4.1398        0.0001       16.4567       16.4568      12.316944       0.03661
  34     5.035        4.1398        0.0001       16.4516       16.4517      12.311941       0.03574
  33     6.613        4.1398        0.0002       16.4451       16.4452      12.305472       0.03459
  32     8.786        4.1397        0.0002       16.4367       16.4369      12.297147       0.03233
  31     11.80        4.1397        0.0003       16.4254       16.4257      12.285975       0.03128
  30     15.07        4.1397        0.0004       16.4141       16.4145      12.274865       0.02869
  29     18.79        4.1396        0.0005       16.4024       16.4029      12.263314       0.02619
  28     23.16        4.1396        0.0006       16.3900       16.3906      12.251017       0.02378
  27     28.12        4.1396        0.0008       16.3771       16.3779      12.238309       0.02160
  26     33.73        4.1395        0.0009       16.3641       16.3650      12.225527       0.01922
  25     40.54        4.1395        0.0011       16.3502       16.3513      12.211812       0.01702
  24     48.69        4.1395        0.0013       16.3354       16.3367      12.197238       0.01508
  23     57.69        4.1394        0.0016       16.3211       16.3227      12.183217       0.01314
  22     68.43        4.1394        0.0019       16.3062       16.3081      12.168677       0.01143
  21     81.20        4.1394        0.0022       16.2903       16.2925      12.153094       0.01030
  20     96.49        4.1395        0.0026       16.2726       16.2753      12.135786       0.00955
  19     114.6        4.1395        0.0031       16.2521       16.2552      12.115685       0.00939
  18     136.5        4.1396        0.0037       16.2245       16.2283      12.088671       0.01039
  17     162.9        4.1397        0.0044       16.1747       16.1791      12.039446       0.01573
  16     196.4        4.1399        0.0053       16.0518       16.0571      11.917233       0.03076
  15     218.7        4.1401        0.0059       15.8984       15.9042      11.764159       0.05812
  14     243.0        4.1403        0.0064       15.6153       15.6217      11.481346       0.09809
  13     269.0        4.1408        0.0070       15.1390       15.1459      11.005174       0.15447
  12     297.5        4.1415        0.0075       14.5779       14.5854      10.443857       0.16648
  11     328.5        4.1427        0.0080       13.8780       13.8860       9.743281       0.19048
  10     361.9        4.1446        0.0084       13.0814       13.0899       8.945266       0.20191
   9     398.1        4.1474        0.0088       12.2728       12.2817       8.134244       0.18895
   8     437.6        4.1517        0.0092       11.4776       11.4867       7.335057       0.17087
   7     480.5        4.1584        0.0095       10.7300       10.7395       6.581100       0.14807
   6     533.0        4.1704        0.0099       10.0326       10.0425       5.872080       0.11406
   5     589.8        4.1898        0.0104        9.5050        9.5154       5.325672       0.08110
   4     651.6        4.2210        0.0110        9.0814        9.0924       4.871361       0.06213
   3     718.7        4.2691        0.0117        8.7024        8.7142       4.445091       0.05357
   2     792.3        4.3400        0.0125        8.3379        8.3505       4.010445       0.04985
   1     891.5        0.3000        3.2815        0.7215        4.0030       3.702986       0.02616
   0    1013.0        0.3075        3.1579        0.6821        3.8400       3.532529       0.01184



 Wavenumbers:  6150. -  7700. cm-1, ATM      1
 LEVEL PRESSURE   UPWARD FLUX   DIFDOWN FLUX  DIRDOWN FLUX  DOWNWARD FLUX   NET FLUX    HEATING RATE
          mb          W/m2          W/m2          W/m2        W/m2          W/m2       degree/day
  51    .06700        6.4457        0.0000       30.4684       30.4684      24.022638       0.00000
  50    .07753        6.4457        0.0000       30.4683       30.4683      24.022587       0.04144
  49    .09103        6.4457        0.0000       30.4683       30.4683      24.022520       0.04174
  48    0.1069        6.4457        0.0000       30.4682       30.4682      24.022441       0.04202
  47    0.1255        6.4457        0.0000       30.4681       30.4681      24.022348       0.04227
  46    0.1487        6.4457        0.0000       30.4680       30.4680      24.022227       0.04411
  45    0.1794        6.4457        0.0000       30.4678       30.4678      24.022057       0.04669
  44    0.2165        6.4457        0.0000       30.4676       30.4676      24.021849       0.04715
  43    0.2613        6.4457        0.0000       30.4673       30.4673      24.021598       0.04744
  42    0.3336        6.4457        0.0000       30.4669       30.4669      24.021171       0.04974
  41    0.4307        6.4457        0.0000       30.4663       30.4663      24.020590       0.05052
  40    0.5894        6.4457        0.0001       30.4653       30.4653      24.019622       0.05146
  39     1.339        6.4456        0.0001       30.4604       30.4606      24.014939       0.05273
  38     1.782        6.4456        0.0002       30.4576       30.4578      24.012189       0.05235
  37     2.292        6.4455        0.0003       30.4543       30.4546      24.009031       0.05231
  36     2.964        6.4455        0.0003       30.4501       30.4504      24.004923       0.05156
  35     3.853        6.4454        0.0004       30.4445       30.4450      23.999566       0.05084
  34     5.035        6.4453        0.0006       30.4373       30.4378      23.992566       0.05000
  33     6.613        6.4451        0.0008       30.4278       30.4285      23.983419       0.04890
  32     8.786        6.4449        0.0010       30.4154       30.4164      23.971466       0.04642
  31     11.80        6.4446        0.0013       30.3984       30.3997      23.955080       0.04587
  30     15.07        6.4443        0.0017       30.3810       30.3827      23.938366       0.04315
  29     18.79        6.4440        0.0021       30.3623       30.3644      23.920465       0.04059
  28     23.16        6.4436        0.0026       30.3417       30.3443      23.900782       0.03806
  27     28.12        6.4431        0.0032       30.3196       30.3228      23.879681       0.03587
  26     33.73        6.4426        0.0038       30.2965       30.3003      23.857762       0.03296
  25     40.54        6.4419        0.0046       30.2708       30.2754      23.833423       0.03019
  24     48.69        6.4412        0.0055       30.2423       30.2478      23.806645       0.02771
  23     57.69        6.4403        0.0066       30.2139       30.2204      23.780076       0.02490
  22     68.43        6.4393        0.0078       30.1834       30.1911      23.751798       0.02223
  21     81.20        6.4382        0.0092       30.1500       30.1592      23.721065       0.02031
  20     96.49        6.4367        0.0109       30.1126       30.1236      23.686841       0.01889
  19     114.6        6.4350        0.0130       30.0695       30.0825      23.647447       0.01839
  18     136.5        6.4331        0.0154       30.0139       30.0293      23.596277       0.01968
  17     162.9        6.4307        0.0183       29.9225       29.9408      23.510068       0.02756
  16     196.4        6.4277        0.0220       29.7333       29.7553      23.327609       0.04593
  15     218.7        6.4258        0.0244       29.5259       29.5502      23.124401       0.07715
  14     243.0        6.4239        0.0268       29.1375       29.1643      22.740424       0.13318
  13     269.0        6.4221        0.0292       28.3800       28.4092      21.987091       0.24438
  12     297.5        6.4208        0.0315       27.3895       27.4210      21.000188       0.29270
  11     328.5        6.4204        0.0336       26.2257       26.2593      19.838953       0.31574
  10     361.9        6.4214        0.0356       24.8453       24.8810      18.459563       0.34900
   9     398.1        6.4246        0.0374       23.3471       23.3844      16.959797       0.34941
   8     437.6        6.4315        0.0389       21.7966       21.8355      15.403983       0.33264
   7     480.5        6.4448        0.0401       20.1977       20.2378      13.792971       0.31640
   6     533.0        6.4718        0.0413       18.4969       18.5383      12.066509       0.27773
   5     589.8        6.5176        0.0426       16.9754       17.0180      10.500418       0.23246
   4     651.6        6.5940        0.0439       15.6022       15.6460       9.051999       0.19808
   3     718.7        6.7125        0.0453       14.4232       14.4685       7.755969       0.16287
   2     792.3        6.8881        0.0470       13.4386       13.4856       6.597445       0.13287
   1     891.5        0.4721        5.1787        1.1292        6.3079       5.835829       0.06481
   0    1013.0        0.4920        4.8741        1.0305        5.9046       5.412521       0.02939



 Wavenumbers:  7700. -  8050. cm-1, ATM      1
 LEVEL PRESSURE   UPWARD FLUX   DIFDOWN FLUX  DIRDOWN FLUX  DOWNWARD FLUX   NET FLUX    HEATING RATE
          mb          W/m2          W/m2          W/m2        W/m2          W/m2       degree/day
  51    .06700        3.1108        0.0000        7.2006        7.2006       4.089823       0.00000
  50    .07753        3.1108        0.0000        7.2006        7.2006       4.089803       0.01586
  49    .09103        3.1108        0.0000        7.2005        7.2005       4.089778       0.01554
  48    0.1069        3.1108        0.0000        7.2005        7.2005       4.089750       0.01522
  47    0.1255        3.1108        0.0000        7.2005        7.2005       4.089717       0.01489
  46    0.1487        3.1108        0.0000        7.2004        7.2005       4.089675       0.01511
  45    0.1794        3.1108        0.0000        7.2004        7.2004       4.089619       0.01555
  44    0.2165        3.1108        0.0000        7.2003        7.2003       4.089552       0.01525
  43    0.2613        3.1108        0.0000        7.2003        7.2003       4.089472       0.01497
  42    0.3336        3.1108        0.0000        7.2001        7.2001       4.089341       0.01531
  41    0.4307        3.1108        0.0000        7.2000        7.2000       4.089167       0.01514
  40    0.5894        3.1108        0.0000        7.1997        7.1997       4.088882       0.01513
  39     1.339        3.1110        0.0001        7.1984        7.1985       4.087537       0.01515
  38     1.782        3.1110        0.0001        7.1977        7.1978       4.086747       0.01504
  37     2.292        3.1111        0.0001        7.1968        7.1969       4.085833       0.01514
  36     2.964        3.1112        0.0001        7.1957        7.1958       4.084633       0.01506
  35     3.853        3.1113        0.0002        7.1942        7.1944       4.083048       0.01504
  34     5.035        3.1115        0.0002        7.1922        7.1925       4.080945       0.01503
  33     6.613        3.1118        0.0003        7.1896        7.1899       4.078137       0.01501
  32     8.786        3.1121        0.0004        7.1860        7.1865       4.074359       0.01467
  31     11.80        3.1126        0.0006        7.1810        7.1815       4.068965       0.01510
  30     15.07        3.1131        0.0007        7.1755        7.1763       4.063189       0.01491
  29     18.79        3.1137        0.0009        7.1694        7.1703       4.056684       0.01475
  28     23.16        3.1143        0.0011        7.1623        7.1634       4.049111       0.01464
  27     28.12        3.1151        0.0014        7.1542        7.1556       4.040487       0.01466
  26     33.73        3.1160        0.0016        7.1452        7.1469       4.030881       0.01444
  25     40.54        3.1170        0.0019        7.1344        7.1364       4.019340       0.01432
  24     48.69        3.1183        0.0023        7.1215        7.1238       4.005521       0.01430
  23     57.69        3.1197        0.0028        7.1074        7.1102       3.990460       0.01412
  22     68.43        3.1214        0.0033        7.0909        7.0941       3.972683       0.01398
  21     81.20        3.1235        0.0039        7.0713        7.0752       3.951727       0.01385
  20     96.49        3.1259        0.0046        7.0484        7.0530       3.927067       0.01361
  19     114.6        3.1289        0.0054        7.0217        7.0271       3.898212       0.01347
  18     136.5        3.1324        0.0064        6.9906        6.9970       3.864581       0.01293
  17     162.9        3.1367        0.0076        6.9544        6.9620       3.825290       0.01256
  16     196.4        3.1424        0.0092        6.9087        6.9179       3.775498       0.01253
  15     218.7        3.1462        0.0102        6.8794        6.8896       3.743397       0.01219
  14     243.0        3.1504        0.0113        6.8481        6.8594       3.708984       0.01194
  13     269.0        3.1551        0.0125        6.8147        6.8272       3.672119       0.01196
  12     297.5        3.1602        0.0137        6.7791        6.7928       3.632587       0.01172
  11     328.5        3.1660        0.0151        6.7409        6.7561       3.590058       0.01156
  10     361.9        3.1725        0.0166        6.7002        6.7167       3.544253       0.01159
   9     398.1        3.1798        0.0182        6.6563        6.6744       3.494612       0.01157
   8     437.6        3.1882        0.0199        6.6089        6.6287       3.440541       0.01156
   7     480.5        3.1978        0.0217        6.5570        6.5786       3.380827       0.01173
   6     533.0        3.2108        0.0239        6.4915        6.5153       3.304531       0.01227
   5     589.8        3.2263        0.0262        6.4182        6.4445       3.218113       0.01283
   4     651.6        3.2451        0.0287        6.3359        6.3646       3.119510       0.01348
   3     718.7        3.2676        0.0314        6.2441        6.2755       3.007969       0.01402
   2     792.3        3.2940        0.0342        6.1437        6.1779       2.883908       0.01423
   1     891.5        0.2718        2.5127        0.5476        3.0603       2.788512       0.00812
   0    1013.0        0.2754        2.4698        0.5313        3.0011       2.725721       0.00436



 Wavenumbers:  8050. - 12850. cm-1, ATM      1
 LEVEL PRESSURE   UPWARD FLUX   DIFDOWN FLUX  DIRDOWN FLUX  DOWNWARD FLUX   NET FLUX    HEATING RATE
          mb          W/m2          W/m2          W/m2        W/m2          W/m2       degree/day
  51    .06700       43.7070        0.0000      100.8135      100.8135      57.106490       0.00000
  50    .07753       43.7070        0.0000      100.8135      100.8135      57.106490       0.00000
  49    .09103       43.7070        0.0001      100.8134      100.8135      57.106490      -0.00000
  48    0.1069       43.7070        0.0001      100.8134      100.8135      57.106490      -0.00000
  47    0.1255       43.7069        0.0001      100.8133      100.8134      57.106490       0.00000
  46    0.1487       43.7069        0.0002      100.8132      100.8134      57.106490      -0.00000
  45    0.1794       43.7068        0.0003      100.8131      100.8133      57.106490      -0.00000
  44    0.2165       43.7068        0.0004      100.8129      100.8133      57.106490       0.00000
  43    0.2613       43.7067        0.0005      100.8127      100.8132      57.106490       0.00000
  42    0.3336       43.7066        0.0006      100.8125      100.8131      57.106490      -0.00000
  41    0.4307       43.7065        0.0009      100.8121      100.8129      57.106490       0.00000
  40    0.5894       43.7062        0.0012      100.8115      100.8127      57.106490      -0.00000
  39     1.339       43.7050        0.0030      100.8085      100.8115      57.106490       0.00000
  38     1.782       43.7043        0.0041      100.8068      100.8108      57.106490      -0.00000
  37     2.292       43.7035        0.0053      100.8047      100.8100      57.106490       0.00000
  36     2.964       43.7025        0.0069      100.8021      100.8090      57.106490       0.00000
  35     3.853       43.7011        0.0090      100.7986      100.8076      57.106490      -0.00000
  34     5.035       43.6992        0.0118      100.7940      100.8057      57.106490       0.00000
  33     6.613       43.6968        0.0155      100.7878      100.8033      57.106490      -0.00000
  32     8.786       43.6934        0.0205      100.7794      100.7999      57.106490       0.00000
  31     11.80       43.6887        0.0277      100.7674      100.7951      57.106490      -0.00000
  30     15.07       43.6835        0.0355      100.7546      100.7900      57.106490       0.00000
  29     18.79       43.6777        0.0442      100.7400      100.7842      57.106490      -0.00000
  28     23.16       43.6709        0.0545      100.7230      100.7774      57.106490       0.00000
  27     28.12       43.6632        0.0662      100.7035      100.7697      57.106490       0.00000
  26     33.73       43.6545        0.0793      100.6817      100.7610      57.106490       0.00000
  25     40.54       43.6439        0.0952      100.6552      100.7504      57.106490       0.00000
  24     48.69       43.6312        0.1144      100.6234      100.7377      57.106490      -0.00000
  23     57.69       43.6172        0.1355      100.5883      100.7237      57.106490       0.00000
  22     68.43       43.6006        0.1606      100.5464      100.7071      57.106490       0.00000
  21     81.20       43.5807        0.1906      100.4965      100.6871      57.106490      -0.00000
  20     96.49       43.5569        0.2264      100.4370      100.6634      57.106490       0.00000
  19     114.6       43.5288        0.2690      100.3585      100.6275      57.098742       0.00362
  18     136.5       43.4953        0.3196      100.2634      100.5829      57.087597       0.00429
  17     162.9       43.4555        0.3799      100.1407      100.5205      57.065004       0.00722
  16     196.4       43.4040        0.4582       99.9505      100.4087      57.004746       0.01517
  15     218.7       43.3701        0.5097       99.7889      100.2986      56.928505       0.02895
  14     243.0       43.3336        0.5655       99.5472      100.1127      56.779117       0.05181
  13     269.0       43.2952        0.6258       99.1452       99.7710      56.475766       0.09841
  12     297.5       43.2559        0.6904       98.5975       99.2878      56.031973       0.13162
  11     328.5       43.2171        0.7596       97.8659       98.6255      55.408353       0.16956
  10     361.9       43.1814        0.8332       96.8848       97.7180      54.536562       0.22057
   9     398.1       43.1520        0.9109       95.6330       96.5439      53.391909       0.26668
   8     437.6       43.1349        0.9923       94.0655       95.0578      51.922896       0.31408
   7     480.5       43.1421        1.0765       92.0807       93.1572      50.015114       0.37468
   6     533.0       43.1946        1.1759       89.4449       90.6208      47.426156       0.41648
   5     589.8       43.3177        1.2787       86.5544       87.8331      44.515448       0.43204
   4     651.6       43.5523        1.3843       83.4174       84.8017      41.249386       0.44664
   3     718.7       43.9320        1.4934       80.2037       81.6971      37.765135       0.43787
   2     792.3       44.4964        1.6068       77.0811       78.6878      34.191426       0.40986
   1     891.5        8.5470       33.4116        6.6848       40.0964      31.549383       0.22483
   0    1013.0        8.7506       32.2477        6.2905       38.5382      29.787652       0.12233



 Wavenumbers: 12850. - 16000. cm-1, ATM      1
 LEVEL PRESSURE   UPWARD FLUX   DIFDOWN FLUX  DIRDOWN FLUX  DOWNWARD FLUX   NET FLUX    HEATING RATE
          mb          W/m2          W/m2          W/m2        W/m2          W/m2       degree/day
  51    .06700       38.9824        0.0000       63.1686       63.1686      24.186131       0.00000
  50    .07753       38.9824        0.0001       63.1677       63.1678      24.185351       0.62566
  49    .09103       38.9824        0.0001       63.1666       63.1668      24.184378       0.60818
  48    0.1069       38.9824        0.0002       63.1654       63.1656      24.183270       0.58992
  47    0.1255       38.9823        0.0003       63.1640       63.1643      24.182009       0.57160
  46    0.1487       38.9823        0.0004       63.1623       63.1627      24.180436       0.57340
  45    0.1794       38.9822        0.0006       63.1600       63.1606      24.178325       0.57932
  44    0.2165       38.9822        0.0008       63.1573       63.1581      24.175884       0.55541
  43    0.2613       38.9822        0.0010       63.1542       63.1552      24.173066       0.53115
  42    0.3336       38.9821        0.0014       63.1493       63.1507      24.168573       0.52383
  41    0.4307       38.9821        0.0019       63.1431       63.1451      24.162949       0.48901
  40    0.5894       38.9822        0.0028       63.1338       63.1366      24.154418       0.45367
  39     1.339       38.9839        0.0067       63.0956       63.1023      24.118409       0.40540
  38     1.782       38.9860        0.0090       63.0740       63.0831      24.097111       0.40548
  37     2.292       38.9894        0.0117       63.0477       63.0594      24.070042       0.44833
  36     2.964       38.9953        0.0153       63.0095       63.0248      24.029450       0.50955
  35     3.853       39.0054        0.0199       62.9533       62.9732      23.967789       0.58517
  34     5.035       39.0209        0.0261       62.8725       62.8986      23.877756       0.64316
  33     6.613       39.0426        0.0343       62.7621       62.7964      23.753829       0.66252
  32     8.786       39.0707        0.0454       62.6182       62.6637      23.592948       0.62480
  31     11.80       39.1068        0.0613       62.4284       62.4896      23.382785       0.58839
  30     15.07       39.1407        0.0782       62.2426       62.3208      23.180086       0.52333
  29     18.79       39.1747        0.0973       62.0493       62.1466      22.971959       0.47189
  28     23.16       39.2093        0.1196       61.8424       61.9621      22.752790       0.42380
  27     28.12       39.2429        0.1450       61.6278       61.7728      22.529895       0.37891
  26     33.73       39.2722        0.1734       61.4177       61.5911      22.318867       0.31729
  25     40.54       39.2978        0.2077       61.1983       61.4060      22.108111       0.26147
  24     48.69       39.3193        0.2489       60.9680       61.2169      21.897575       0.21787
  23     57.69       39.3337        0.2941       60.7478       61.0419      21.708217       0.17749
  22     68.43       39.3409        0.3479       60.5202       60.8681      21.527178       0.14232
  21     81.20       39.3360        0.4120       60.2938       60.7058      21.369850       0.10396
  20     96.49       39.3175        0.4883       60.0643       60.5526      21.235069       0.07439
  19     114.6       39.2957        0.5795       59.8078       60.3873      21.091594       0.06699
  18     136.5       39.2642        0.6873       59.5157       60.2031      20.938839       0.05874
  17     162.9       39.2217        0.8155       59.1770       59.9925      20.770789       0.05372
  16     196.4       39.1558        0.9812       58.7604       59.7416      20.585815       0.04656
  15     218.7       39.1087        1.0898       58.4948       59.5846      20.475853       0.04175
  14     243.0       39.0559        1.2076       58.2089       59.4165      20.360535       0.04000
  13     269.0       38.9974        1.3349       57.9006       59.2355      20.238128       0.03971
  12     297.5       38.9333        1.4723       57.5668       59.0391      20.105775       0.03925
  11     328.5       38.8648        1.6203       57.2005       58.8208      19.956008       0.04072
  10     361.9       38.7927        1.7792       56.7963       58.5755      19.782780       0.04383
   9     398.1       38.7182        1.9496       56.3475       58.2971      19.578904       0.04750
   8     437.6       38.6434        2.1317       55.8422       57.9739      19.330480       0.05311
   7     480.5       38.5728        2.3257       55.2625       57.5882      19.015384       0.06188
   6     533.0       38.5019        2.5624       54.4972       57.0596      18.557625       0.07364
   5     589.8       38.4458        2.8142       53.6307       56.4449      17.999097       0.08290
   4     651.6       38.4138        3.0803       52.6606       55.7409      17.327110       0.09190
   3     718.7       38.4116        3.3610       51.6100       54.9711      16.559504       0.09647
   2     792.3       38.4468        3.6562       50.5019       54.1581      15.711320       0.09728
   1     891.5       17.7571       28.2564        4.4725       32.7289      14.971797       0.06293
   0    1013.0       17.8878       27.9046        4.3090       32.2136      14.325771       0.04486



 Wavenumbers: 16000. - 22650. cm-1, ATM      1
 LEVEL PRESSURE   UPWARD FLUX   DIFDOWN FLUX  DIRDOWN FLUX  DOWNWARD FLUX   NET FLUX    HEATING RATE
          mb          W/m2          W/m2          W/m2        W/m2          W/m2       degree/day
  51    .06700       78.1439        0.0000      100.7153      100.7153      22.571378       0.00000
  50    .07753       78.1438        0.0003      100.7147      100.7151      22.571259       0.09491
  49    .09103       78.1437        0.0007      100.7140      100.7147      22.571087       0.10765
  48    0.1069       78.1435        0.0012      100.7131      100.7144      22.570857       0.12275
  47    0.1255       78.1433        0.0018      100.7121      100.7139      22.570548       0.13992
  46    0.1487       78.1431        0.0025      100.7108      100.7132      22.570093       0.16580
  45    0.1794       78.1429        0.0034      100.7089      100.7123      22.569382       0.19522
  44    0.2165       78.1426        0.0045      100.7066      100.7111      22.568417       0.21940
  43    0.2613       78.1424        0.0058      100.7037      100.7095      22.567109       0.24666
  42    0.3336       78.1421        0.0080      100.6987      100.7067      22.564621       0.29006
  41    0.4307       78.1418        0.0109      100.6918      100.7027      22.560871       0.32605
  40    0.5894       78.1417        0.0156      100.6797      100.6954      22.553720       0.38030
  39     1.339       78.1466        0.0380      100.6095      100.6475      22.500894       0.59472
  38     1.782       78.1537        0.0511      100.5585      100.6096      22.455907       0.85649
  37     2.292       78.1658        0.0663      100.4903      100.5566      22.390807       1.07822
  36     2.964       78.1876        0.0863      100.3868      100.4730      22.285393       1.32326
  35     3.853       78.2250        0.1126      100.2306      100.3432      22.118245       1.58626
  34     5.035       78.2828        0.1475      100.0045      100.1520      21.869139       1.77951
  33     6.613       78.3644        0.1940       99.6939       99.8879      21.523475       1.84792
  32     8.786       78.4700        0.2565       99.2881       99.5446      21.074593       1.74330
  31     11.80       78.6049        0.3457       98.7496       99.0953      20.490464       1.63538
  30     15.07       78.7307        0.4411       98.2198       98.6610      19.930216       1.44645
  29     18.79       78.8560        0.5485       97.6651       98.2137      19.357724       1.29801
  28     23.16       78.9826        0.6735       97.0671       97.7407      18.758071       1.15953
  27     28.12       79.1046        0.8160       96.4406       97.2565      18.151928       1.03040
  26     33.73       79.2082        0.9748       95.8179       96.7927      17.584461       0.85320
  25     40.54       79.2954        1.1660       95.1548       96.3209      17.025460       0.69350
  24     48.69       79.3638        1.3957       94.4420       95.8377      16.473950       0.57073
  23     57.69       79.4033        1.6470       93.7416       95.3886      15.985290       0.45805
  22     68.43       79.4123        1.9451       92.9954       94.9404      15.528124       0.35939
  21     81.20       79.3707        2.2988       92.2231       94.5219      15.151225       0.24905
  20     96.49       79.2729        2.7184       91.4110       94.1294      14.856438       0.16270
  19     114.6       79.1330        3.2132       90.5070       93.7202      14.587164       0.12573
  18     136.5       78.9518        3.7947       89.4803       93.2750      14.323241       0.10148
  17     162.9       78.7227        4.4804       88.3022       92.7826      14.059950       0.08416
  16     196.4       78.3959        5.3595       86.8606       92.2201      13.824235       0.05933
  15     218.7       78.1712        5.9306       85.9492       91.8798      13.708586       0.04391
  14     243.0       77.9232        6.5457       84.9789       91.5247      13.601505       0.03714
  13     269.0       77.6507        7.2060       83.9493       91.1552      13.504494       0.03147
  12     297.5       77.3533        7.9120       82.8589       90.7710      13.417669       0.02575
  11     328.5       77.0323        8.6665       81.6982       90.3647      13.332379       0.02319
  10     361.9       76.6879        9.4690       80.4669       89.9360      13.248081       0.02133
   9     398.1       76.3192       10.3216       79.1611       89.4827      13.163533       0.01970
   8     437.6       75.9268       11.2244       77.7777       89.0022      13.075362       0.01885
   7     480.5       75.5113       12.1780       76.3136       88.4916      12.980337       0.01866
   6     533.0       75.0078       13.3317       74.5359       87.8676      12.859749       0.01940
   5     589.8       74.4765       14.5510       72.6469       87.1979      12.721361       0.02054
   4     651.6       73.9200       15.8338       70.6456       86.4793      12.559310       0.02216
   3     718.7       73.3389       17.1779       68.5367       85.7146      12.375681       0.02308
   2     792.3       72.7361       18.5781       66.3287       84.9068      12.170642       0.02352
   1     891.5       49.3940       55.5725        5.7857       61.3582      11.964242       0.01756
   0    1013.0       49.2649       55.5369        5.4777       61.0146      11.749643       0.01490



 Wavenumbers: 22650. - 29000. cm-1, ATM      1
 LEVEL PRESSURE   UPWARD FLUX   DIFDOWN FLUX  DIRDOWN FLUX  DOWNWARD FLUX   NET FLUX    HEATING RATE
          mb          W/m2          W/m2          W/m2        W/m2          W/m2       degree/day
  51    .06700       34.7646        0.0000       38.0063       38.0063       3.241659       0.00000
  50    .07753       34.7645        0.0004       38.0057       38.0061       3.241659       0.00000
  49    .09103       34.7643        0.0009       38.0050       38.0059       3.241659       0.00000
  48    0.1069       34.7640        0.0014       38.0042       38.0057       3.241659      -0.00000
  47    0.1255       34.7637        0.0021       38.0033       38.0054       3.241659       0.00000
  46    0.1487       34.7634        0.0029       38.0022       38.0051       3.241659      -0.00000
  45    0.1794       34.7629        0.0040       38.0006       38.0046       3.241659       0.00000
  44    0.2165       34.7624        0.0053       37.9987       38.0040       3.241659       0.00000
  43    0.2613       34.7617        0.0069       37.9965       38.0034       3.241659      -0.00000
  42    0.3336       34.7606        0.0094       37.9928       38.0023       3.241659      -0.00000
  41    0.4307       34.7591        0.0128       37.9880       38.0008       3.241659       0.00000
  40    0.5894       34.7568        0.0184       37.9800       37.9984       3.241659       0.00000
  39     1.339       34.7455        0.0447       37.9425       37.9872       3.241659       0.00000
  38     1.782       34.7389        0.0602       37.9204       37.9806       3.241659       0.00000
  37     2.292       34.7313        0.0780       37.8949       37.9729       3.241659       0.00000
  36     2.964       34.7213        0.1015       37.8614       37.9629       3.241659      -0.00000
  35     3.853       34.7080        0.1325       37.8172       37.9497       3.241659      -0.00000
  34     5.035       34.6905        0.1735       37.7586       37.9321       3.241659       0.00000
  33     6.613       34.6670        0.2284       37.6803       37.9087       3.241659       0.00000
  32     8.786       34.6355        0.3021       37.5750       37.8771       3.241659       0.00000
  31     11.80       34.5905        0.4073       37.4249       37.8321       3.241659       0.00000
  30     15.07       34.5423        0.5198       37.2642       37.7840       3.241659      -0.00000
  29     18.79       34.4881        0.6465       37.0833       37.7298       3.241659       0.00000
  28     23.16       34.4250        0.7937       36.8730       37.6667       3.241659      -0.00000
  27     28.12       34.3532        0.9611       36.6338       37.5949       3.241659      -0.00000
  26     33.73       34.2734        1.1473       36.3677       37.5150       3.241659       0.00000
  25     40.54       34.1775        1.3706       36.0486       37.4192       3.241659       0.00000
  24     48.69       34.0629        1.6373       35.6672       37.3045       3.241659       0.00000
  23     57.69       33.9382        1.9272       35.2527       37.1798       3.241659      -0.00000
  22     68.43       33.7913        2.2681       34.7649       37.0330       3.241659       0.00000
  21     81.20       33.6187        2.6681       34.1922       36.8603       3.241659       0.00000
  20     96.49       33.4163        3.1362       33.5217       36.6580       3.241659       0.00000
  19     114.6       33.1806        3.6799       32.7424       36.4223       3.241659       0.00000
  18     136.5       32.9077        4.3078       31.8416       36.1494       3.241659       0.00000
  17     162.9       32.5916        5.0325       30.8008       35.8333       3.241659       0.00000
  16     196.4       32.1955        5.9365       29.5007       35.4371       3.241659      -0.00000
  15     218.7       31.9436        6.5086       28.6767       35.1853       3.241659       0.00000
  14     243.0       31.6770        7.1119       27.8068       34.9187       3.241659       0.00000
  13     269.0       31.3962        7.7446       26.8933       34.6379       3.241659       0.00000
  12     297.5       31.1020        8.4044       25.9393       34.3437       3.241659       0.00000
  11     328.5       30.7943        9.0908       24.9451       34.0359       3.241659      -0.00000
  10     361.9       30.4744        9.8000       23.9160       33.7160       3.241659      -0.00000
   9     398.1       30.1427       10.5303       22.8541       33.3844       3.241659       0.00000
   8     437.6       29.8006       11.2778       21.7645       33.0423       3.241659       0.00000
   7     480.5       29.4493       12.0388       20.6521       32.6909       3.241659      -0.00000
   6     533.0       29.0372       12.9219       19.3569       32.2788       3.241659      -0.00000
   5     589.8       28.6166       13.8115       18.0467       31.8582       3.241659       0.00000
   4     651.6       28.1901       14.7001       16.7316       31.4318       3.241659      -0.00000
   3     718.7       27.7601       15.5804       15.4214       31.0018       3.241659      -0.00000
   2     792.3       27.3297       16.4438       14.1276       30.5714       3.241659       0.00000
   1     891.5       21.8915       23.9883        1.1448       25.1331       3.241582       0.00001
   0    1013.0       21.7366       23.9861        0.9921       24.9782       3.241582      -0.00000



 Wavenumbers: 29000. - 38000. cm-1, ATM      1
 LEVEL PRESSURE   UPWARD FLUX   DIFDOWN FLUX  DIRDOWN FLUX  DOWNWARD FLUX   NET FLUX    HEATING RATE
          mb          W/m2          W/m2          W/m2        W/m2          W/m2       degree/day
  51    .06700        4.9340        0.0000       13.4026       13.4026       8.468608       0.00000
  50    .07753        4.9338        0.0003       13.3983       13.3986       8.464810       3.04443
  49    .09103        4.9335        0.0007       13.3921       13.3928       8.459291       3.44971
  48    0.1069        4.9332        0.0011       13.3840       13.3851       8.451914       3.92682
  47    0.1255        4.9328        0.0016       13.3733       13.3749       8.442069       4.46324
  46    0.1487        4.9324        0.0022       13.3579       13.3600       8.427626       5.26446
  45    0.1794        4.9318        0.0030       13.3340       13.3371       8.405226       6.14936
  44    0.2165        4.9312        0.0040       13.3024       13.3064       8.375207       6.82887
  43    0.2613        4.9304        0.0052       13.2604       13.2656       8.335152       7.55022
  42    0.3336        4.9292        0.0070       13.1833       13.1903       8.261144       8.62856
  41    0.4307        4.9276        0.0095       13.0729       13.0824       8.154770       9.24896
  40    0.5894        4.9253        0.0134       12.8796       12.8930       7.967724       9.94690
  39     1.339        4.9168        0.0297       11.9165       11.9462       7.029359      10.56428
  38     1.782        4.9136        0.0380       11.4399       11.4779       6.564357       8.85290
  37     2.292        4.9111        0.0469       10.9796       11.0265       6.115393       7.43601
  36     2.964        4.9097        0.0578       10.4786       10.5365       5.626711       6.13444
  35     3.853        4.9105        0.0713        9.9429       10.0142       5.103769       4.96281
  34     5.035        4.9140        0.0882        9.4007        9.4889       4.574908       3.77796
  33     6.613        4.9204        0.1095        8.8752        8.9848       4.064334       2.72953
  32     8.786        4.9293        0.1371        8.3786        8.5157       3.586359       1.85628
  31     11.80        4.9402        0.1750        7.8897        8.0646       3.124381       1.29339
  30     15.07        4.9497        0.2140        7.5108        7.7248       2.775148       0.90165
  29     18.79        4.9584        0.2565        7.1776        7.4342       2.475732       0.67887
  28     23.16        4.9665        0.3045        6.8664        7.1709       2.204400       0.52467
  27     28.12        4.9731        0.3574        6.5780        6.9355       1.962390       0.41140
  26     33.73        4.9757        0.4152        6.3195        6.7346       1.758912       0.30593
  25     40.54        4.9733        0.4833        6.0663        6.5495       1.576239       0.22663
  24     48.69        4.9652        0.5631        5.8128        6.3759       1.410677       0.17133
  23     57.69        4.9514        0.6482        5.5777        6.2259       1.274487       0.12766
  22     68.43        4.9297        0.7468        5.3379        6.0847       1.154979       0.09395
  21     81.20        4.8958        0.8612        5.0965        5.9577       1.061916       0.06149
  20     96.49        4.8484        0.9933        4.8476        5.8409       0.992585       0.03827
  19     114.6        4.7907        1.1430        4.5799        5.7229       0.932207       0.02819
  18     136.5        4.7238        1.3103        4.2891        5.5994       0.875586       0.02177
  17     162.9        4.6474        1.4958        3.9732        5.4690       0.821576       0.01726
  16     196.4        4.5507        1.7180        3.6080        5.3260       0.775375       0.01163
  15     218.7        4.4897        1.8533        3.3898        5.2430       0.753366       0.00836
  14     243.0        4.4263        1.9911        3.1686        5.1597       0.733391       0.00693
  13     269.0        4.3608        2.1305        2.9461        5.0765       0.715764       0.00572
  12     297.5        4.2936        2.2701        2.7239        4.9941       0.700504       0.00453
  11     328.5        4.2255        2.4088        2.5029        4.9116       0.686162       0.00390
  10     361.9        4.1570        2.5451        2.2846        4.8297       0.672759       0.00339
   9     398.1        4.0884        2.6780        2.0708        4.7487       0.660290       0.00291
   8     437.6        4.0203        2.8062        1.8626        4.6688       0.648488       0.00252
   7     480.5        3.9531        2.9284        1.6621        4.5905       0.637483       0.00216
   6     533.0        3.8776        3.0597        1.4437        4.5033       0.625708       0.00189
   5     589.8        3.8044        3.1800        1.2390        4.4190       0.614526       0.00166
   4     651.6        3.7341        3.2879        1.0500        4.3379       0.603785       0.00147
   3     718.7        3.6668        3.3825        0.8778        4.2603       0.593450       0.00130
   2     792.3        3.6030        3.4628        0.7237        4.1865       0.583498       0.00114
   1     891.5        3.0819        3.6036        0.0507        3.6543       0.572454       0.00094
   0    1013.0        3.0428        3.5671        0.0368        3.6040       0.561160       0.00078



 Wavenumbers: 38000. - 50000. cm-1, ATM      1
 LEVEL PRESSURE   UPWARD FLUX   DIFDOWN FLUX  DIRDOWN FLUX  DOWNWARD FLUX   NET FLUX    HEATING RATE
          mb          W/m2          W/m2          W/m2        W/m2          W/m2       degree/day
  51    .06700        0.0051        0.0000        0.8267        0.8267       0.821528       0.00000
  50    .07753        0.0051        0.0001        0.8242        0.8243       0.819196       1.86936
  49    .09103        0.0050        0.0002        0.8207        0.8209       0.815872       2.07705
  48    0.1069        0.0049        0.0002        0.8162        0.8164       0.811514       2.31984
  47    0.1255        0.0048        0.0004        0.8103        0.8106       0.805801       2.59006
  46    0.1487        0.0047        0.0005        0.8018        0.8023       0.797567       3.00143
  45    0.1794        0.0045        0.0007        0.7889        0.7896       0.785013       3.44648
  44    0.2165        0.0044        0.0009        0.7720        0.7729       0.768507       3.75474
  43    0.2613        0.0042        0.0011        0.7500        0.7511       0.746955       4.06246
  42    0.3336        0.0039        0.0015        0.7106        0.7121       0.708267       4.51071
  41    0.4307        0.0035        0.0019        0.6566        0.6584       0.654972       4.63387
  40    0.5894        0.0029        0.0024        0.5680        0.5704       0.567464       4.65357
  39     1.339        0.0015        0.0030        0.2422        0.2452       0.243720       3.64476
  38     1.782        0.0010        0.0026        0.1493        0.1519       0.150889       1.76735
  37     2.292        0.0007        0.0022        0.0924        0.0946       0.093932       0.94336
  36     2.964        0.0005        0.0018        0.0539        0.0557       0.055224       0.48589
  35     3.853        0.0003        0.0013        0.0295        0.0308       0.030502       0.23462
  34     5.035        0.0002        0.0010        0.0154        0.0164       0.016181       0.10230
  33     6.613        0.0001        0.0007        0.0073        0.0080       0.007912       0.04420
  32     8.786        0.0000        0.0004        0.0030        0.0034       0.003390       0.01756
  31     11.80        0.0000        0.0003        0.0010        0.0012       0.001199       0.00613
  30     15.07        0.0000        0.0001        0.0003        0.0005       0.000463       0.00190
  29     18.79        0.0000        0.0001        0.0001        0.0002       0.000182       0.00064
  28     23.16        0.0000        0.0000        0.0000        0.0001       0.000071       0.00022
  27     28.12        0.0000        0.0000        0.0000        0.0000       0.000028       0.00007
  26     33.73        0.0000        0.0000        0.0000        0.0000       0.000011       0.00002
  25     40.54        0.0000        0.0000        0.0000        0.0000       0.000005       0.00001
  24     48.69        0.0000        0.0000        0.0000        0.0000       0.000002       0.00000
  23     57.69        0.0000        0.0000        0.0000        0.0000       0.000001       0.00000
  22     68.43        0.0000        0.0000        0.0000        0.0000       0.000000       0.00000
  21     81.20        0.0000        0.0000        0.0000        0.0000       0.000000       0.00000
  20     96.49        0.0000        0.0000        0.0000        0.0000       0.000000       0.00000
  19     114.6        0.0000        0.0000        0.0000        0.0000       0.000000       0.00000
  18     136.5        0.0000        0.0000        0.0000        0.0000       0.000000       0.00000
  17     162.9        0.0000        0.0000        0.0000        0.0000       0.000000       0.00000
  16     196.4        0.0000        0.0000        0.0000        0.0000       0.000000       0.00000
  15     218.7        0.0000        0.0000        0.0000        0.0000       0.000000       0.00000
  14     243.0        0.0000        0.0000        0.0000        0.0000       0.000000       0.00000
  13     269.0        0.0000        0.0000        0.0000        0.0000       0.000000       0.00000
  12     297.5        0.0000        0.0000        0.0000        0.0000       0.000000       0.00000
  11     328.5        0.0000        0.0000        0.0000        0.0000       0.000000       0.00000
  10     361.9        0.0000        0.0000        0.0000        0.0000       0.000000       0.00000
   9     398.1        0.0000        0.0000        0.0000        0.0000       0.000000       0.00000
   8     437.6        0.0000        0.0000        0.0000        0.0000       0.000000       0.00000
   7     480.5        0.0000        0.0000        0.0000        0.0000       0.000000       0.00000
   6     533.0        0.0000        0.0000        0.0000        0.0000       0.000000       0.00000
   5     589.8        0.0000        0.0000        0.0000        0.0000       0.000000       0.00000
   4     651.6        0.0000        0.0000        0.0000        0.0000       0.000000       0.00000
   3     718.7        0.0000        0.0000        0.0000        0.0000       0.000000       0.00000
   2     792.3        0.0000        0.0000        0.0000        0.0000       0.000000       0.00000
   1     891.5        0.0000        0.0000        0.0000        0.0000       0.000000       0.00000
   0    1013.0        0.0000        0.0000        0.0000        0.0000       0.000000       0.00000



 Wavenumbers:   820. -  2600. cm-1, ATM      1
 LEVEL PRESSURE   UPWARD FLUX   DIFDOWN FLUX  DIRDOWN FLUX  DOWNWARD FLUX   NET FLUX    HEATING RATE
          mb          W/m2          W/m2          W/m2        W/m2          W/m2       degree/day
  51    .06700        0.4947        0.0000        3.8670        3.8670       3.372323       0.00000
  50    .07753        0.4947        0.0000        3.8643        3.8643       3.369606       2.17770
  49    .09103        0.4947        0.0000        3.8635        3.8635       3.368796       0.50639
  48    0.1069        0.4947        0.0000        3.8626        3.8626       3.367905       0.47416
  47    0.1255        0.4947        0.0000        3.8616        3.8616       3.366945       0.43560
  46    0.1487        0.4947        0.0000        3.8605        3.8605       3.365835       0.40438
  45    0.1794        0.4947        0.0000        3.8592        3.8592       3.364500       0.36649
  44    0.2165        0.4947        0.0000        3.8578        3.8578       3.363122       0.31347
  43    0.2613        0.4947        0.0000        3.8564        3.8564       3.361662       0.27523
  42    0.3336        0.4947        0.0000        3.8541        3.8541       3.359431       0.26013
  41    0.4307        0.4947        0.0000        3.8512        3.8512       3.356548       0.25064
  40    0.5894        0.4947        0.0000        3.8465        3.8465       3.351822       0.25135
  39     1.339        0.4947        0.0000        3.8251        3.8251       3.330446       0.24066
  38     1.782        0.4947        0.0000        3.8133        3.8133       3.318632       0.22491
  37     2.292        0.4947        0.0000        3.8003        3.8003       3.305570       0.21634
  36     2.964        0.4947        0.0000        3.7841        3.7841       3.289441       0.20248
  35     3.853        0.4947        0.0000        3.7642        3.7642       3.269525       0.18900
  34     5.035        0.4947        0.0000        3.7395        3.7395       3.244832       0.17639
  33     6.613        0.4947        0.0000        3.7090        3.7090       3.214294       0.16326
  32     8.786        0.4947        0.0000        3.6726        3.6726       3.177898       0.14135
  31     11.80        0.4947        0.0000        3.6320        3.6320       3.137299       0.11366
  30     15.07        0.4947        0.0000        3.6016        3.6016       3.106911       0.07846
  29     18.79        0.4947        0.0000        3.5777        3.5777       3.083007       0.05420
  28     23.16        0.4947        0.0000        3.5564        3.5564       3.061647       0.04130
  27     28.12        0.4948        0.0000        3.5348        3.5348       3.040093       0.03664
  26     33.73        0.4948        0.0000        3.5118        3.5118       3.017051       0.03464
  25     40.54        0.4948        0.0000        3.4849        3.4849       2.990152       0.03337
  24     48.69        0.4948        0.0000        3.4537        3.4537       2.958887       0.03235
  23     57.69        0.4948        0.0000        3.4210        3.4210       2.926198       0.03064
  22     68.43        0.4948        0.0000        3.3844        3.3844       2.889594       0.02878
  21     81.20        0.4949        0.0000        3.3441        3.3441       2.849273       0.02664
  20     96.49        0.4949        0.0000        3.2998        3.2998       2.804881       0.02450
  19     114.6        0.4950        0.0000        3.2506        3.2506       2.755699       0.02296
  18     136.5        0.4950        0.0000        3.1936        3.1936       2.698600       0.02196
  17     162.9        0.4951        0.0000        3.1181        3.1181       2.623012       0.02416
  16     196.4        0.4953        0.0000        3.0090        3.0090       2.513660       0.02753
  15     218.7        0.4955        0.0000        2.9420        2.9420       2.446534       0.02549
  14     243.0        0.4957        0.0000        2.8605        2.8605       2.364793       0.02835
  13     269.0        0.4961        0.0000        2.7419        2.7420       2.245911       0.03856
  12     297.5        0.4967        0.0000        2.5729        2.5729       2.076210       0.05033
  11     328.5        0.4977        0.0000        2.3602        2.3602       1.862542       0.05810
  10     361.9        0.4992        0.0000        2.1524        2.1524       1.653280       0.05295
   9     398.1        0.5013        0.0000        1.9974        1.9974       1.496151       0.03661
   8     437.6        0.5042        0.0000        1.8835        1.8835       1.379281       0.02499
   7     480.5        0.5085        0.0000        1.7734        1.7734       1.264971       0.02245
   6     533.0        0.5154        0.0000        1.6397        1.6398       1.124347       0.02262
   5     589.8        0.5254        0.0000        1.5068        1.5069       0.981486       0.02121
   4     651.6        0.5401        0.0000        1.3807        1.3807       0.840651       0.01926
   3     718.7        0.5597        0.0000        1.2680        1.2681       0.708338       0.01663
   2     792.3        0.5843        0.0000        1.1659        1.1660       0.581707       0.01452
   1     891.5        0.0391        0.4343        0.0946        0.5289       0.489793       0.00782
   0    1013.0        0.0432        0.3912        0.0795        0.4707       0.427500       0.00433

  Modules and versions used in this calculation:

       rrtmg_sw.1col.f90:  $Revision$                    rrtmg_sw_init.f90:  $Revision$        
     rrtmgsw_cldprop.f90:  $Revision$                  rrtmgsw_cldprmc.f90:  NOT USED          
     rrtmg_sw_reftra.f90:  $Revision$                  rrtmg_sw_spcvrt.f90:  NOT USED          
     rrtmg_sw_spcvmc.f90:  NOT USED                    rrtmgsw_setcoef.f90:  NOT USED          
     rrtmg_sw_taumol.f90:  $Revision$                  rrtmg_sw_vrtqdr.f90:  NOT USED          
                rrtatm.f:  NOT USED                             util_xxx.f:  NOT USED          
                 extra.f:  NOT USED                       rrtmg_sw_k_g.f90:  $Revision$        

