

 Wavenumbers:   820. - 50000. cm-1, ATM      1
 LEVEL PRESSURE   UPWARD FLUX   DIFDOWN FLUX  DIRDOWN FLUX  DOWNWARD FLUX   NET FLUX    HEATING RATE
          mb          W/m2          W/m2          W/m2        W/m2          W/m2       degree/day
  51    .06700      259.0809        0.0000      397.8738      397.8738     138.792853       0.00000
  50    .07753      259.0803        0.0012      397.8577      397.8589     138.778562      11.45478
  49    .09103      259.0796        0.0026      397.8418      397.8445     138.764873       8.55581
  48    0.1069      259.0788        0.0043      397.8230      397.8273     138.748525       8.70216
  47    0.1255      259.0778        0.0063      397.7997      397.8059     138.728083       9.26771
  46    0.1487      259.0767        0.0087      397.7676      397.7763     138.699625      10.37292
  45    0.1794      259.0752        0.0120      397.7205      397.7326     138.657335      11.60990
  44    0.2165      259.0735        0.0160      397.6602      397.6762     138.602688      12.43110
  43    0.2613      259.0716        0.0206      397.5829      397.6035     138.531894      13.34433
  42    0.3336      259.0687        0.0282      397.4449      397.4731     138.404463      14.85729
  41    0.4307      259.0650        0.0382      397.2524      397.2906     138.225605      15.55123
  40    0.5894      259.0597        0.0543      396.9253      396.9796     137.919913      16.25633
  39     1.339      259.0462        0.1262      395.4254      395.5516     136.505390      15.92496
  38     1.782      259.0460        0.1665      394.7288      394.8953     135.849332      12.49028
  37     2.292      259.0525        0.2124      394.0572      394.2696     135.217039      10.47243
  36     2.964      259.0713        0.2720      393.3007      393.5727     134.501396       8.98349
  35     3.853      259.1101        0.3499      392.4318      392.7817     133.671581       7.87509
  34     5.035      259.1756        0.4524      391.4441      391.8964     132.720857       6.79158
  33     6.613      259.2707        0.5881      390.3268      390.9149     131.644169       5.75597
  32     8.786      259.3933        0.7697      389.0624      389.8321     130.438782       4.68129
  31     11.80      259.5450        1.0274      387.5500      388.5774     129.032332       3.93762
  30     15.07      259.6802        1.3018      386.1556      387.4574     127.777178       3.24056
  29     18.79      259.8083        1.6094      384.7502      386.3596     126.551287       2.77947
  28     23.16      259.9294        1.9658      383.2686      385.2344     125.304975       2.40996
  27     28.12      260.0347        2.3700      381.7329      384.1029     124.068206       2.10243
  26     33.73      260.1038        2.8191      380.1982      383.0173     122.913485       1.73615
  25     40.54      260.1309        3.3578      378.5384      381.8962     121.765233       1.42454
  24     48.69      260.1096        4.0014      376.7214      380.7229     120.613283       1.19209
  23     57.69      260.0344        4.7018      374.8959      379.5977     119.563327       0.98418
  22     68.43      259.8894        5.5276      372.8999      378.4275     118.538158       0.80592
  21     81.20      259.6400        6.5010      370.7496      377.2506     117.610664       0.61287
  20     96.49      259.2737        7.6463      368.4056      376.0518     116.778177       0.45947
  19     114.6      258.8169        8.9842      365.7513      374.7354     115.918571       0.40138
  18     136.5      258.2609       10.5382      362.7231      373.2613     115.000457       0.35304
  17     162.9      257.5916       12.3451      359.1748      371.5199     113.928248       0.34272
  16     196.4      256.6970       14.6238      354.5718      369.1956     112.498551       0.35987
  15     218.7      256.1061       16.0815      351.4437      367.5252     111.419036       0.40985
  14     243.0      255.4698       17.6323      347.7111      365.3434     109.873618       0.53600
  13     269.0      254.7906       19.2744      342.9441      362.2185     107.427953       0.79336
  12     297.5      254.0723       21.0056      337.4137      358.4193     104.347064       0.91376
  11     328.5      253.3235       22.8277      331.1302      353.9580     100.634524       1.00943
  10     361.9      252.5537       24.7352      324.1219      348.8571      96.303426       1.09581
   9     398.1      251.7732       26.7276      316.6066      343.3342      91.560938       1.10489
   8     437.6      251.0029       28.8002      308.5895      337.3897      86.386800       1.10626
   7     480.5      250.2808       30.9473      299.9349      330.8822      80.601368       1.13624
   6     533.0      249.5608       33.4912      289.7021      323.1934      73.632514       1.12107
   5     589.8      249.0276       36.1177      279.3388      315.4565      66.428947       1.06925
   4     651.6      248.8127       38.8147      268.7786      307.5933      58.780620       1.04593
   3     718.7      249.0275       41.5733      258.2837      299.8569      50.829449       0.99924
   2     792.3      249.8173       44.3793      248.0774      292.4567      42.639395       0.93931
   1     891.5       60.7509       99.7225        0.0003       99.7228      38.971859       0.31209
   0    1013.0       60.7843       98.2812        0.0003       98.2815      37.497139       0.10240



 Wavenumbers:  2600. -  3250. cm-1, ATM      1
 LEVEL PRESSURE   UPWARD FLUX   DIFDOWN FLUX  DIRDOWN FLUX  DOWNWARD FLUX   NET FLUX    HEATING RATE
          mb          W/m2          W/m2          W/m2        W/m2          W/m2       degree/day
  51    .06700        1.0505        0.0000        3.5066        3.5066       2.456119       0.00000
  50    .07753        1.0505        0.0000        3.5066        3.5066       2.456111       0.00640
  49    .09103        1.0505        0.0000        3.5066        3.5066       2.456101       0.00627
  48    0.1069        1.0505        0.0000        3.5066        3.5066       2.456089       0.00613
  47    0.1255        1.0505        0.0000        3.5066        3.5066       2.456076       0.00599
  46    0.1487        1.0505        0.0000        3.5066        3.5066       2.456059       0.00607
  45    0.1794        1.0505        0.0000        3.5065        3.5065       2.456037       0.00624
  44    0.2165        1.0505        0.0000        3.5065        3.5065       2.456010       0.00611
  43    0.2613        1.0505        0.0000        3.5065        3.5065       2.455978       0.00598
  42    0.3336        1.0505        0.0000        3.5064        3.5064       2.455925       0.00615
  41    0.4307        1.0505        0.0000        3.5064        3.5064       2.455854       0.00618
  40    0.5894        1.0505        0.0000        3.5062        3.5062       2.455735       0.00633
  39     1.339        1.0505        0.0000        3.5055        3.5055       2.455036       0.00787
  38     1.782        1.0505        0.0000        3.5050        3.5050       2.454506       0.01011
  37     2.292        1.0505        0.0000        3.5043        3.5043       2.453813       0.01147
  36     2.964        1.0505        0.0000        3.5033        3.5033       2.452822       0.01245
  35     3.853        1.0505        0.0000        3.5019        3.5019       2.451444       0.01307
  34     5.035        1.0505        0.0000        3.5001        3.5001       2.449583       0.01329
  33     6.613        1.0505        0.0000        3.4977        3.4977       2.447174       0.01288
  32     8.786        1.0505        0.0000        3.4947        3.4947       2.444202       0.01154
  31     11.80        1.0505        0.0000        3.4911        3.4911       2.440566       0.01018
  30     15.07        1.0505        0.0000        3.4878        3.4878       2.437344       0.00832
  29     18.79        1.0505        0.0000        3.4848        3.4848       2.434279       0.00695
  28     23.16        1.0505        0.0000        3.4816        3.4816       2.431057       0.00623
  27     28.12        1.0505        0.0000        3.4779        3.4779       2.427436       0.00616
  26     33.73        1.0505        0.0000        3.4735        3.4735       2.422965       0.00672
  25     40.54        1.0505        0.0000        3.4671        3.4672       2.416632       0.00786
  24     48.69        1.0505        0.0000        3.4582        3.4583       2.407726       0.00922
  23     57.69        1.0505        0.0000        3.4472        3.4472       2.396663       0.01037
  22     68.43        1.0506        0.0000        3.4329        3.4330       2.382381       0.01123
  21     81.20        1.0506        0.0000        3.4152        3.4152       2.364621       0.01174
  20     96.49        1.0507        0.0000        3.3940        3.3941       2.343432       0.01170
  19     114.6        1.0507        0.0000        3.3692        3.3692       2.318479       0.01165
  18     136.5        1.0508        0.0001        3.3419        3.3420       2.291169       0.01050
  17     162.9        1.0510        0.0001        3.3129        3.3129       2.261956       0.00934
  16     196.4        1.0513        0.0001        3.2793        3.2794       2.228130       0.00851
  15     218.7        1.0516        0.0001        3.2578        3.2579       2.206268       0.00830
  14     243.0        1.0520        0.0001        3.2320        3.2321       2.180010       0.00911
  13     269.0        1.0528        0.0001        3.1968        3.1969       2.144134       0.01164
  12     297.5        1.0540        0.0001        3.1489        3.1491       2.095084       0.01455
  11     328.5        1.0558        0.0001        3.0821        3.0822       2.026431       0.01867
  10     361.9        1.0584        0.0001        2.9902        2.9904       1.931991       0.02389
   9     398.1        1.0622        0.0001        2.8715        2.8716       1.809453       0.02855
   8     437.6        1.0677        0.0002        2.7276        2.7278       1.660140       0.03192
   7     480.5        1.0759        0.0002        2.5595        2.5597       1.483760       0.03464
   6     533.0        1.0899        0.0002        2.3617        2.3619       1.272022       0.03406
   5     589.8        1.1105        0.0002        2.1649        2.1651       1.054622       0.03227
   4     651.6        1.1412        0.0002        1.9608        1.9609       0.819726       0.03212
   3     718.7        1.1854        0.0002        1.7593        1.7595       0.574139       0.03086
   2     792.3        1.2474        0.0002        1.5761        1.5762       0.328851       0.02813
   1     891.5        0.0602        0.2893        0.0000        0.2893       0.229136       0.00849
   0    1013.0        0.0657        0.2619        0.0000        0.2619       0.196240       0.00228



 Wavenumbers:  3250. -  4000. cm-1, ATM      1
 LEVEL PRESSURE   UPWARD FLUX   DIFDOWN FLUX  DIRDOWN FLUX  DOWNWARD FLUX   NET FLUX    HEATING RATE
          mb          W/m2          W/m2          W/m2        W/m2          W/m2       degree/day
  51    .06700        0.0088        0.0000        5.9117        5.9117       5.902853       0.00000
  50    .07753        0.0088        0.0000        5.9075        5.9075       5.898663       3.35808
  49    .09103        0.0088        0.0000        5.9050        5.9050       5.896221       1.52677
  48    0.1069        0.0088        0.0000        5.9032        5.9032       5.894354       0.99346
  47    0.1255        0.0088        0.0000        5.9014        5.9014       5.892596       0.79708
  46    0.1487        0.0088        0.0000        5.8995        5.8995       5.890707       0.68848
  45    0.1794        0.0088        0.0000        5.8974        5.8974       5.888559       0.58983
  44    0.2165        0.0088        0.0000        5.8952        5.8952       5.886442       0.48155
  43    0.2613        0.0088        0.0000        5.8931        5.8931       5.884283       0.40696
  42    0.3336        0.0088        0.0000        5.8899        5.8899       5.881125       0.36820
  41    0.4307        0.0088        0.0000        5.8861        5.8861       5.877287       0.33365
  40    0.5894        0.0088        0.0000        5.8803        5.8803       5.871485       0.30857
  39     1.339        0.0088        0.0000        5.8597        5.8597       5.850887       0.23189
  38     1.782        0.0088        0.0000        5.8513        5.8513       5.842463       0.16039
  37     2.292        0.0088        0.0000        5.8431        5.8431       5.834292       0.13533
  36     2.964        0.0088        0.0000        5.8334        5.8334       5.824652       0.12100
  35     3.853        0.0088        0.0000        5.8213        5.8213       5.812477       0.11555
  34     5.035        0.0088        0.0000        5.8052        5.8052       5.796381       0.11498
  33     6.613        0.0088        0.0000        5.7833        5.7834       5.774560       0.11666
  32     8.786        0.0088        0.0000        5.7531        5.7531       5.744359       0.11729
  31     11.80        0.0088        0.0000        5.7090        5.7090       5.700190       0.12366
  30     15.07        0.0088        0.0000        5.6615        5.6615       5.652725       0.12254
  29     18.79        0.0088        0.0000        5.6093        5.6094       5.600590       0.11821
  28     23.16        0.0088        0.0000        5.5524        5.5524       5.543664       0.11008
  27     28.12        0.0088        0.0000        5.4935        5.4935       5.484785       0.10009
  26     33.73        0.0088        0.0000        5.4348        5.4349       5.426096       0.08824
  25     40.54        0.0087        0.0001        5.3707        5.3708       5.362034       0.07948
  24     48.69        0.0087        0.0001        5.2985        5.2985       5.289801       0.07475
  23     57.69        0.0087        0.0001        5.2215        5.2216       5.212862       0.07212
  22     68.43        0.0087        0.0001        5.1318        5.1319       5.123202       0.07048
  21     81.20        0.0087        0.0001        5.0284        5.0285       5.019773       0.06834
  20     96.49        0.0087        0.0001        4.9122        4.9123       4.903639       0.06410
  19     114.6        0.0087        0.0001        4.7780        4.7782       4.769527       0.06262
  18     136.5        0.0086        0.0002        4.6285        4.6287       4.620049       0.05748
  17     162.9        0.0086        0.0002        4.4406        4.4407       4.432136       0.06006
  16     196.4        0.0086        0.0002        4.1548        4.1550       4.146462       0.07191
  15     218.7        0.0086        0.0002        3.9564        3.9566       3.948079       0.07532
  14     243.0        0.0085        0.0002        3.7055        3.7058       3.697240       0.08700
  13     269.0        0.0085        0.0002        3.3399        3.3401       3.331590       0.11862
  12     297.5        0.0085        0.0002        2.8954        2.8956       2.887076       0.13184
  11     328.5        0.0086        0.0002        2.4388        2.4390       2.430487       0.12415
  10     361.9        0.0086        0.0002        2.0269        2.0271       2.018459       0.10425
   9     398.1        0.0088        0.0002        1.6753        1.6755       1.666715       0.08195
   8     437.6        0.0090        0.0002        1.3592        1.3594       1.350325       0.06765
   7     480.5        0.0095        0.0002        1.0616        1.0618       1.052249       0.05854
   6     533.0        0.0105        0.0001        0.7543        0.7544       0.743900       0.04960
   5     589.8        0.0124        0.0001        0.4951        0.4952       0.482837       0.03875
   4     651.6        0.0160        0.0001        0.2943        0.2943       0.278296       0.02797
   3     718.7        0.0232        0.0001        0.1528        0.1529       0.129628       0.01868
   2     792.3        0.0379        0.0000        0.0658        0.0658       0.027894       0.01167
   1     891.5        0.0000        0.0031        0.0000        0.0031       0.003090       0.00211
   0    1013.0        0.0002        0.0007        0.0000        0.0007       0.000558       0.00018



 Wavenumbers:  4000. -  4650. cm-1, ATM      1
 LEVEL PRESSURE   UPWARD FLUX   DIFDOWN FLUX  DIRDOWN FLUX  DOWNWARD FLUX   NET FLUX    HEATING RATE
          mb          W/m2          W/m2          W/m2        W/m2          W/m2       degree/day
  51    .06700        3.7400        0.0000        6.9421        6.9421       3.202091       0.00000
  50    .07753        3.7400        0.0000        6.9421        6.9421       3.202090       0.00079
  49    .09103        3.7400        0.0000        6.9421        6.9421       3.202089       0.00078
  48    0.1069        3.7400        0.0000        6.9421        6.9421       3.202087       0.00076
  47    0.1255        3.7400        0.0000        6.9421        6.9421       3.202085       0.00074
  46    0.1487        3.7400        0.0000        6.9421        6.9421       3.202083       0.00075
  45    0.1794        3.7400        0.0000        6.9421        6.9421       3.202081       0.00077
  44    0.2165        3.7400        0.0000        6.9421        6.9421       3.202077       0.00076
  43    0.2613        3.7400        0.0000        6.9420        6.9420       3.202073       0.00074
  42    0.3336        3.7400        0.0000        6.9420        6.9420       3.202067       0.00076
  41    0.4307        3.7400        0.0000        6.9420        6.9420       3.202058       0.00077
  40    0.5894        3.7400        0.0000        6.9420        6.9420       3.202043       0.00079
  39     1.339        3.7400        0.0000        6.9419        6.9419       3.201954       0.00100
  38     1.782        3.7400        0.0000        6.9418        6.9419       3.201885       0.00132
  37     2.292        3.7400        0.0000        6.9418        6.9418       3.201791       0.00155
  36     2.964        3.7400        0.0000        6.9416        6.9416       3.201652       0.00175
  35     3.853        3.7400        0.0000        6.9414        6.9414       3.201445       0.00196
  34     5.035        3.7400        0.0000        6.9411        6.9411       3.201140       0.00218
  33     6.613        3.7400        0.0000        6.9406        6.9407       3.200692       0.00240
  32     8.786        3.7400        0.0000        6.9399        6.9400       3.200031       0.00257
  31     11.80        3.7399        0.0001        6.9389        6.9389       3.198995       0.00290
  30     15.07        3.7399        0.0001        6.9377        6.9377       3.197783       0.00313
  29     18.79        3.7399        0.0001        6.9362        6.9363       3.196321       0.00331
  28     23.16        3.7399        0.0001        6.9343        6.9344       3.194513       0.00350
  27     28.12        3.7399        0.0001        6.9321        6.9323       3.192333       0.00371
  26     33.73        3.7399        0.0001        6.9294        6.9296       3.189656       0.00402
  25     40.54        3.7399        0.0002        6.9258        6.9260       3.186045       0.00448
  24     48.69        3.7400        0.0002        6.9210        6.9212       3.181260       0.00495
  23     57.69        3.7400        0.0003        6.9154        6.9156       3.175627       0.00528
  22     68.43        3.7400        0.0003        6.9083        6.9086       3.168616       0.00551
  21     81.20        3.7401        0.0004        6.8998        6.9001       3.160032       0.00567
  20     96.49        3.7402        0.0004        6.8894        6.8899       3.149648       0.00573
  19     114.6        3.7404        0.0005        6.8765        6.8770       3.136623       0.00608
  18     136.5        3.7407        0.0006        6.8610        6.8616       3.120873       0.00606
  17     162.9        3.7412        0.0007        6.8417        6.8424       3.101217       0.00628
  16     196.4        3.7420        0.0008        6.8147        6.8155       3.073538       0.00697
  15     218.7        3.7427        0.0009        6.7948        6.7958       3.053077       0.00777
  14     243.0        3.7438        0.0010        6.7698        6.7708       3.027043       0.00903
  13     269.0        3.7455        0.0011        6.7349        6.7360       2.990500       0.01185
  12     297.5        3.7481        0.0013        6.6869        6.6881       2.940032       0.01497
  11     328.5        3.7518        0.0014        6.6194        6.6208       2.868993       0.01932
  10     361.9        3.7566        0.0015        6.5295        6.5310       2.774345       0.02395
   9     398.1        3.7631        0.0016        6.4202        6.4219       2.658801       0.02692
   8     437.6        3.7717        0.0018        6.2962        6.2980       2.526266       0.02834
   7     480.5        3.7837        0.0019        6.1555        6.1574       2.373695       0.02996
   6     533.0        3.8035        0.0021        5.9675        5.9696       2.166134       0.03339
   5     589.8        3.8327        0.0023        5.7368        5.7390       1.906334       0.03856
   4     651.6        3.8763        0.0024        5.4662        5.4687       1.592309       0.04294
   3     718.7        3.9389        0.0026        5.1912        5.1938       1.254905       0.04240
   2     792.3        4.0256        0.0027        4.9395        4.9422       0.916590       0.03880
   1     891.5        0.2329        1.0068        0.0000        1.0068       0.773828       0.01215
   0    1013.0        0.2418        0.9643        0.0000        0.9643       0.722566       0.00356



 Wavenumbers:  4650. -  5150. cm-1, ATM      1
 LEVEL PRESSURE   UPWARD FLUX   DIFDOWN FLUX  DIRDOWN FLUX  DOWNWARD FLUX   NET FLUX    HEATING RATE
          mb          W/m2          W/m2          W/m2        W/m2          W/m2       degree/day
  51    .06700        2.6214        0.0000        6.5710        6.5710       3.949619       0.00000
  50    .07753        2.6214        0.0000        6.5708        6.5708       3.949383       0.18887
  49    .09103        2.6214        0.0000        6.5705        6.5705       3.949089       0.18362
  48    0.1069        2.6214        0.0000        6.5701        6.5701       3.948755       0.17806
  47    0.1255        2.6214        0.0000        6.5697        6.5697       3.948374       0.17238
  46    0.1487        2.6214        0.0000        6.5693        6.5693       3.947901       0.17268
  45    0.1794        2.6214        0.0000        6.5686        6.5686       3.947264       0.17474
  44    0.2165        2.6214        0.0000        6.5679        6.5679       3.946526       0.16788
  43    0.2613        2.6214        0.0000        6.5670        6.5670       3.945673       0.16078
  42    0.3336        2.6214        0.0000        6.5657        6.5657       3.944310       0.15894
  41    0.4307        2.6214        0.0000        6.5640        6.5640       3.942588       0.14971
  40    0.5894        2.6214        0.0000        6.5613        6.5613       3.939972       0.13913
  39     1.339        2.6214        0.0000        6.5516        6.5516       3.930194       0.11008
  38     1.782        2.6214        0.0000        6.5473        6.5473       3.925978       0.08027
  37     2.292        2.6214        0.0000        6.5434        6.5435       3.922091       0.06438
  36     2.964        2.6214        0.0000        6.5395        6.5395       3.918135       0.04965
  35     3.853        2.6214        0.0000        6.5355        6.5356       3.914192       0.03743
  34     5.035        2.6214        0.0000        6.5315        6.5315       3.910187       0.02860
  33     6.613        2.6214        0.0000        6.5271        6.5271       3.905790       0.02351
  32     8.786        2.6214        0.0001        6.5216        6.5216       3.900289       0.02136
  31     11.80        2.6214        0.0001        6.5135        6.5136       3.892200       0.02265
  30     15.07        2.6214        0.0001        6.5041        6.5042       3.882817       0.02422
  29     18.79        2.6214        0.0001        6.4925        6.4926       3.871282       0.02615
  28     23.16        2.6214        0.0001        6.4779        6.4780       3.856662       0.02827
  27     28.12        2.6214        0.0002        6.4599        6.4601       3.838649       0.03062
  26     33.73        2.6214        0.0002        6.4384        6.4386       3.817168       0.03230
  25     40.54        2.6215        0.0003        6.4112        6.4115       3.789972       0.03374
  24     48.69        2.6216        0.0003        6.3775        6.3778       3.756235       0.03491
  23     57.69        2.6217        0.0004        6.3404        6.3407       3.719016       0.03489
  22     68.43        2.6219        0.0004        6.2971        6.2976       3.675651       0.03409
  21     81.20        2.6222        0.0005        6.2483        6.2488       3.626596       0.03242
  20     96.49        2.6225        0.0006        6.1948        6.1954       3.572894       0.02964
  19     114.6        2.6230        0.0007        6.1381        6.1388       3.515804       0.02666
  18     136.5        2.6238        0.0008        6.0790        6.0798       3.456070       0.02297
  17     162.9        2.6248        0.0010        6.0160        6.0170       3.392241       0.02040
  16     196.4        2.6264        0.0012        5.9399        5.9410       3.314655       0.01953
  15     218.7        2.6277        0.0013        5.8896        5.8909       3.263260       0.01951
  14     243.0        2.6294        0.0014        5.8322        5.8336       3.204254       0.02047
  13     269.0        2.6318        0.0016        5.7624        5.7640       3.132200       0.02337
  12     297.5        2.6352        0.0017        5.6767        5.6785       3.043252       0.02638
  11     328.5        2.6399        0.0019        5.5726        5.5745       2.934598       0.02954
  10     361.9        2.6462        0.0020        5.4473        5.4494       2.803171       0.03325
   9     398.1        2.6547        0.0022        5.2995        5.3017       2.647009       0.03638
   8     437.6        2.6661        0.0024        5.1275        5.1298       2.463768       0.03918
   7     480.5        2.6816        0.0025        4.9290        4.9315       2.249868       0.04201
   6     533.0        2.7063        0.0027        4.6794        4.6821       1.975796       0.04409
   5     589.8        2.7409        0.0029        4.4188        4.4217       1.680785       0.04379
   4     651.6        2.7901        0.0030        4.1521        4.1551       1.365019       0.04318
   3     718.7        2.8575        0.0032        3.8929        3.8962       1.038629       0.04102
   2     792.3        2.9482        0.0034        3.6469        3.6502       0.702035       0.03860
   1     891.5        0.1626        0.7217        0.0000        0.7217       0.559111       0.01216
   0    1013.0        0.1708        0.6815        0.0000        0.6815       0.510616       0.00337



 Wavenumbers:  5150. -  6150. cm-1, ATM      1
 LEVEL PRESSURE   UPWARD FLUX   DIFDOWN FLUX  DIRDOWN FLUX  DOWNWARD FLUX   NET FLUX    HEATING RATE
          mb          W/m2          W/m2          W/m2        W/m2          W/m2       degree/day
  51    .06700        6.4747        0.0000       16.4735       16.4735       9.998824       0.00000
  50    .07753        6.4747        0.0000       16.4735       16.4735       9.998790       0.02764
  49    .09103        6.4747        0.0000       16.4734       16.4734       9.998745       0.02813
  48    0.1069        6.4747        0.0000       16.4734       16.4734       9.998691       0.02862
  47    0.1255        6.4747        0.0000       16.4733       16.4733       9.998627       0.02907
  46    0.1487        6.4747        0.0000       16.4732       16.4732       9.998543       0.03062
  45    0.1794        6.4747        0.0000       16.4731       16.4731       9.998424       0.03272
  44    0.2165        6.4747        0.0000       16.4730       16.4730       9.998277       0.03334
  43    0.2613        6.4747        0.0000       16.4728       16.4728       9.998098       0.03379
  42    0.3336        6.4747        0.0000       16.4725       16.4725       9.997792       0.03567
  41    0.4307        6.4747        0.0000       16.4720       16.4720       9.997372       0.03648
  40    0.5894        6.4747        0.0000       16.4713       16.4713       9.996671       0.03732
  39     1.339        6.4747        0.0000       16.4679       16.4679       9.993259       0.03841
  38     1.782        6.4747        0.0001       16.4659       16.4659       9.991257       0.03812
  37     2.292        6.4747        0.0001       16.4635       16.4636       9.988962       0.03801
  36     2.964        6.4746        0.0001       16.4605       16.4606       9.985987       0.03734
  35     3.853        6.4746        0.0001       16.4567       16.4568       9.982126       0.03664
  34     5.035        6.4746        0.0001       16.4516       16.4517       9.977118       0.03578
  33     6.613        6.4746        0.0002       16.4451       16.4453       9.970641       0.03463
  32     8.786        6.4746        0.0003       16.4367       16.4369       9.962304       0.03238
  31     11.80        6.4746        0.0003       16.4254       16.4257       9.951114       0.03133
  30     15.07        6.4746        0.0004       16.4141       16.4146       9.939982       0.02874
  29     18.79        6.4746        0.0005       16.4024       16.4030       9.928405       0.02625
  28     23.16        6.4746        0.0007       16.3900       16.3906       9.916075       0.02384
  27     28.12        6.4746        0.0008       16.3771       16.3779       9.903326       0.02167
  26     33.73        6.4746        0.0010       16.3641       16.3651       9.890495       0.01929
  25     40.54        6.4746        0.0012       16.3502       16.3514       9.876712       0.01710
  24     48.69        6.4747        0.0014       16.3354       16.3368       9.862046       0.01518
  23     57.69        6.4748        0.0017       16.3211       16.3227       9.847915       0.01325
  22     68.43        6.4750        0.0020       16.3062       16.3082       9.833235       0.01154
  21     81.20        6.4752        0.0023       16.2903       16.2927       9.817477       0.01041
  20     96.49        6.4755        0.0028       16.2726       16.2754       9.799953       0.00967
  19     114.6        6.4758        0.0033       16.2521       16.2554       9.779587       0.00951
  18     136.5        6.4762        0.0039       16.2245       16.2285       9.752247       0.01051
  17     162.9        6.4768        0.0047       16.1747       16.1794       9.702617       0.01586
  16     196.4        6.4776        0.0056       16.0518       16.0574       9.579844       0.03090
  15     218.7        6.4782        0.0062       15.8984       15.9046       9.426380       0.05826
  14     243.0        6.4789        0.0068       15.6153       15.6220       9.143103       0.09825
  13     269.0        6.4800        0.0074       15.1390       15.1464       8.666331       0.15466
  12     297.5        6.4816        0.0079       14.5779       14.5858       8.104209       0.16672
  11     328.5        6.4840        0.0085       13.8780       13.8865       7.402515       0.19079
  10     361.9        6.4875        0.0090       13.0814       13.0904       6.602918       0.20231
   9     398.1        6.4926        0.0094       12.2728       12.2823       5.789665       0.18947
   8     437.6        6.5002        0.0098       11.4776       11.4874       4.987241       0.17156
   7     480.5        6.5118        0.0102       10.7300       10.7402       4.228361       0.14904
   6     533.0        6.5327        0.0107       10.0326       10.0433       3.510586       0.11547
   5     589.8        6.5661        0.0113        9.5050        9.5163       2.950234       0.08317
   4     651.6        6.6200        0.0120        9.0814        9.0934       2.473376       0.06521
   3     718.7        6.7030        0.0128        8.7024        8.7153       2.012283       0.05795
   2     792.3        6.8259        0.0137        8.3379        8.3517       1.525760       0.05580
   1     891.5        0.4088        1.7269        0.0000        1.7269       1.318098       0.01767
   0    1013.0        0.4189        1.6707        0.0000        1.6708       1.251898       0.00460



 Wavenumbers:  6150. -  7700. cm-1, ATM      1
 LEVEL PRESSURE   UPWARD FLUX   DIFDOWN FLUX  DIRDOWN FLUX  DOWNWARD FLUX   NET FLUX    HEATING RATE
          mb          W/m2          W/m2          W/m2        W/m2          W/m2       degree/day
  51    .06700       10.0999        0.0000       30.4684       30.4684      20.368502       0.00000
  50    .07753       10.0999        0.0000       30.4683       30.4683      20.368450       0.04144
  49    .09103       10.0999        0.0000       30.4683       30.4683      20.368383       0.04174
  48    0.1069       10.0999        0.0000       30.4682       30.4682      20.368304       0.04202
  47    0.1255       10.0999        0.0000       30.4681       30.4681      20.368211       0.04227
  46    0.1487       10.0999        0.0000       30.4680       30.4680      20.368090       0.04411
  45    0.1794       10.0999        0.0000       30.4678       30.4678      20.367920       0.04669
  44    0.2165       10.0999        0.0000       30.4676       30.4676      20.367713       0.04715
  43    0.2613       10.0999        0.0000       30.4673       30.4673      20.367461       0.04744
  42    0.3336       10.0999        0.0000       30.4669       30.4669      20.367034       0.04974
  41    0.4307       10.0998        0.0000       30.4663       30.4663      20.366453       0.05052
  40    0.5894       10.0998        0.0001       30.4653       30.4653      20.365486       0.05146
  39     1.339       10.0998        0.0002       30.4604       30.4606      20.360802       0.05273
  38     1.782       10.0997        0.0002       30.4576       30.4578      20.358052       0.05235
  37     2.292       10.0997        0.0003       30.4543       30.4546      20.354894       0.05231
  36     2.964       10.0996        0.0004       30.4501       30.4504      20.350786       0.05156
  35     3.853       10.0995        0.0005       30.4445       30.4450      20.345429       0.05084
  34     5.035       10.0994        0.0006       30.4373       30.4379      20.338429       0.05000
  33     6.613       10.0993        0.0008       30.4278       30.4286      20.329281       0.04890
  32     8.786       10.0991        0.0010       30.4154       30.4164      20.317329       0.04642
  31     11.80       10.0988        0.0014       30.3984       30.3998      20.300943       0.04588
  30     15.07       10.0985        0.0018       30.3810       30.3828      20.284229       0.04315
  29     18.79       10.0982        0.0023       30.3623       30.3645      20.266327       0.04059
  28     23.16       10.0978        0.0028       30.3417       30.3445      20.246643       0.03806
  27     28.12       10.0974        0.0034       30.3196       30.3229      20.225542       0.03587
  26     33.73       10.0969        0.0040       30.2965       30.3005      20.203621       0.03296
  25     40.54       10.0963        0.0048       30.2708       30.2756      20.179281       0.03020
  24     48.69       10.0956        0.0058       30.2423       30.2481      20.152501       0.02771
  23     57.69       10.0948        0.0069       30.2139       30.2207      20.125930       0.02491
  22     68.43       10.0939        0.0081       30.1834       30.1915      20.097648       0.02223
  21     81.20       10.0928        0.0097       30.1500       30.1597      20.066911       0.02031
  20     96.49       10.0914        0.0115       30.1126       30.1241      20.032680       0.01889
  19     114.6       10.0898        0.0136       30.0695       30.0831      19.993276       0.01840
  18     136.5       10.0880        0.0162       30.0139       30.0301      19.942091       0.01968
  17     162.9       10.0858        0.0192       29.9225       29.9417      19.855849       0.02757
  16     196.4       10.0831        0.0231       29.7333       29.7564      19.673318       0.04595
  15     218.7       10.0814        0.0256       29.5259       29.5514      19.470032       0.07718
  14     243.0       10.0797        0.0282       29.1375       29.1657      19.085906       0.13323
  13     269.0       10.0785        0.0307       28.3800       28.4107      18.332228       0.24449
  12     297.5       10.0780        0.0331       27.3895       27.4227      17.344627       0.29291
  11     328.5       10.0791        0.0354       26.2257       26.2611      16.182070       0.31610
  10     361.9       10.0826        0.0376       24.8453       24.8829      14.800346       0.34959
   9     398.1       10.0899        0.0396       23.3471       23.3866      13.296701       0.35032
   8     437.6       10.1034        0.0413       21.7966       21.8379      11.734492       0.33401
   7     480.5       10.1278        0.0427       20.1977       20.2404      10.112653       0.31852
   6     533.0       10.1755        0.0442       18.4969       18.5412       8.365689       0.28103
   5     589.8       10.2553        0.0458       16.9754       17.0212       6.765870       0.23747
   4     651.6       10.3876        0.0474       15.6022       15.6495       5.261903       0.20567
   3     718.7       10.5928        0.0491       14.4232       14.4723       3.879522       0.17373
   2     792.3       10.8989        0.0512       13.4386       13.4898       2.590839       0.14780
   1     891.5        0.6124        2.6872        0.0000        2.6872       2.074762       0.04392
   0    1013.0        0.6385        2.5468        0.0000        2.5468       1.908293       0.01156



 Wavenumbers:  7700. -  8050. cm-1, ATM      1
 LEVEL PRESSURE   UPWARD FLUX   DIFDOWN FLUX  DIRDOWN FLUX  DOWNWARD FLUX   NET FLUX    HEATING RATE
          mb          W/m2          W/m2          W/m2        W/m2          W/m2       degree/day
  51    .06700        4.8063        0.0000        7.2006        7.2006       2.394281       0.00000
  50    .07753        4.8063        0.0000        7.2006        7.2006       2.394260       0.01677
  49    .09103        4.8063        0.0000        7.2005        7.2005       2.394234       0.01644
  48    0.1069        4.8063        0.0000        7.2005        7.2005       2.394204       0.01609
  47    0.1255        4.8063        0.0000        7.2005        7.2005       2.394169       0.01575
  46    0.1487        4.8063        0.0000        7.2004        7.2005       2.394125       0.01598
  45    0.1794        4.8063        0.0000        7.2004        7.2004       2.394065       0.01644
  44    0.2165        4.8063        0.0000        7.2003        7.2003       2.393995       0.01613
  43    0.2613        4.8064        0.0000        7.2003        7.2003       2.393911       0.01583
  42    0.3336        4.8064        0.0000        7.2001        7.2001       2.393772       0.01619
  41    0.4307        4.8064        0.0000        7.2000        7.2000       2.393587       0.01602
  40    0.5894        4.8064        0.0000        7.1997        7.1997       2.393287       0.01600
  39     1.339        4.8066        0.0001        7.1984        7.1985       2.391864       0.01602
  38     1.782        4.8068        0.0001        7.1977        7.1978       2.391028       0.01591
  37     2.292        4.8069        0.0001        7.1968        7.1969       2.390061       0.01602
  36     2.964        4.8071        0.0002        7.1957        7.1959       2.388791       0.01594
  35     3.853        4.8073        0.0002        7.1942        7.1944       2.387115       0.01591
  34     5.035        4.8076        0.0003        7.1922        7.1925       2.384890       0.01590
  33     6.613        4.8080        0.0003        7.1896        7.1899       2.381919       0.01588
  32     8.786        4.8086        0.0005        7.1860        7.1865       2.377921       0.01553
  31     11.80        4.8094        0.0006        7.1810        7.1816       2.372212       0.01598
  30     15.07        4.8102        0.0008        7.1755        7.1763       2.366096       0.01579
  29     18.79        4.8112        0.0010        7.1694        7.1704       2.359205       0.01562
  28     23.16        4.8124        0.0012        7.1623        7.1635       2.351182       0.01551
  27     28.12        4.8137        0.0015        7.1542        7.1557       2.342040       0.01554
  26     33.73        4.8152        0.0018        7.1452        7.1470       2.331853       0.01532
  25     40.54        4.8169        0.0021        7.1344        7.1366       2.319607       0.01519
  24     48.69        4.8191        0.0025        7.1215        7.1240       2.304934       0.01518
  23     57.69        4.8215        0.0030        7.1074        7.1104       2.288929       0.01500
  22     68.43        4.8244        0.0035        7.0909        7.0944       2.270020       0.01486
  21     81.20        4.8278        0.0042        7.0713        7.0756       2.247708       0.01474
  20     96.49        4.8320        0.0050        7.0484        7.0534       2.221417       0.01451
  19     114.6        4.8370        0.0059        7.0217        7.0276       2.190607       0.01439
  18     136.5        4.8430        0.0070        6.9906        6.9976       2.154633       0.01383
  17     162.9        4.8502        0.0083        6.9544        6.9627       2.112514       0.01346
  16     196.4        4.8597        0.0100        6.9087        6.9187       2.058992       0.01347
  15     218.7        4.8661        0.0111        6.8794        6.8905       2.024402       0.01313
  14     243.0        4.8732        0.0123        6.8481        6.8604       1.987243       0.01289
  13     269.0        4.8810        0.0136        6.8147        6.8283       1.947345       0.01294
  12     297.5        4.8896        0.0150        6.7791        6.7940       1.904458       0.01272
  11     328.5        4.8992        0.0165        6.7409        6.7574       1.858195       0.01258
  10     361.9        4.9100        0.0181        6.7002        6.7182       1.808214       0.01265
   9     398.1        4.9222        0.0198        6.6563        6.6761       1.753880       0.01266
   8     437.6        4.9360        0.0217        6.6089        6.6305       1.694507       0.01269
   7     480.5        4.9519        0.0237        6.5570        6.5806       1.628708       0.01292
   6     533.0        4.9732        0.0261        6.4915        6.5176       1.544304       0.01358
   5     589.8        4.9986        0.0287        6.4182        6.4469       1.448274       0.01425
   4     651.6        5.0291        0.0314        6.3359        6.3673       1.338171       0.01506
   3     718.7        5.0656        0.0344        6.2441        6.2785       1.212956       0.01574
   2     792.3        5.1083        0.0375        6.1437        6.1812       1.072874       0.01607
   1     891.5        0.3221        1.3276        0.0000        1.3276       1.005561       0.00573
   0    1013.0        0.3272        1.3051        0.0000        1.3051       0.977907       0.00192



 Wavenumbers:  8050. - 12850. cm-1, ATM      1
 LEVEL PRESSURE   UPWARD FLUX   DIFDOWN FLUX  DIRDOWN FLUX  DOWNWARD FLUX   NET FLUX    HEATING RATE
          mb          W/m2          W/m2          W/m2        W/m2          W/m2       degree/day
  51    .06700       62.3906        0.0000      100.8135      100.8135      38.422937       0.00000
  50    .07753       62.3906        0.0000      100.8135      100.8135      38.422937       0.00000
  49    .09103       62.3905        0.0001      100.8134      100.8135      38.422937       0.00000
  48    0.1069       62.3905        0.0001      100.8134      100.8135      38.422937      -0.00000
  47    0.1255       62.3905        0.0001      100.8133      100.8134      38.422937      -0.00000
  46    0.1487       62.3905        0.0002      100.8132      100.8134      38.422937       0.00000
  45    0.1794       62.3904        0.0003      100.8131      100.8134      38.422937      -0.00000
  44    0.2165       62.3904        0.0004      100.8129      100.8133      38.422937       0.00000
  43    0.2613       62.3903        0.0005      100.8127      100.8132      38.422937       0.00000
  42    0.3336       62.3902        0.0007      100.8125      100.8131      38.422937      -0.00000
  41    0.4307       62.3901        0.0009      100.8121      100.8130      38.422937       0.00000
  40    0.5894       62.3898        0.0013      100.8115      100.8128      38.422937      -0.00000
  39     1.339       62.3888        0.0032      100.8085      100.8117      38.422937      -0.00000
  38     1.782       62.3882        0.0044      100.8068      100.8111      38.422937       0.00000
  37     2.292       62.3875        0.0057      100.8047      100.8104      38.422937       0.00000
  36     2.964       62.3865        0.0074      100.8021      100.8095      38.422937       0.00000
  35     3.853       62.3853        0.0096      100.7986      100.8082      38.422937      -0.00000
  34     5.035       62.3836        0.0126      100.7940      100.8066      38.422937      -0.00000
  33     6.613       62.3814        0.0166      100.7878      100.8044      38.422937       0.00000
  32     8.786       62.3785        0.0220      100.7794      100.8014      38.422937       0.00000
  31     11.80       62.3742        0.0297      100.7674      100.7971      38.422937       0.00000
  30     15.07       62.3696        0.0380      100.7546      100.7926      38.422937       0.00000
  29     18.79       62.3645        0.0474      100.7400      100.7874      38.422937       0.00000
  28     23.16       62.3584        0.0584      100.7230      100.7813      38.422937      -0.00000
  27     28.12       62.3515        0.0709      100.7035      100.7744      38.422937       0.00000
  26     33.73       62.3437        0.0850      100.6817      100.7667      38.422937       0.00000
  25     40.54       62.3343        0.1020      100.6552      100.7573      38.422937       0.00000
  24     48.69       62.3230        0.1226      100.6234      100.7459      38.422937      -0.00000
  23     57.69       62.3105        0.1452      100.5883      100.7335      38.422937       0.00000
  22     68.43       62.2957        0.1721      100.5464      100.7186      38.422937       0.00000
  21     81.20       62.2779        0.2043      100.4965      100.7008      38.422937      -0.00000
  20     96.49       62.2567        0.2427      100.4370      100.6797      38.422937       0.00000
  19     114.6       62.2317        0.2884      100.3585      100.6468      38.415136       0.00364
  18     136.5       62.2020        0.3426      100.2634      100.6059      38.403918       0.00431
  17     162.9       62.1667        0.4072      100.1407      100.5479      38.381201       0.00726
  16     196.4       62.1210        0.4912       99.9505      100.4417      38.320714       0.01523
  15     218.7       62.0911        0.5464       99.7889      100.3354      38.244275       0.02902
  14     243.0       62.0591        0.6064       99.5472      100.1535      38.094487       0.05195
  13     269.0       62.0262        0.6710       99.1452       99.8162      37.790078       0.09875
  12     297.5       61.9939        0.7404       98.5975       99.3379      37.344012       0.13230
  11     328.5       61.9648        0.8149       97.8659       98.6807      36.715935       0.17077
  10     361.9       61.9427        0.8941       96.8848       97.7788      35.836115       0.22260
   9     398.1       61.9329        0.9778       95.6330       96.6108      34.677944       0.26983
   8     437.6       61.9448        1.0658       94.0655       95.1313      33.186465       0.31889
   7     480.5       61.9973        1.1570       92.0807       93.2377      31.240434       0.38219
   6     533.0       62.1301        1.2651       89.4449       90.7099      28.579854       0.42800
   5     589.8       62.3776        1.3771       86.5544       87.9315      25.553889       0.44915
   4     651.6       62.8063        1.4926       83.4174       84.9100      22.103705       0.47182
   3     718.7       63.4725        1.6123       80.2037       81.8160      18.343521       0.47255
   2     792.3       64.4457        1.7370       77.0811       78.8181      14.372397       0.45544
   1     891.5        3.9131       16.5252        0.0001       16.5253      12.612213       0.14978
   0    1013.0        4.0074       15.9848        0.0001       15.9848      11.977444       0.04408



 Wavenumbers: 12850. - 16000. cm-1, ATM      1
 LEVEL PRESSURE   UPWARD FLUX   DIFDOWN FLUX  DIRDOWN FLUX  DOWNWARD FLUX   NET FLUX    HEATING RATE
          mb          W/m2          W/m2          W/m2        W/m2          W/m2       degree/day
  51    .06700       46.2506        0.0000       63.1686       63.1686      16.917957       0.00000
  50    .07753       46.2506        0.0001       63.1677       63.1678      16.917174       0.62711
  49    .09103       46.2506        0.0001       63.1666       63.1668      16.916198       0.60982
  48    0.1069       46.2506        0.0002       63.1654       63.1656      16.915087       0.59179
  47    0.1255       46.2505        0.0003       63.1640       63.1643      16.913821       0.57374
  46    0.1487       46.2505        0.0005       63.1623       63.1627      16.912241       0.57593
  45    0.1794       46.2505        0.0006       63.1600       63.1606      16.910120       0.58230
  44    0.2165       46.2505        0.0008       63.1573       63.1581      16.907664       0.55875
  43    0.2613       46.2505        0.0011       63.1542       63.1553      16.904826       0.53491
  42    0.3336       46.2505        0.0015       63.1493       63.1508      16.900295       0.52825
  41    0.4307       46.2505        0.0020       63.1431       63.1451      16.894614       0.49399
  40    0.5894       46.2507        0.0029       63.1338       63.1367      16.885974       0.45948
  39     1.339       46.2534        0.0070       63.0956       63.1026      16.849157       0.41448
  38     1.782       46.2563        0.0094       63.0740       63.0834      16.827172       0.41857
  37     2.292       46.2608        0.0122       63.0477       63.0599      16.799107       0.46482
  36     2.964       46.2685        0.0159       63.0095       63.0254      16.756902       0.52980
  35     3.853       46.2813        0.0207       62.9533       62.9740      16.692679       0.60949
  34     5.035       46.3008        0.0271       62.8725       62.8996      16.598818       0.67050
  33     6.613       46.3282        0.0357       62.7621       62.7978      16.469561       0.69101
  32     8.786       46.3638        0.0472       62.6182       62.6655      16.301726       0.65181
  31     11.80       46.4096        0.0637       62.4284       62.4921      16.082453       0.61389
  30     15.07       46.4530        0.0813       62.2426       62.3240      15.870954       0.54605
  29     18.79       46.4968        0.1012       62.0493       62.1505      15.653765       0.49243
  28     23.16       46.5418        0.1244       61.8424       61.9669      15.425029       0.44230
  27     28.12       46.5863        0.1509       61.6278       61.7787      15.192380       0.39549
  26     33.73       46.6259        0.1804       61.4177       61.5981      14.972136       0.33114
  25     40.54       46.6621        0.2161       61.1983       61.4144      14.752215       0.27284
  24     48.69       46.6944        0.2590       60.9680       61.2270      14.532544       0.22733
  23     57.69       46.7189        0.3061       60.7478       61.0539      14.335001       0.18517
  22     68.43       46.7361        0.3621       60.5202       60.8823      14.146216       0.14841
  21     81.20       46.7403        0.4289       60.2938       60.7227      13.982414       0.10824
  20     96.49       46.7303        0.5084       60.0643       60.5727      13.842463       0.07724
  19     114.6       46.7179        0.6035       59.8078       60.4113      13.693426       0.06959
  18     136.5       46.6966        0.7160       59.5157       60.2317      13.535093       0.06088
  17     162.9       46.6654        0.8496       59.1770       60.0267      13.361316       0.05555
  16     196.4       46.6121        1.0226       58.7604       59.7830      13.170880       0.04794
  15     218.7       46.5727        1.1359       58.4948       59.6307      13.058012       0.04285
  14     243.0       46.5280        1.2589       58.2089       59.4678      12.939788       0.04100
  13     269.0       46.4781        1.3919       57.9006       59.2925      12.814397       0.04068
  12     297.5       46.4233        1.5354       57.5668       59.1021      12.678848       0.04020
  11     328.5       46.3652        1.6900       57.2005       58.8905      12.525279       0.04175
  10     361.9       46.3051        1.8561       56.7963       58.6524      12.347322       0.04502
   9     398.1       46.2444        2.0343       56.3475       58.3818      12.137356       0.04892
   8     437.6       46.1863        2.2248       55.8422       58.0670      11.880701       0.05487
   7     480.5       46.1365        2.4278       55.2625       57.6903      11.553829       0.06420
   6     533.0       46.0962        2.6757       54.4972       57.1728      11.076598       0.07677
   5     589.8       46.0796        2.9396       53.6307       56.5703      10.490636       0.08698
   4     651.6       46.0994        3.2187       52.6606       55.8793       9.779890       0.09720
   3     718.7       46.1639        3.5135       51.6100       55.1235       8.959601       0.10309
   2     792.3       46.2843        3.8238       50.5019       54.3257       8.041385       0.10531
   1     891.5        9.0883       16.6395        0.0001       16.6395       7.551190       0.04171
   0    1013.0        9.1592       16.4230        0.0001       16.4231       7.263927       0.01995



 Wavenumbers: 16000. - 22650. cm-1, ATM      1
 LEVEL PRESSURE   UPWARD FLUX   DIFDOWN FLUX  DIRDOWN FLUX  DOWNWARD FLUX   NET FLUX    HEATING RATE
          mb          W/m2          W/m2          W/m2        W/m2          W/m2       degree/day
  51    .06700       81.3064        0.0000      100.7153      100.7153      19.408854       0.00000
  50    .07753       81.3063        0.0003      100.7147      100.7151      19.408734       0.09612
  49    .09103       81.3062        0.0007      100.7140      100.7148      19.408560       0.10902
  48    0.1069       81.3060        0.0012      100.7131      100.7144      19.408326       0.12432
  47    0.1255       81.3059        0.0018      100.7121      100.7139      19.408014       0.14171
  46    0.1487       81.3057        0.0025      100.7108      100.7132      19.407553       0.16793
  45    0.1794       81.3055        0.0034      100.7089      100.7123      19.406833       0.19772
  44    0.2165       81.3052        0.0046      100.7066      100.7111      19.405856       0.22221
  43    0.2613       81.3050        0.0059      100.7037      100.7096      19.404531       0.24982
  42    0.3336       81.3048        0.0081      100.6987      100.7068      19.402011       0.29378
  41    0.4307       81.3046        0.0110      100.6918      100.7028      19.398213       0.33023
  40    0.5894       81.3046        0.0158      100.6797      100.6955      19.390970       0.38518
  39     1.339       81.3104        0.0384      100.6095      100.6479      19.337467       0.60235
  38     1.782       81.3182        0.0517      100.5585      100.6101      19.291902       0.86748
  37     2.292       81.3313        0.0670      100.4903      100.5573      19.225966       1.09207
  36     2.964       81.3547        0.0872      100.3868      100.4739      19.119196       1.34028
  35     3.853       81.3945        0.1138      100.2306      100.3444      18.949894       1.60670
  34     5.035       81.4559        0.1490      100.0045      100.1535      18.697569       1.80251
  33     6.613       81.5425        0.1960       99.6939       99.8899      18.347420       1.87190
  32     8.786       81.6546        0.2592       99.2881       99.5473      17.892683       1.76604
  31     11.80       81.7980        0.3493       98.7496       99.0989      17.300881       1.65686
  30     15.07       81.9323        0.4457       98.2198       98.6655      16.733214       1.46560
  29     18.79       82.0663        0.5543       97.6651       98.2194      16.153083       1.31534
  28     23.16       82.2024        0.6806       97.0671       97.7477      15.545362       1.17514
  27     28.12       82.3341        0.8245       96.4406       97.2651      14.930992       1.04439
  26     33.73       82.4472        0.9851       95.8179       96.8030      14.355754       0.86489
  25     40.54       82.5442        1.1784       95.1548       96.3332      13.789032       0.70308
  24     48.69       82.6227        1.4106       94.4420       95.8525      13.229836       0.57868
  23     57.69       82.6719        1.6646       93.7416       95.4062      12.734303       0.46449
  22     68.43       82.6907        1.9660       92.9954       94.9613      12.270651       0.36449
  21     81.20       82.6584        2.3237       92.2231       94.5468      11.888357       0.25261
  20     96.49       82.5697        2.7480       91.4110       94.1590      11.589314       0.16505
  19     114.6       82.4393        3.2484       90.5070       93.7554      11.316172       0.12754
  18     136.5       82.2685        3.8367       89.4803       93.3170      11.048423       0.10296
  17     162.9       82.0514        4.5304       88.3022       92.8326      10.781275       0.08539
  16     196.4       81.7385        5.4200       86.8606       92.2806      10.542062       0.06021
  15     218.7       81.5225        5.9980       85.9492       91.9472      10.424676       0.04457
  14     243.0       81.2836        6.6207       84.9789       91.5996      10.315971       0.03770
  13     269.0       81.0209        7.2891       83.9493       91.2384      10.217462       0.03196
  12     297.5       80.7337        8.0041       82.8589       90.8630      10.129262       0.02616
  11     328.5       80.4238        8.7682       81.6982       90.4664      10.042577       0.02357
  10     361.9       80.0913        9.5811       80.4669       90.0481       9.956839       0.02169
   9     398.1       79.7354       10.4450       79.1611       89.6061       9.870770       0.02005
   8     437.6       79.3569       11.3601       77.7777       89.1378       9.780910       0.01921
   7     480.5       78.9565       12.3268       76.3136       88.6405       9.683912       0.01905
   6     533.0       78.4722       13.4969       74.5359       88.0328       9.560600       0.01984
   5     589.8       77.9621       14.7339       72.6469       87.3809       9.418810       0.02105
   4     651.6       77.4292       16.0360       70.6456       86.6816       9.252424       0.02275
   3     718.7       76.8743       17.4011       68.5367       85.9378       9.063496       0.02374
   2     792.3       76.3004       18.8239       66.3287       85.1526       8.852177       0.02424
   1     891.5       31.3352       40.0439        0.0001       40.0440       8.708848       0.01220
   0    1013.0       31.2875       39.8718        0.0001       39.8719       8.584420       0.00864



 Wavenumbers: 22650. - 29000. cm-1, ATM      1
 LEVEL PRESSURE   UPWARD FLUX   DIFDOWN FLUX  DIRDOWN FLUX  DOWNWARD FLUX   NET FLUX    HEATING RATE
          mb          W/m2          W/m2          W/m2        W/m2          W/m2       degree/day
  51    .06700       34.5602        0.0000       38.0063       38.0063       3.446085       0.00000
  50    .07753       34.5600        0.0004       38.0057       38.0061       3.446085       0.00000
  49    .09103       34.5598        0.0009       38.0050       38.0059       3.446085      -0.00000
  48    0.1069       34.5596        0.0014       38.0042       38.0057       3.446085       0.00000
  47    0.1255       34.5593        0.0021       38.0033       38.0054       3.446085       0.00000
  46    0.1487       34.5590        0.0029       38.0022       38.0051       3.446085       0.00000
  45    0.1794       34.5585        0.0040       38.0006       38.0046       3.446085       0.00000
  44    0.2165       34.5579        0.0053       37.9987       38.0040       3.446085      -0.00000
  43    0.2613       34.5573        0.0068       37.9965       38.0033       3.446085      -0.00000
  42    0.3336       34.5562        0.0094       37.9928       38.0022       3.446085       0.00000
  41    0.4307       34.5547        0.0128       37.9880       38.0008       3.446085       0.00000
  40    0.5894       34.5523        0.0184       37.9800       37.9984       3.446085      -0.00000
  39     1.339       34.5410        0.0446       37.9425       37.9871       3.446085      -0.00000
  38     1.782       34.5344        0.0601       37.9204       37.9805       3.446085      -0.00000
  37     2.292       34.5267        0.0779       37.8949       37.9728       3.446085       0.00000
  36     2.964       34.5167        0.1013       37.8614       37.9627       3.446085       0.00000
  35     3.853       34.5034        0.1322       37.8172       37.9495       3.446085      -0.00000
  34     5.035       34.4857        0.1732       37.7586       37.9318       3.446085       0.00000
  33     6.613       34.4622        0.2280       37.6803       37.9083       3.446085      -0.00000
  32     8.786       34.4305        0.3016       37.5750       37.8766       3.446085       0.00000
  31     11.80       34.3854        0.4066       37.4249       37.8315       3.446085       0.00000
  30     15.07       34.3370        0.5189       37.2642       37.7831       3.446085       0.00000
  29     18.79       34.2826        0.6453       37.0833       37.7286       3.446085       0.00000
  28     23.16       34.2192        0.7923       36.8730       37.6653       3.446085      -0.00000
  27     28.12       34.1472        0.9595       36.6338       37.5932       3.446085      -0.00000
  26     33.73       34.0670        1.1453       36.3677       37.5130       3.446085       0.00000
  25     40.54       33.9707        1.3682       36.0486       37.4168       3.446085       0.00000
  24     48.69       33.8556        1.6345       35.6672       37.3017       3.446085       0.00000
  23     57.69       33.7304        1.9238       35.2527       37.1765       3.446085      -0.00000
  22     68.43       33.5829        2.2640       34.7649       37.0290       3.446085       0.00000
  21     81.20       33.4095        2.6633       34.1922       36.8556       3.446085      -0.00000
  20     96.49       33.2062        3.1305       33.5217       36.6523       3.446085       0.00000
  19     114.6       32.9695        3.6732       32.7424       36.4156       3.446085       0.00000
  18     136.5       32.6953        4.2998       31.8416       36.1414       3.446085      -0.00000
  17     162.9       32.3776        5.0229       30.8008       35.8237       3.446085       0.00000
  16     196.4       31.9795        5.9249       29.5007       35.4256       3.446085       0.00000
  15     218.7       31.7264        6.4958       28.6767       35.1725       3.446085      -0.00000
  14     243.0       31.4584        7.0977       27.8068       34.9044       3.446085       0.00000
  13     269.0       31.1760        7.7288       26.8933       34.6221       3.446085      -0.00000
  12     297.5       30.8801        8.3869       25.9393       34.3262       3.446085      -0.00000
  11     328.5       30.5705        9.0715       24.9451       34.0166       3.446085       0.00000
  10     361.9       30.2487        9.7788       23.9160       33.6948       3.446085      -0.00000
   9     398.1       29.9149       10.5069       22.8541       33.3610       3.446085       0.00000
   8     437.6       29.5705       11.2521       21.7645       33.0166       3.446085       0.00000
   7     480.5       29.2167       12.0106       20.6521       32.6628       3.446085      -0.00000
   6     533.0       28.8015       12.8907       19.3569       32.2476       3.446085       0.00000
   5     589.8       28.3776       13.7769       18.0467       31.8237       3.446085      -0.00000
   4     651.6       27.9475       14.6619       16.7316       31.3935       3.446085       0.00000
   3     718.7       27.5135       15.5382       15.4214       30.9596       3.446085      -0.00000
   2     792.3       27.0789       16.3973       14.1276       30.5249       3.446085       0.00000
   1     891.5       12.6778       16.1236        0.0000       16.1236       3.445760       0.00003
   0    1013.0       12.5587       16.0044        0.0000       16.0045       3.445760      -0.00000



 Wavenumbers: 29000. - 38000. cm-1, ATM      1
 LEVEL PRESSURE   UPWARD FLUX   DIFDOWN FLUX  DIRDOWN FLUX  DOWNWARD FLUX   NET FLUX    HEATING RATE
          mb          W/m2          W/m2          W/m2        W/m2          W/m2       degree/day
  51    .06700        4.9822        0.0000       13.4026       13.4026       8.420384       0.00000
  50    .07753        4.9820        0.0003       13.3983       13.3986       8.416586       3.04448
  49    .09103        4.9817        0.0007       13.3921       13.3928       8.411067       3.44978
  48    0.1069        4.9814        0.0011       13.3840       13.3851       8.403689       3.92689
  47    0.1255        4.9811        0.0016       13.3733       13.3749       8.393844       4.46332
  46    0.1487        4.9806        0.0022       13.3579       13.3600       8.379401       5.26456
  45    0.1794        4.9801        0.0030       13.3340       13.3371       8.357001       6.14948
  44    0.2165        4.9794        0.0040       13.3024       13.3064       8.326981       6.82901
  43    0.2613        4.9786        0.0052       13.2604       13.2656       8.286925       7.55038
  42    0.3336        4.9774        0.0071       13.1833       13.1903       8.212916       8.62875
  41    0.4307        4.9759        0.0095       13.0729       13.0824       8.106539       9.24918
  40    0.5894        4.9735        0.0134       12.8796       12.8930       7.919488       9.94716
  39     1.339        4.9652        0.0297       11.9165       11.9462       6.981087      10.56469
  38     1.782        4.9619        0.0380       11.4399       11.4780       6.516053       8.85349
  37     2.292        4.9595        0.0470       10.9796       11.0266       6.067045       7.43674
  36     2.964        4.9582        0.0579       10.4786       10.5365       5.578292       6.13533
  35     3.853        4.9591        0.0714        9.9429       10.0143       5.055239       4.96386
  34     5.035        4.9628        0.0883        9.4007        9.4890       4.526215       3.77913
  33     6.613        4.9695        0.1097        8.8752        8.9850       4.015414       2.73074
  32     8.786        4.9788        0.1374        8.3786        8.5159       3.537143       1.85743
  31     11.80        4.9902        0.1753        7.8897        8.0649       3.074776       1.29448
  30     15.07        5.0001        0.2144        7.5108        7.7252       2.725161       0.90264
  29     18.79        5.0093        0.2571        7.1776        7.4347       2.425346       0.67977
  28     23.16        5.0180        0.3051        6.8664        7.1715       2.153584       0.52550
  27     28.12        5.0251        0.3582        6.5780        6.9363       1.911123       0.41217
  26     33.73        5.0284        0.4161        6.3195        6.7356       1.707207       0.30659
  25     40.54        5.0266        0.4844        6.0663        6.5507       1.524085       0.22718
  24     48.69        5.0192        0.5645        5.8128        6.3773       1.358063       0.17181
  23     57.69        5.0062        0.6499        5.5777        6.2276       1.221447       0.12806
  22     68.43        4.9852        0.7488        5.3379        6.0867       1.101524       0.09428
  21     81.20        4.9520        0.8636        5.0965        5.9601       1.008104       0.06173
  20     96.49        4.9053        0.9962        4.8476        5.8438       0.938481       0.03843
  19     114.6        4.8485        1.1465        4.5799        5.7263       0.877827       0.02832
  18     136.5        4.7826        1.3144        4.2891        5.6035       0.820923       0.02188
  17     162.9        4.7073        1.5008        3.9732        5.4739       0.766616       0.01736
  16     196.4        4.6119        1.7240        3.6080        5.3321       0.720133       0.01170
  15     218.7        4.5518        1.8600        3.3898        5.2498       0.697977       0.00841
  14     243.0        4.4893        1.9986        3.1686        5.1672       0.677860       0.00698
  13     269.0        4.4248        2.1388        2.9461        5.0849       0.660099       0.00576
  12     297.5        4.3587        2.2795        2.7239        5.0034       0.644715       0.00456
  11     328.5        4.2917        2.4191        2.5029        4.9220       0.630248       0.00393
  10     361.9        4.2244        2.5566        2.2846        4.8412       0.616720       0.00342
   9     398.1        4.1572        2.6906        2.0708        4.7613       0.604126       0.00293
   8     437.6        4.0905        2.8201        1.8626        4.6827       0.592198       0.00255
   7     480.5        4.0248        2.9437        1.6621        4.6059       0.581065       0.00219
   6     533.0        3.9512        3.0767        1.4437        4.5204       0.569143       0.00192
   5     589.8        3.8801        3.1989        1.2390        4.4379       0.557809       0.00168
   4     651.6        3.8120        3.3089        1.0500        4.3589       0.546909       0.00149
   3     718.7        3.7471        3.4057        0.8778        4.2835       0.536407       0.00132
   2     792.3        3.6859        3.4885        0.7237        4.2122       0.526281       0.00116
   1     891.5        1.8927        2.4100        0.0000        2.4100       0.517255       0.00077
   0    1013.0        1.8593        2.3694        0.0000        2.3694       0.510142       0.00049



 Wavenumbers: 38000. - 50000. cm-1, ATM      1
 LEVEL PRESSURE   UPWARD FLUX   DIFDOWN FLUX  DIRDOWN FLUX  DOWNWARD FLUX   NET FLUX    HEATING RATE
          mb          W/m2          W/m2          W/m2        W/m2          W/m2       degree/day
  51    .06700        0.0051        0.0000        0.8267        0.8267       0.821528       0.00000
  50    .07753        0.0051        0.0001        0.8242        0.8243       0.819196       1.86936
  49    .09103        0.0050        0.0002        0.8207        0.8209       0.815872       2.07705
  48    0.1069        0.0049        0.0002        0.8162        0.8164       0.811514       2.31984
  47    0.1255        0.0048        0.0004        0.8103        0.8106       0.805801       2.59006
  46    0.1487        0.0047        0.0005        0.8018        0.8023       0.797567       3.00143
  45    0.1794        0.0045        0.0007        0.7889        0.7896       0.785013       3.44648
  44    0.2165        0.0044        0.0009        0.7720        0.7729       0.768507       3.75474
  43    0.2613        0.0042        0.0011        0.7500        0.7511       0.746955       4.06246
  42    0.3336        0.0039        0.0015        0.7106        0.7121       0.708267       4.51071
  41    0.4307        0.0035        0.0019        0.6566        0.6584       0.654972       4.63387
  40    0.5894        0.0029        0.0024        0.5680        0.5704       0.567464       4.65357
  39     1.339        0.0015        0.0030        0.2422        0.2452       0.243720       3.64476
  38     1.782        0.0010        0.0026        0.1493        0.1519       0.150889       1.76735
  37     2.292        0.0007        0.0022        0.0924        0.0946       0.093932       0.94336
  36     2.964        0.0005        0.0018        0.0539        0.0557       0.055224       0.48589
  35     3.853        0.0003        0.0013        0.0295        0.0308       0.030502       0.23462
  34     5.035        0.0002        0.0010        0.0154        0.0164       0.016181       0.10230
  33     6.613        0.0001        0.0007        0.0073        0.0080       0.007912       0.04420
  32     8.786        0.0000        0.0004        0.0030        0.0034       0.003390       0.01756
  31     11.80        0.0000        0.0003        0.0010        0.0012       0.001199       0.00613
  30     15.07        0.0000        0.0001        0.0003        0.0005       0.000463       0.00190
  29     18.79        0.0000        0.0001        0.0001        0.0002       0.000182       0.00064
  28     23.16        0.0000        0.0000        0.0000        0.0001       0.000071       0.00022
  27     28.12        0.0000        0.0000        0.0000        0.0000       0.000028       0.00007
  26     33.73        0.0000        0.0000        0.0000        0.0000       0.000011       0.00002
  25     40.54        0.0000        0.0000        0.0000        0.0000       0.000005       0.00001
  24     48.69        0.0000        0.0000        0.0000        0.0000       0.000002       0.00000
  23     57.69        0.0000        0.0000        0.0000        0.0000       0.000001       0.00000
  22     68.43        0.0000        0.0000        0.0000        0.0000       0.000000       0.00000
  21     81.20        0.0000        0.0000        0.0000        0.0000       0.000000       0.00000
  20     96.49        0.0000        0.0000        0.0000        0.0000       0.000000       0.00000
  19     114.6        0.0000        0.0000        0.0000        0.0000       0.000000       0.00000
  18     136.5        0.0000        0.0000        0.0000        0.0000       0.000000       0.00000
  17     162.9        0.0000        0.0000        0.0000        0.0000       0.000000       0.00000
  16     196.4        0.0000        0.0000        0.0000        0.0000       0.000000       0.00000
  15     218.7        0.0000        0.0000        0.0000        0.0000       0.000000       0.00000
  14     243.0        0.0000        0.0000        0.0000        0.0000       0.000000       0.00000
  13     269.0        0.0000        0.0000        0.0000        0.0000       0.000000       0.00000
  12     297.5        0.0000        0.0000        0.0000        0.0000       0.000000       0.00000
  11     328.5        0.0000        0.0000        0.0000        0.0000       0.000000       0.00000
  10     361.9        0.0000        0.0000        0.0000        0.0000       0.000000       0.00000
   9     398.1        0.0000        0.0000        0.0000        0.0000       0.000000       0.00000
   8     437.6        0.0000        0.0000        0.0000        0.0000       0.000000       0.00000
   7     480.5        0.0000        0.0000        0.0000        0.0000       0.000000       0.00000
   6     533.0        0.0000        0.0000        0.0000        0.0000       0.000000       0.00000
   5     589.8        0.0000        0.0000        0.0000        0.0000       0.000000       0.00000
   4     651.6        0.0000        0.0000        0.0000        0.0000       0.000000       0.00000
   3     718.7        0.0000        0.0000        0.0000        0.0000       0.000000       0.00000
   2     792.3        0.0000        0.0000        0.0000        0.0000       0.000000       0.00000
   1     891.5        0.0000        0.0000        0.0000        0.0000       0.000000       0.00000
   0    1013.0        0.0000        0.0000        0.0000        0.0000       0.000000       0.00000



 Wavenumbers:   820. -  2600. cm-1, ATM      1
 LEVEL PRESSURE   UPWARD FLUX   DIFDOWN FLUX  DIRDOWN FLUX  DOWNWARD FLUX   NET FLUX    HEATING RATE
          mb          W/m2          W/m2          W/m2        W/m2          W/m2       degree/day
  51    .06700        0.7842        0.0000        3.8670        3.8670       3.082820       0.00000
  50    .07753        0.7842        0.0000        3.8643        3.8643       3.080103       2.17771
  49    .09103        0.7842        0.0000        3.8635        3.8635       3.079293       0.50639
  48    0.1069        0.7842        0.0000        3.8626        3.8626       3.078402       0.47416
  47    0.1255        0.7842        0.0000        3.8616        3.8616       3.077441       0.43561
  46    0.1487        0.7842        0.0000        3.8605        3.8605       3.076332       0.40439
  45    0.1794        0.7842        0.0000        3.8592        3.8592       3.074996       0.36649
  44    0.2165        0.7842        0.0000        3.8578        3.8578       3.073618       0.31348
  43    0.2613        0.7842        0.0000        3.8564        3.8564       3.072158       0.27524
  42    0.3336        0.7842        0.0000        3.8541        3.8541       3.069927       0.26014
  41    0.4307        0.7842        0.0000        3.8512        3.8512       3.067044       0.25065
  40    0.5894        0.7842        0.0000        3.8465        3.8465       3.062318       0.25136
  39     1.339        0.7842        0.0000        3.8251        3.8251       3.040940       0.24067
  38     1.782        0.7842        0.0000        3.8133        3.8133       3.029127       0.22492
  37     2.292        0.7842        0.0000        3.8003        3.8003       3.016064       0.21635
  36     2.964        0.7842        0.0000        3.7841        3.7841       2.999933       0.20249
  35     3.853        0.7842        0.0000        3.7642        3.7642       2.980016       0.18902
  34     5.035        0.7842        0.0000        3.7395        3.7395       2.955322       0.17640
  33     6.613        0.7842        0.0000        3.7090        3.7090       2.924782       0.16327
  32     8.786        0.7842        0.0000        3.6726        3.6726       2.888383       0.14136
  31     11.80        0.7842        0.0000        3.6320        3.6320       2.847780       0.11368
  30     15.07        0.7842        0.0000        3.6016        3.6016       2.817387       0.07847
  29     18.79        0.7843        0.0000        3.5777        3.5777       2.793478       0.05421
  28     23.16        0.7843        0.0000        3.5564        3.5564       2.772112       0.04132
  27     28.12        0.7843        0.0000        3.5348        3.5348       2.750551       0.03665
  26     33.73        0.7843        0.0000        3.5118        3.5118       2.727500       0.03466
  25     40.54        0.7843        0.0000        3.4849        3.4849       2.700591       0.03338
  24     48.69        0.7844        0.0000        3.4537        3.4537       2.669313       0.03237
  23     57.69        0.7844        0.0000        3.4210        3.4210       2.636611       0.03065
  22     68.43        0.7844        0.0000        3.3844        3.3844       2.599991       0.02879
  21     81.20        0.7845        0.0000        3.3441        3.3441       2.559650       0.02666
  20     96.49        0.7846        0.0000        3.2998        3.2998       2.515234       0.02451
  19     114.6        0.7846        0.0000        3.2506        3.2507       2.466022       0.02298
  18     136.5        0.7847        0.0000        3.1936        3.1936       2.408882       0.02197
  17     162.9        0.7849        0.0000        3.1181        3.1181       2.333225       0.02418
  16     196.4        0.7852        0.0000        3.0090        3.0090       2.223739       0.02756
  15     218.7        0.7855        0.0000        2.9420        2.9420       2.156515       0.02552
  14     243.0        0.7859        0.0000        2.8605        2.8605       2.074629       0.02840
  13     269.0        0.7865        0.0000        2.7419        2.7420       1.955505       0.03864
  12     297.5        0.7875        0.0000        2.5729        2.5729       1.785405       0.05045
  11     328.5        0.7891        0.0000        2.3602        2.3602       1.571113       0.05827
  10     361.9        0.7915        0.0000        2.1524        2.1524       1.360901       0.05319
   9     398.1        0.7950        0.0000        1.9974        1.9974       1.202433       0.03692
   8     437.6        0.7998        0.0000        1.8835        1.8835       1.083702       0.02539
   7     480.5        0.8067        0.0000        1.7734        1.7734       0.966747       0.02297
   6     533.0        0.8180        0.0000        1.6397        1.6398       0.821804       0.02332
   5     589.8        0.8341        0.0000        1.5068        1.5069       0.672764       0.02212
   4     651.6        0.8579        0.0000        1.3807        1.3807       0.522806       0.02051
   3     718.7        0.8898        0.0000        1.2680        1.2681       0.378275       0.01816
   2     792.3        0.9298        0.0000        1.1659        1.1660       0.236227       0.01629
   1     891.5        0.0448        0.2178        0.0000        0.2178       0.173003       0.00538
   0    1013.0        0.0493        0.1967        0.0000        0.1967       0.147368       0.00178

  Modules and versions used in this calculation:

       rrtmg_sw.1col.f90:  $Revision$                    rrtmg_sw_init.f90:  $Revision$        
     rrtmgsw_cldprop.f90:  $Revision$                  rrtmgsw_cldprmc.f90:  NOT USED          
     rrtmg_sw_reftra.f90:  $Revision$                  rrtmg_sw_spcvrt.f90:  NOT USED          
     rrtmg_sw_spcvmc.f90:  NOT USED                    rrtmgsw_setcoef.f90:  NOT USED          
     rrtmg_sw_taumol.f90:  $Revision$                  rrtmg_sw_vrtqdr.f90:  NOT USED          
                rrtatm.f:  NOT USED                             util_xxx.f:  NOT USED          
                 extra.f:  NOT USED                       rrtmg_sw_k_g.f90:  $Revision$        

