

 Wavenumbers:   820. - 50000. cm-1, ATM      1
 LEVEL PRESSURE   UPWARD FLUX   DIFDOWN FLUX  DIRDOWN FLUX  DOWNWARD FLUX   NET FLUX    HEATING RATE
          mb          W/m2          W/m2          W/m2        W/m2          W/m2       degree/day
  51    .06700      243.0751        0.0000      397.8738      397.8738     154.798670       0.00000
  50    .07753      243.0745        0.0012      397.8577      397.8589     154.784381      11.45303
  49    .09103      243.0738        0.0026      397.8418      397.8445     154.770695       8.55387
  48    0.1069      243.0729        0.0043      397.8230      397.8273     154.754351       8.69998
  47    0.1255      243.0720        0.0062      397.7997      397.8059     154.733914       9.26528
  46    0.1487      243.0708        0.0087      397.7676      397.7763     154.705465      10.37008
  45    0.1794      243.0693        0.0120      397.7205      397.7325     154.663186      11.60659
  44    0.2165      243.0676        0.0159      397.6602      397.6761     154.608556      12.42742
  43    0.2613      243.0656        0.0205      397.5829      397.6034     154.537784      13.34023
  42    0.3336      243.0626        0.0281      397.4449      397.4730     154.410393      14.85249
  41    0.4307      243.0588        0.0380      397.2524      397.2904     154.231597      15.54586
  40    0.5894      243.0533        0.0540      396.9253      396.9793     153.926022      16.25011
  39     1.339      243.0384        0.1254      395.4254      395.5508     152.512352      15.91535
  38     1.782      243.0372        0.1654      394.7288      394.8942     151.857015      12.47657
  37     2.292      243.0424        0.2110      394.0572      394.2682     151.225758      10.45526
  36     2.964      243.0590        0.2701      393.3007      393.5708     150.511788       8.96249
  35     3.853      243.0946        0.3475      392.4318      392.7793     149.684621       7.84996
  34     5.035      243.1554        0.4492      391.4441      391.8932     148.737845       6.76338
  33     6.613      243.2440        0.5839      390.3268      390.9107     147.666652       5.72660
  32     8.786      243.3581        0.7641      389.0624      389.8265     146.468436       4.65344
  31     11.80      243.4984        1.0199      387.5500      388.5698     145.071391       3.91128
  30     15.07      243.6224        1.2922      386.1556      387.4478     143.825346       3.21705
  29     18.79      243.7387        1.5974      384.7502      386.3476     142.608855       2.75816
  28     23.16      243.8471        1.9510      383.2686      385.2196     141.372499       2.39071
  27     28.12      243.9390        2.3521      381.7329      384.0849     140.145917       2.08511
  26     33.73      243.9949        2.7976      380.1982      382.9958     139.000872       1.72161
  25     40.54      244.0079        3.3319      378.5384      381.8703     137.862305       1.41252
  24     48.69      243.9716        3.9703      376.7214      380.6917     136.720084       1.18202
  23     57.69      243.8819        4.6649      374.8959      379.5608     135.678926       0.97593
  22     68.43      243.7215        5.4838      372.8999      378.3837     134.662187       0.79929
  21     81.20      243.4566        6.4489      370.7496      377.1985     133.741904       0.60811
  20     96.49      243.0744        7.5842      368.4056      375.9898     132.915379       0.45618
  19     114.6      242.5997        8.9103      365.7513      374.6616     132.061842       0.39854
  18     136.5      242.0234       10.4503      362.7231      373.1734     131.149982       0.35063
  17     162.9      241.3307       12.2403      359.1748      371.4151     130.084403       0.34060
  16     196.4      240.4073       14.4970      354.5718      369.0689     128.661505       0.35816
  15     218.7      239.7981       15.9403      351.4437      367.3840     127.585862       0.40838
  14     243.0      239.1419       17.4753      347.7111      365.1864     126.044563       0.53457
  13     269.0      238.4407       19.1002      342.9441      362.0443     123.603624       0.79183
  12     297.5      237.6980       20.8128      337.4137      358.2265     120.528506       0.91205
  11     328.5      236.9213       22.6147      331.1302      353.7449     116.823651       1.00734
  10     361.9      236.1191       24.5003      324.1219      348.6222     112.503129       1.09313
   9     398.1      235.3001       26.4689      316.6066      343.0755     107.775443       1.10144
   8     437.6      234.4827       28.5160      308.5895      337.1055     102.622732       1.10168
   7     480.5      233.7004       30.6355      299.9349      330.5704      96.869959       1.12982
   6     533.0      232.8892       33.1452      289.7021      322.8474      89.958152       1.11189
   5     589.8      232.2315       35.7346      279.3388      315.0734      82.841945       1.05628
   4     651.6      231.8413       38.3914      268.7786      307.1700      75.328620       1.02747
   3     718.7      231.8137       41.1063      258.2837      299.3900      67.576278       0.97425
   2     792.3      232.2716       43.8653      248.0774      291.9427      59.671140       0.90663
   1     891.5       78.6216      133.7917        0.2519      134.0436      55.422004       0.36158
   0    1013.0       78.7444      131.6126        0.2369      131.8495      53.105143       0.16087



 Wavenumbers:  2600. -  3250. cm-1, ATM      1
 LEVEL PRESSURE   UPWARD FLUX   DIFDOWN FLUX  DIRDOWN FLUX  DOWNWARD FLUX   NET FLUX    HEATING RATE
          mb          W/m2          W/m2          W/m2        W/m2          W/m2       degree/day
  51    .06700        0.9275        0.0000        3.5066        3.5066       2.579167       0.00000
  50    .07753        0.9275        0.0000        3.5066        3.5066       2.579159       0.00640
  49    .09103        0.9275        0.0000        3.5066        3.5066       2.579149       0.00627
  48    0.1069        0.9275        0.0000        3.5066        3.5066       2.579138       0.00613
  47    0.1255        0.9275        0.0000        3.5066        3.5066       2.579125       0.00599
  46    0.1487        0.9275        0.0000        3.5066        3.5066       2.579108       0.00607
  45    0.1794        0.9275        0.0000        3.5065        3.5065       2.579085       0.00624
  44    0.2165        0.9275        0.0000        3.5065        3.5065       2.579058       0.00611
  43    0.2613        0.9275        0.0000        3.5065        3.5065       2.579027       0.00598
  42    0.3336        0.9275        0.0000        3.5064        3.5064       2.578974       0.00615
  41    0.4307        0.9275        0.0000        3.5064        3.5064       2.578903       0.00618
  40    0.5894        0.9275        0.0000        3.5062        3.5062       2.578784       0.00633
  39     1.339        0.9275        0.0000        3.5055        3.5055       2.578085       0.00787
  38     1.782        0.9275        0.0000        3.5050        3.5050       2.577554       0.01011
  37     2.292        0.9275        0.0000        3.5043        3.5043       2.576862       0.01147
  36     2.964        0.9275        0.0000        3.5033        3.5033       2.575870       0.01245
  35     3.853        0.9275        0.0000        3.5019        3.5019       2.574493       0.01307
  34     5.035        0.9275        0.0000        3.5001        3.5001       2.572632       0.01329
  33     6.613        0.9275        0.0000        3.4977        3.4977       2.570222       0.01288
  32     8.786        0.9275        0.0000        3.4947        3.4947       2.567251       0.01154
  31     11.80        0.9275        0.0000        3.4911        3.4911       2.563615       0.01018
  30     15.07        0.9275        0.0000        3.4878        3.4878       2.560393       0.00832
  29     18.79        0.9275        0.0000        3.4848        3.4848       2.557329       0.00695
  28     23.16        0.9275        0.0000        3.4816        3.4816       2.554107       0.00623
  27     28.12        0.9275        0.0000        3.4779        3.4779       2.550486       0.00615
  26     33.73        0.9275        0.0000        3.4735        3.4735       2.546016       0.00672
  25     40.54        0.9275        0.0000        3.4671        3.4672       2.539684       0.00786
  24     48.69        0.9275        0.0000        3.4582        3.4583       2.530780       0.00921
  23     57.69        0.9275        0.0000        3.4472        3.4472       2.519719       0.01037
  22     68.43        0.9275        0.0000        3.4329        3.4329       2.505441       0.01122
  21     81.20        0.9275        0.0000        3.4152        3.4152       2.487686       0.01173
  20     96.49        0.9276        0.0000        3.3940        3.3941       2.466504       0.01169
  19     114.6        0.9276        0.0000        3.3692        3.3692       2.441561       0.01165
  18     136.5        0.9277        0.0001        3.3419        3.3420       2.414266       0.01050
  17     162.9        0.9279        0.0001        3.3129        3.3129       2.385075       0.00933
  16     196.4        0.9281        0.0001        3.2793        3.2794       2.351289       0.00850
  15     218.7        0.9284        0.0001        3.2578        3.2578       2.329464       0.00829
  14     243.0        0.9288        0.0001        3.2320        3.2321       2.303267       0.00909
  13     269.0        0.9294        0.0001        3.1968        3.1969       2.267488       0.01161
  12     297.5        0.9305        0.0001        3.1489        3.1491       2.218589       0.01450
  11     328.5        0.9320        0.0001        3.0821        3.0822       2.150165       0.01860
  10     361.9        0.9343        0.0001        2.9902        2.9904       2.056065       0.02381
   9     398.1        0.9376        0.0001        2.8715        2.8716       1.934020       0.02843
   8     437.6        0.9424        0.0002        2.7276        2.7278       1.785423       0.03177
   7     480.5        0.9495        0.0002        2.5595        2.5597       1.610129       0.03443
   6     533.0        0.9617        0.0002        2.3617        2.3619       1.400239       0.03376
   5     589.8        0.9795        0.0002        2.1649        2.1651       1.185587       0.03186
   4     651.6        1.0061        0.0002        1.9608        1.9609       0.954844       0.03155
   3     718.7        1.0442        0.0002        1.7593        1.7595       0.715324       0.03010
   2     792.3        1.0975        0.0002        1.5761        1.5762       0.478758       0.02713
   1     891.5        0.0946        0.4559        0.0015        0.4573       0.362763       0.00987
   0    1013.0        0.1034        0.4110        0.0012        0.4122       0.308823       0.00375



 Wavenumbers:  3250. -  4000. cm-1, ATM      1
 LEVEL PRESSURE   UPWARD FLUX   DIFDOWN FLUX  DIRDOWN FLUX  DOWNWARD FLUX   NET FLUX    HEATING RATE
          mb          W/m2          W/m2          W/m2        W/m2          W/m2       degree/day
  51    .06700        0.0071        0.0000        5.9117        5.9117       5.904586       0.00000
  50    .07753        0.0071        0.0000        5.9075        5.9075       5.900397       3.35808
  49    .09103        0.0071        0.0000        5.9050        5.9050       5.897954       1.52677
  48    0.1069        0.0071        0.0000        5.9032        5.9032       5.896088       0.99346
  47    0.1255        0.0071        0.0000        5.9014        5.9014       5.894329       0.79708
  46    0.1487        0.0071        0.0000        5.8995        5.8995       5.892441       0.68848
  45    0.1794        0.0071        0.0000        5.8974        5.8974       5.890292       0.58983
  44    0.2165        0.0071        0.0000        5.8952        5.8952       5.888175       0.48155
  43    0.2613        0.0071        0.0000        5.8931        5.8931       5.886016       0.40696
  42    0.3336        0.0071        0.0000        5.8899        5.8899       5.882858       0.36820
  41    0.4307        0.0071        0.0000        5.8861        5.8861       5.879021       0.33365
  40    0.5894        0.0071        0.0000        5.8803        5.8803       5.873218       0.30857
  39     1.339        0.0071        0.0000        5.8597        5.8597       5.852621       0.23189
  38     1.782        0.0071        0.0000        5.8513        5.8513       5.844196       0.16039
  37     2.292        0.0071        0.0000        5.8431        5.8431       5.836025       0.13533
  36     2.964        0.0071        0.0000        5.8334        5.8334       5.826386       0.12100
  35     3.853        0.0071        0.0000        5.8213        5.8213       5.814210       0.11555
  34     5.035        0.0071        0.0000        5.8052        5.8052       5.798115       0.11498
  33     6.613        0.0071        0.0000        5.7833        5.7834       5.776294       0.11666
  32     8.786        0.0071        0.0000        5.7531        5.7531       5.746092       0.11729
  31     11.80        0.0071        0.0000        5.7090        5.7090       5.701923       0.12366
  30     15.07        0.0070        0.0000        5.6615        5.6615       5.654459       0.12254
  29     18.79        0.0070        0.0000        5.6093        5.6094       5.602323       0.11821
  28     23.16        0.0070        0.0000        5.5524        5.5524       5.545397       0.11008
  27     28.12        0.0070        0.0000        5.4935        5.4935       5.486518       0.10009
  26     33.73        0.0070        0.0000        5.4348        5.4349       5.427830       0.08824
  25     40.54        0.0070        0.0001        5.3707        5.3708       5.363768       0.07948
  24     48.69        0.0070        0.0001        5.2985        5.2985       5.291535       0.07475
  23     57.69        0.0070        0.0001        5.2215        5.2216       5.214596       0.07212
  22     68.43        0.0070        0.0001        5.1318        5.1319       5.124936       0.07048
  21     81.20        0.0070        0.0001        5.0284        5.0285       5.021507       0.06834
  20     96.49        0.0069        0.0001        4.9122        4.9123       4.905372       0.06410
  19     114.6        0.0069        0.0001        4.7780        4.7782       4.771261       0.06262
  18     136.5        0.0069        0.0002        4.6285        4.6287       4.621783       0.05748
  17     162.9        0.0069        0.0002        4.4406        4.4407       4.433870       0.06006
  16     196.4        0.0068        0.0002        4.1548        4.1550       4.148195       0.07191
  15     218.7        0.0068        0.0002        3.9564        3.9566       3.949813       0.07532
  14     243.0        0.0068        0.0002        3.7055        3.7058       3.698975       0.08700
  13     269.0        0.0068        0.0002        3.3399        3.3401       3.333327       0.11861
  12     297.5        0.0068        0.0002        2.8954        2.8956       2.888819       0.13184
  11     328.5        0.0068        0.0002        2.4388        2.4390       2.432239       0.12414
  10     361.9        0.0069        0.0002        2.0269        2.0271       2.020230       0.10424
   9     398.1        0.0070        0.0002        1.6753        1.6755       1.668518       0.08194
   8     437.6        0.0072        0.0002        1.3592        1.3594       1.352184       0.06763
   7     480.5        0.0076        0.0002        1.0616        1.0618       1.054211       0.05852
   6     533.0        0.0084        0.0001        0.7543        0.7544       0.746072       0.04957
   5     589.8        0.0098        0.0001        0.4951        0.4952       0.485396       0.03869
   4     651.6        0.0127        0.0001        0.2943        0.2943       0.281608       0.02787
   3     718.7        0.0184        0.0001        0.1528        0.1529       0.134425       0.01850
   2     792.3        0.0301        0.0000        0.0658        0.0658       0.035733       0.01132
   1     891.5        0.0001        0.0061        0.0000        0.0061       0.005997       0.00253
   0    1013.0        0.0004        0.0014        0.0000        0.0014       0.001081       0.00034



 Wavenumbers:  4000. -  4650. cm-1, ATM      1
 LEVEL PRESSURE   UPWARD FLUX   DIFDOWN FLUX  DIRDOWN FLUX  DOWNWARD FLUX   NET FLUX    HEATING RATE
          mb          W/m2          W/m2          W/m2        W/m2          W/m2       degree/day
  51    .06700        3.3261        0.0000        6.9421        6.9421       3.615982       0.00000
  50    .07753        3.3261        0.0000        6.9421        6.9421       3.615981       0.00079
  49    .09103        3.3261        0.0000        6.9421        6.9421       3.615980       0.00078
  48    0.1069        3.3261        0.0000        6.9421        6.9421       3.615978       0.00076
  47    0.1255        3.3261        0.0000        6.9421        6.9421       3.615976       0.00074
  46    0.1487        3.3261        0.0000        6.9421        6.9421       3.615974       0.00075
  45    0.1794        3.3261        0.0000        6.9421        6.9421       3.615972       0.00077
  44    0.2165        3.3261        0.0000        6.9421        6.9421       3.615968       0.00076
  43    0.2613        3.3261        0.0000        6.9420        6.9420       3.615964       0.00074
  42    0.3336        3.3261        0.0000        6.9420        6.9420       3.615958       0.00076
  41    0.4307        3.3261        0.0000        6.9420        6.9420       3.615949       0.00077
  40    0.5894        3.3261        0.0000        6.9420        6.9420       3.615934       0.00079
  39     1.339        3.3261        0.0000        6.9419        6.9419       3.615845       0.00100
  38     1.782        3.3261        0.0000        6.9418        6.9419       3.615776       0.00132
  37     2.292        3.3261        0.0000        6.9418        6.9418       3.615682       0.00155
  36     2.964        3.3261        0.0000        6.9416        6.9416       3.615543       0.00175
  35     3.853        3.3261        0.0000        6.9414        6.9414       3.615336       0.00196
  34     5.035        3.3261        0.0000        6.9411        6.9411       3.615031       0.00218
  33     6.613        3.3261        0.0000        6.9406        6.9407       3.614583       0.00240
  32     8.786        3.3261        0.0000        6.9399        6.9400       3.613923       0.00257
  31     11.80        3.3261        0.0001        6.9389        6.9389       3.612887       0.00290
  30     15.07        3.3261        0.0001        6.9377        6.9377       3.611675       0.00313
  29     18.79        3.3260        0.0001        6.9362        6.9363       3.610214       0.00331
  28     23.16        3.3260        0.0001        6.9343        6.9344       3.608407       0.00349
  27     28.12        3.3260        0.0001        6.9321        6.9323       3.606228       0.00370
  26     33.73        3.3260        0.0001        6.9294        6.9296       3.603553       0.00402
  25     40.54        3.3260        0.0002        6.9258        6.9260       3.599944       0.00448
  24     48.69        3.3260        0.0002        6.9210        6.9212       3.595165       0.00495
  23     57.69        3.3261        0.0002        6.9154        6.9156       3.589538       0.00527
  22     68.43        3.3261        0.0003        6.9083        6.9086       3.582536       0.00550
  21     81.20        3.3262        0.0003        6.8998        6.9001       3.573967       0.00566
  20     96.49        3.3263        0.0004        6.8894        6.8899       3.563603       0.00572
  19     114.6        3.3264        0.0005        6.8765        6.8770       3.550607       0.00607
  18     136.5        3.3267        0.0006        6.8610        6.8616       3.534901       0.00604
  17     162.9        3.3270        0.0007        6.8417        6.8424       3.515311       0.00626
  16     196.4        3.3278        0.0008        6.8147        6.8155       3.487745       0.00694
  15     218.7        3.3284        0.0009        6.7948        6.7958       3.467381       0.00773
  14     243.0        3.3293        0.0010        6.7698        6.7708       3.441486       0.00898
  13     269.0        3.3308        0.0011        6.7349        6.7360       3.405161       0.01178
  12     297.5        3.3331        0.0012        6.6869        6.6881       3.355015       0.01487
  11     328.5        3.3363        0.0014        6.6194        6.6207       3.284432       0.01919
  10     361.9        3.3406        0.0015        6.5295        6.5309       3.190386       0.02379
   9     398.1        3.3462        0.0016        6.4202        6.4218       3.075638       0.02673
   8     437.6        3.3537        0.0017        6.2962        6.2979       2.944179       0.02811
   7     480.5        3.3643        0.0019        6.1555        6.1574       2.793120       0.02967
   6     533.0        3.3815        0.0020        5.9675        5.9696       2.588062       0.03299
   5     589.8        3.4070        0.0022        5.7368        5.7390       2.331992       0.03801
   4     651.6        3.4450        0.0024        5.4662        5.4686       2.023623       0.04217
   3     718.7        3.4992        0.0025        5.1912        5.1937       1.694484       0.04136
   2     792.3        3.5741        0.0027        4.9395        4.9422       1.368007       0.03744
   1     891.5        0.3607        1.5583        0.0050        1.5632       1.202486       0.01409
   0    1013.0        0.3749        1.4897        0.0046        1.4943       1.119436       0.00577



 Wavenumbers:  4650. -  5150. cm-1, ATM      1
 LEVEL PRESSURE   UPWARD FLUX   DIFDOWN FLUX  DIRDOWN FLUX  DOWNWARD FLUX   NET FLUX    HEATING RATE
          mb          W/m2          W/m2          W/m2        W/m2          W/m2       degree/day
  51    .06700        2.3273        0.0000        6.5710        6.5710       4.243664       0.00000
  50    .07753        2.3273        0.0000        6.5708        6.5708       4.243428       0.18887
  49    .09103        2.3273        0.0000        6.5705        6.5705       4.243134       0.18362
  48    0.1069        2.3273        0.0000        6.5701        6.5701       4.242800       0.17806
  47    0.1255        2.3273        0.0000        6.5697        6.5697       4.242419       0.17238
  46    0.1487        2.3273        0.0000        6.5693        6.5693       4.241946       0.17268
  45    0.1794        2.3273        0.0000        6.5686        6.5686       4.241309       0.17473
  44    0.2165        2.3273        0.0000        6.5679        6.5679       4.240571       0.16788
  43    0.2613        2.3273        0.0000        6.5670        6.5670       4.239718       0.16078
  42    0.3336        2.3273        0.0000        6.5657        6.5657       4.238355       0.15894
  41    0.4307        2.3273        0.0000        6.5640        6.5640       4.236633       0.14971
  40    0.5894        2.3273        0.0000        6.5613        6.5613       4.234017       0.13913
  39     1.339        2.3273        0.0000        6.5516        6.5516       4.224239       0.11008
  38     1.782        2.3273        0.0000        6.5473        6.5473       4.220023       0.08027
  37     2.292        2.3273        0.0000        6.5434        6.5435       4.216136       0.06438
  36     2.964        2.3273        0.0000        6.5395        6.5395       4.212181       0.04965
  35     3.853        2.3273        0.0000        6.5355        6.5356       4.208237       0.03743
  34     5.035        2.3273        0.0000        6.5315        6.5315       4.204233       0.02860
  33     6.613        2.3273        0.0000        6.5271        6.5271       4.199836       0.02351
  32     8.786        2.3273        0.0001        6.5216        6.5216       4.194337       0.02136
  31     11.80        2.3273        0.0001        6.5135        6.5136       4.186249       0.02264
  30     15.07        2.3273        0.0001        6.5041        6.5042       4.176869       0.02422
  29     18.79        2.3273        0.0001        6.4925        6.4926       4.165337       0.02615
  28     23.16        2.3273        0.0001        6.4779        6.4780       4.150721       0.02826
  27     28.12        2.3273        0.0002        6.4599        6.4601       4.132715       0.03061
  26     33.73        2.3274        0.0002        6.4384        6.4386       4.111242       0.03229
  25     40.54        2.3274        0.0003        6.4112        6.4115       4.084058       0.03372
  24     48.69        2.3275        0.0003        6.3775        6.3778       4.050338       0.03489
  23     57.69        2.3276        0.0004        6.3404        6.3407       4.013140       0.03487
  22     68.43        2.3277        0.0004        6.2971        6.2976       3.969805       0.03407
  21     81.20        2.3280        0.0005        6.2483        6.2488       3.920791       0.03239
  20     96.49        2.3283        0.0006        6.1948        6.1954       3.867145       0.02961
  19     114.6        2.3287        0.0007        6.1381        6.1388       3.810133       0.02662
  18     136.5        2.3293        0.0008        6.0790        6.0798       3.750505       0.02293
  17     162.9        2.3302        0.0010        6.0160        6.0170       3.686824       0.02036
  16     196.4        2.3316        0.0012        5.9399        5.9410       3.609466       0.01947
  15     218.7        2.3327        0.0013        5.8896        5.8909       3.558250       0.01944
  14     243.0        2.3341        0.0014        5.8322        5.8336       3.499477       0.02038
  13     269.0        2.3362        0.0015        5.7624        5.7639       3.427749       0.02327
  12     297.5        2.3392        0.0017        5.6767        5.6784       3.339259       0.02625
  11     328.5        2.3432        0.0018        5.5726        5.5744       3.231223       0.02937
  10     361.9        2.3487        0.0020        5.4473        5.4493       3.100628       0.03304
   9     398.1        2.3561        0.0022        5.2995        5.3017       2.945579       0.03612
   8     437.6        2.3660        0.0023        5.1275        5.1298       2.763829       0.03886
   7     480.5        2.3795        0.0025        4.9290        4.9315       2.551969       0.04161
   6     533.0        2.4009        0.0027        4.6794        4.6820       2.281129       0.04357
   5     589.8        2.4309        0.0028        4.4188        4.4216       1.990660       0.04312
   4     651.6        2.4737        0.0030        4.1521        4.1551       1.681388       0.04229
   3     718.7        2.5321        0.0031        3.8929        3.8961       1.363949       0.03989
   2     792.3        2.6106        0.0033        3.6469        3.6502       1.039523       0.03721
   1     891.5        0.2528        1.1230        0.0036        1.1266       0.873824       0.01410
   0    1013.0        0.2662        1.0577        0.0033        1.0610       0.794819       0.00549



 Wavenumbers:  5150. -  6150. cm-1, ATM      1
 LEVEL PRESSURE   UPWARD FLUX   DIFDOWN FLUX  DIRDOWN FLUX  DOWNWARD FLUX   NET FLUX    HEATING RATE
          mb          W/m2          W/m2          W/m2        W/m2          W/m2       degree/day
  51    .06700        5.7667        0.0000       16.4735       16.4735      10.706823       0.00000
  50    .07753        5.7667        0.0000       16.4735       16.4735      10.706789       0.02763
  49    .09103        5.7667        0.0000       16.4734       16.4734      10.706744       0.02813
  48    0.1069        5.7667        0.0000       16.4734       16.4734      10.706690       0.02862
  47    0.1255        5.7667        0.0000       16.4733       16.4733      10.706626       0.02907
  46    0.1487        5.7667        0.0000       16.4732       16.4732      10.706542       0.03062
  45    0.1794        5.7667        0.0000       16.4731       16.4731      10.706423       0.03271
  44    0.2165        5.7667        0.0000       16.4730       16.4730      10.706276       0.03333
  43    0.2613        5.7667        0.0000       16.4728       16.4728      10.706097       0.03378
  42    0.3336        5.7667        0.0000       16.4725       16.4725      10.705791       0.03566
  41    0.4307        5.7667        0.0000       16.4720       16.4720      10.705372       0.03648
  40    0.5894        5.7667        0.0000       16.4713       16.4713      10.704670       0.03731
  39     1.339        5.7667        0.0000       16.4679       16.4679      10.701258       0.03841
  38     1.782        5.7667        0.0000       16.4659       16.4659      10.699257       0.03811
  37     2.292        5.7666        0.0001       16.4635       16.4636      10.696962       0.03800
  36     2.964        5.7666        0.0001       16.4605       16.4606      10.693989       0.03733
  35     3.853        5.7666        0.0001       16.4567       16.4568      10.690129       0.03663
  34     5.035        5.7666        0.0001       16.4516       16.4517      10.685122       0.03576
  33     6.613        5.7666        0.0002       16.4451       16.4453      10.678648       0.03461
  32     8.786        5.7666        0.0002       16.4367       16.4369      10.670315       0.03236
  31     11.80        5.7666        0.0003       16.4254       16.4257      10.659131       0.03131
  30     15.07        5.7665        0.0004       16.4141       16.4146      10.648005       0.02872
  29     18.79        5.7665        0.0005       16.4024       16.4030      10.636437       0.02623
  28     23.16        5.7665        0.0007       16.3900       16.3906      10.624117       0.02382
  27     28.12        5.7665        0.0008       16.3771       16.3779      10.611381       0.02165
  26     33.73        5.7665        0.0010       16.3641       16.3651      10.598566       0.01927
  25     40.54        5.7665        0.0012       16.3502       16.3513      10.584804       0.01707
  24     48.69        5.7666        0.0014       16.3354       16.3367      10.570167       0.01515
  23     57.69        5.7666        0.0016       16.3211       16.3227      10.556071       0.01321
  22     68.43        5.7668        0.0019       16.3062       16.3082      10.541435       0.01151
  21     81.20        5.7669        0.0023       16.2903       16.2926      10.525733       0.01038
  20     96.49        5.7671        0.0027       16.2726       16.2754      10.508277       0.00963
  19     114.6        5.7673        0.0032       16.2521       16.2553      10.487995       0.00947
  18     136.5        5.7676        0.0039       16.2245       16.2284      10.460759       0.01047
  17     162.9        5.7681        0.0046       16.1747       16.1793      10.411258       0.01582
  16     196.4        5.7687        0.0055       16.0518       16.0573      10.288662       0.03086
  15     218.7        5.7691        0.0061       15.8984       15.9045      10.135322       0.05822
  14     243.0        5.7697        0.0067       15.6153       15.6219       9.852194       0.09820
  13     269.0        5.7706        0.0072       15.1390       15.1462       9.375615       0.15460
  12     297.5        5.7719        0.0078       14.5779       14.5857       8.813754       0.16664
  11     328.5        5.7739        0.0083       13.8780       13.8863       8.112425       0.19069
  10     361.9        5.7769        0.0088       13.0814       13.0902       7.313348       0.20217
   9     398.1        5.7812        0.0092       12.2728       12.2821       6.500835       0.18930
   8     437.6        5.7877        0.0096       11.4776       11.4872       5.699491       0.17133
   7     480.5        5.7977        0.0100       10.7300       10.7400       4.942266       0.14872
   6     533.0        5.8156        0.0105       10.0326       10.0431       4.227451       0.11499
   5     589.8        5.8442        0.0110        9.5050        9.5161       3.671838       0.08247
   4     651.6        5.8904        0.0117        9.0814        9.0931       3.202685       0.06416
   3     718.7        5.9614        0.0125        8.7024        8.7149       2.753556       0.05644
   2     792.3        6.0663        0.0133        8.3379        8.3513       2.284960       0.05374
   1     891.5        0.6306        2.6651        0.0085        2.6736       2.042994       0.02059
   0    1013.0        0.6471        2.5715        0.0080        2.5795       1.932395       0.00768



 Wavenumbers:  6150. -  7700. cm-1, ATM      1
 LEVEL PRESSURE   UPWARD FLUX   DIFDOWN FLUX  DIRDOWN FLUX  DOWNWARD FLUX   NET FLUX    HEATING RATE
          mb          W/m2          W/m2          W/m2        W/m2          W/m2       degree/day
  51    .06700        8.9763        0.0000       30.4684       30.4684      21.492089       0.00000
  50    .07753        8.9763        0.0000       30.4683       30.4683      21.492037       0.04144
  49    .09103        8.9763        0.0000       30.4683       30.4683      21.491971       0.04174
  48    0.1069        8.9763        0.0000       30.4682       30.4682      21.491892       0.04202
  47    0.1255        8.9763        0.0000       30.4681       30.4681      21.491798       0.04227
  46    0.1487        8.9763        0.0000       30.4680       30.4680      21.491677       0.04411
  45    0.1794        8.9763        0.0000       30.4678       30.4678      21.491507       0.04669
  44    0.2165        8.9763        0.0000       30.4676       30.4676      21.491300       0.04715
  43    0.2613        8.9763        0.0000       30.4673       30.4673      21.491048       0.04744
  42    0.3336        8.9763        0.0000       30.4669       30.4669      21.490622       0.04974
  41    0.4307        8.9763        0.0000       30.4663       30.4663      21.490041       0.05052
  40    0.5894        8.9762        0.0001       30.4653       30.4653      21.489073       0.05146
  39     1.339        8.9762        0.0002       30.4604       30.4606      21.484389       0.05273
  38     1.782        8.9761        0.0002       30.4576       30.4578      21.481640       0.05235
  37     2.292        8.9761        0.0003       30.4543       30.4546      21.478481       0.05231
  36     2.964        8.9760        0.0003       30.4501       30.4504      21.474374       0.05156
  35     3.853        8.9759        0.0005       30.4445       30.4450      21.469017       0.05084
  34     5.035        8.9758        0.0006       30.4373       30.4379      21.462017       0.05000
  33     6.613        8.9757        0.0008       30.4278       30.4286      21.452869       0.04890
  32     8.786        8.9755        0.0010       30.4154       30.4164      21.440916       0.04642
  31     11.80        8.9752        0.0014       30.3984       30.3998      21.424530       0.04588
  30     15.07        8.9749        0.0018       30.3810       30.3827      21.407816       0.04315
  29     18.79        8.9746        0.0022       30.3623       30.3645      21.389915       0.04059
  28     23.16        8.9742        0.0027       30.3417       30.3444      21.370231       0.03806
  27     28.12        8.9738        0.0033       30.3196       30.3229      21.349130       0.03587
  26     33.73        8.9733        0.0040       30.2965       30.3005      21.327210       0.03296
  25     40.54        8.9726        0.0048       30.2708       30.2755      21.302870       0.03020
  24     48.69        8.9719        0.0057       30.2423       30.2480      21.276091       0.02771
  23     57.69        8.9711        0.0068       30.2139       30.2206      21.249521       0.02491
  22     68.43        8.9702        0.0080       30.1834       30.1914      21.221240       0.02223
  21     81.20        8.9690        0.0095       30.1500       30.1595      21.190504       0.02031
  20     96.49        8.9677        0.0113       30.1126       30.1239      21.156276       0.01889
  19     114.6        8.9661        0.0134       30.0695       30.0829      21.116875       0.01840
  18     136.5        8.9642        0.0159       30.0139       30.0299      21.065695       0.01968
  17     162.9        8.9619        0.0189       29.9225       29.9414      20.979464       0.02756
  16     196.4        8.9591        0.0227       29.7333       29.7561      20.796956       0.04594
  15     218.7        8.9574        0.0252       29.5259       29.5511      20.593696       0.07717
  14     243.0        8.9556        0.0278       29.1375       29.1652      20.209621       0.13321
  13     269.0        8.9542        0.0303       28.3800       28.4103      19.456058       0.24445
  12     297.5        8.9535        0.0326       27.3895       27.4222      18.468692       0.29284
  11     328.5        8.9540        0.0349       26.2257       26.2606      17.306580       0.31597
  10     361.9        8.9567        0.0370       24.8453       24.8823      15.925644       0.34939
   9     398.1        8.9626        0.0389       23.3471       23.3859      14.423310       0.35001
   8     437.6        8.9739        0.0405       21.7966       21.8372      12.863267       0.33355
   7     480.5        8.9945        0.0419       20.1977       20.2396      11.245102       0.31780
   6     533.0        9.0352        0.0433       18.4969       18.5403       9.505107       0.27991
   5     589.8        9.1034        0.0448       16.9754       17.0202       7.916782       0.23576
   4     651.6        9.2166        0.0463       15.6022       15.6484       6.431818       0.20307
   3     718.7        9.3920        0.0479       14.4232       14.4711       5.079160       0.16999
   2     792.3        9.6528        0.0499       13.4386       13.4885       3.835717       0.14261
   1     891.5        0.9481        4.1694        0.0132        4.1827       3.234551       0.05116
   0    1013.0        0.9908        3.9374        0.0121        3.9494       2.958656       0.01916



 Wavenumbers:  7700. -  8050. cm-1, ATM      1
 LEVEL PRESSURE   UPWARD FLUX   DIFDOWN FLUX  DIRDOWN FLUX  DOWNWARD FLUX   NET FLUX    HEATING RATE
          mb          W/m2          W/m2          W/m2        W/m2          W/m2       degree/day
  51    .06700        4.2899        0.0000        7.2006        7.2006       2.910636       0.00000
  50    .07753        4.2900        0.0000        7.2006        7.2006       2.910615       0.01649
  49    .09103        4.2900        0.0000        7.2005        7.2005       2.910589       0.01616
  48    0.1069        4.2900        0.0000        7.2005        7.2005       2.910560       0.01582
  47    0.1255        4.2900        0.0000        7.2005        7.2005       2.910525       0.01549
  46    0.1487        4.2900        0.0000        7.2004        7.2005       2.910482       0.01571
  45    0.1794        4.2900        0.0000        7.2004        7.2004       2.910423       0.01617
  44    0.2165        4.2900        0.0000        7.2003        7.2003       2.910354       0.01586
  43    0.2613        4.2900        0.0000        7.2003        7.2003       2.910271       0.01556
  42    0.3336        4.2900        0.0000        7.2001        7.2001       2.910135       0.01592
  41    0.4307        4.2900        0.0000        7.2000        7.2000       2.909953       0.01575
  40    0.5894        4.2901        0.0000        7.1997        7.1997       2.909658       0.01573
  39     1.339        4.2902        0.0001        7.1984        7.1985       2.908258       0.01575
  38     1.782        4.2903        0.0001        7.1977        7.1978       2.907437       0.01564
  37     2.292        4.2905        0.0001        7.1968        7.1969       2.906486       0.01575
  36     2.964        4.2906        0.0001        7.1957        7.1959       2.905238       0.01567
  35     3.853        4.2908        0.0002        7.1942        7.1944       2.903590       0.01564
  34     5.035        4.2911        0.0003        7.1922        7.1925       2.901402       0.01563
  33     6.613        4.2914        0.0003        7.1896        7.1899       2.898481       0.01561
  32     8.786        4.2919        0.0004        7.1860        7.1865       2.894551       0.01527
  31     11.80        4.2926        0.0006        7.1810        7.1816       2.888938       0.01571
  30     15.07        4.2934        0.0008        7.1755        7.1763       2.882927       0.01552
  29     18.79        4.2942        0.0010        7.1694        7.1704       2.876155       0.01536
  28     23.16        4.2952        0.0012        7.1623        7.1635       2.868270       0.01525
  27     28.12        4.2964        0.0014        7.1542        7.1557       2.859287       0.01527
  26     33.73        4.2977        0.0017        7.1452        7.1470       2.849279       0.01505
  25     40.54        4.2993        0.0021        7.1344        7.1365       2.837249       0.01492
  24     48.69        4.3011        0.0025        7.1215        7.1240       2.822838       0.01491
  23     57.69        4.3032        0.0029        7.1074        7.1104       2.807124       0.01473
  22     68.43        4.3058        0.0035        7.0909        7.0943       2.788563       0.01459
  21     81.20        4.3088        0.0041        7.0713        7.0755       2.766667       0.01447
  20     96.49        4.3124        0.0049        7.0484        7.0533       2.740878       0.01423
  19     114.6        4.3168        0.0058        7.0217        7.0274       2.710669       0.01411
  18     136.5        4.3220        0.0068        6.9906        6.9974       2.675415       0.01356
  17     162.9        4.3283        0.0081        6.9544        6.9625       2.634165       0.01318
  16     196.4        4.3367        0.0097        6.9087        6.9185       2.581791       0.01318
  15     218.7        4.3423        0.0108        6.8794        6.8902       2.547966       0.01284
  14     243.0        4.3484        0.0120        6.8481        6.8601       2.511652       0.01259
  13     269.0        4.3553        0.0132        6.8147        6.8280       2.472687       0.01264
  12     297.5        4.3628        0.0146        6.7791        6.7937       2.430833       0.01241
  11     328.5        4.3713        0.0161        6.7409        6.7570       2.385719       0.01227
  10     361.9        4.3808        0.0176        6.7002        6.7178       2.337024       0.01232
   9     398.1        4.3915        0.0193        6.6563        6.6756       2.284134       0.01232
   8     437.6        4.4036        0.0211        6.6089        6.6300       2.226394       0.01235
   7     480.5        4.4176        0.0230        6.5570        6.5800       2.162469       0.01255
   6     533.0        4.4363        0.0254        6.4915        6.5169       2.080563       0.01318
   5     589.8        4.4587        0.0279        6.4182        6.4462       1.987495       0.01381
   4     651.6        4.4855        0.0306        6.3359        6.3665       1.880938       0.01457
   3     718.7        4.5177        0.0335        6.2441        6.2776       1.759943       0.01521
   2     792.3        4.5554        0.0365        6.1437        6.1802       1.624810       0.01550
   1     891.5        0.4961        2.0375        0.0064        2.0439       1.547839       0.00655
   0    1013.0        0.5040        2.0027        0.0062        2.0089       1.504944       0.00298



 Wavenumbers:  8050. - 12850. cm-1, ATM      1
 LEVEL PRESSURE   UPWARD FLUX   DIFDOWN FLUX  DIRDOWN FLUX  DOWNWARD FLUX   NET FLUX    HEATING RATE
          mb          W/m2          W/m2          W/m2        W/m2          W/m2       degree/day
  51    .06700       55.6306        0.0000      100.8135      100.8135      45.182906       0.00000
  50    .07753       55.6306        0.0000      100.8135      100.8135      45.182906       0.00000
  49    .09103       55.6306        0.0001      100.8134      100.8135      45.182906      -0.00000
  48    0.1069       55.6306        0.0001      100.8134      100.8135      45.182906      -0.00000
  47    0.1255       55.6305        0.0001      100.8133      100.8134      45.182906       0.00000
  46    0.1487       55.6305        0.0002      100.8132      100.8134      45.182906      -0.00000
  45    0.1794       55.6304        0.0003      100.8131      100.8133      45.182906       0.00000
  44    0.2165       55.6304        0.0004      100.8129      100.8133      45.182906      -0.00000
  43    0.2613       55.6303        0.0005      100.8127      100.8132      45.182906       0.00000
  42    0.3336       55.6302        0.0007      100.8125      100.8131      45.182906       0.00000
  41    0.4307       55.6301        0.0009      100.8121      100.8130      45.182906       0.00000
  40    0.5894       55.6298        0.0013      100.8115      100.8127      45.182906      -0.00000
  39     1.339       55.6287        0.0032      100.8085      100.8117      45.182906       0.00000
  38     1.782       55.6281        0.0043      100.8068      100.8110      45.182906      -0.00000
  37     2.292       55.6274        0.0055      100.8047      100.8103      45.182906       0.00000
  36     2.964       55.6264        0.0072      100.8021      100.8093      45.182906      -0.00000
  35     3.853       55.6251        0.0094      100.7986      100.8080      45.182906       0.00000
  34     5.035       55.6234        0.0123      100.7940      100.8063      45.182906      -0.00000
  33     6.613       55.6211        0.0162      100.7878      100.8040      45.182906       0.00000
  32     8.786       55.6180        0.0215      100.7794      100.8009      45.182906       0.00000
  31     11.80       55.6135        0.0290      100.7674      100.7964      45.182906      -0.00000
  30     15.07       55.6087        0.0371      100.7546      100.7916      45.182906       0.00000
  29     18.79       55.6033        0.0462      100.7400      100.7862      45.182906      -0.00000
  28     23.16       55.5970        0.0570      100.7230      100.7799      45.182906      -0.00000
  27     28.12       55.5898        0.0692      100.7035      100.7727      45.182906       0.00000
  26     33.73       55.5817        0.0829      100.6817      100.7646      45.182906       0.00000
  25     40.54       55.5719        0.0996      100.6552      100.7548      45.182906       0.00000
  24     48.69       55.5601        0.1196      100.6234      100.7430      45.182906      -0.00000
  23     57.69       55.5470        0.1417      100.5883      100.7299      45.182906      -0.00000
  22     68.43       55.5315        0.1680      100.5464      100.7144      45.182906       0.00000
  21     81.20       55.5130        0.1994      100.4965      100.6959      45.182906      -0.00000
  20     96.49       55.4909        0.2368      100.4370      100.6738      45.182906       0.00000
  19     114.6       55.4647        0.2814      100.3585      100.6398      45.175124       0.00363
  18     136.5       55.4337        0.3342      100.2634      100.5976      45.163932       0.00430
  17     162.9       55.3967        0.3973      100.1407      100.5380      45.141259       0.00725
  16     196.4       55.3489        0.4793       99.9505      100.4298      45.080855       0.01520
  15     218.7       55.3176        0.5331       99.7889      100.3221      45.004488       0.02899
  14     243.0       55.2839        0.5916       99.5472      100.1388      44.854846       0.05190
  13     269.0       55.2490        0.6546       99.1452       99.7999      44.550821       0.09862
  12     297.5       55.2142        0.7223       98.5975       99.3198      44.105579       0.13205
  11     328.5       55.1816        0.7949       97.8659       98.6607      43.479120       0.17033
  10     361.9       55.1546        0.8720       96.8848       97.7568      42.602214       0.22187
   9     398.1       55.1376        0.9536       95.6330       96.5866      41.448949       0.26868
   8     437.6       55.1390        1.0392       94.0655       95.1047      39.965624       0.31714
   7     480.5       55.1751        1.1278       92.0807       93.2086      38.033477       0.37947
   6     533.0       55.2788        1.2328       89.4449       90.6777      35.398901       0.42382
   5     589.8       55.4811        1.3415       86.5544       87.8959      32.414803       0.44294
   4     651.6       55.8392        1.4534       83.4174       84.8708      29.031560       0.46267
   3     718.7       56.4011        1.5693       80.2037       81.7730      25.371838       0.45993
   2     792.3       57.2252        1.6899       77.0811       78.7709      21.545720       0.43881
   1     891.5        6.0344       25.4657        0.0784       25.5440      19.509650       0.17326
   0    1013.0        6.1872       24.5901        0.0737       24.6638      18.476581       0.07173



 Wavenumbers: 12850. - 16000. cm-1, ATM      1
 LEVEL PRESSURE   UPWARD FLUX   DIFDOWN FLUX  DIRDOWN FLUX  DOWNWARD FLUX   NET FLUX    HEATING RATE
          mb          W/m2          W/m2          W/m2        W/m2          W/m2       degree/day
  51    .06700       43.2398        0.0000       63.1686       63.1686      19.928826       0.00000
  50    .07753       43.2397        0.0001       63.1677       63.1678      19.928044       0.62652
  49    .09103       43.2397        0.0001       63.1666       63.1668      19.927070       0.60915
  48    0.1069       43.2397        0.0002       63.1654       63.1656      19.925959       0.59102
  47    0.1255       43.2396        0.0003       63.1640       63.1643      19.924696       0.57286
  46    0.1487       43.2396        0.0004       63.1623       63.1627      19.923118       0.57489
  45    0.1794       43.2396        0.0006       63.1600       63.1606      19.921002       0.58108
  44    0.2165       43.2396        0.0008       63.1573       63.1581      19.918552       0.55738
  43    0.2613       43.2395        0.0011       63.1542       63.1553      19.915722       0.53337
  42    0.3336       43.2395        0.0014       63.1493       63.1507      19.911207       0.52644
  41    0.4307       43.2396        0.0020       63.1431       63.1451      19.905549       0.49195
  40    0.5894       43.2397        0.0028       63.1338       63.1367      19.896953       0.45710
  39     1.339       43.2420        0.0069       63.0956       63.1025      19.860467       0.41076
  38     1.782       43.2445        0.0093       63.0740       63.0833      19.838764       0.41321
  37     2.292       43.2486        0.0120       63.0477       63.0597      19.811107       0.45807
  36     2.964       43.2556        0.0156       63.0095       63.0251      19.769562       0.52151
  35     3.853       43.2673        0.0204       62.9533       62.9736      19.706389       0.59953
  34     5.035       43.2851        0.0267       62.8725       62.8992      19.614095       0.65930
  33     6.613       43.3102        0.0351       62.7621       62.7972      19.487021       0.67934
  32     8.786       43.3427        0.0465       62.6182       62.6647      19.322034       0.64075
  31     11.80       43.3846        0.0627       62.4284       62.4911      19.106492       0.60345
  30     15.07       43.4241        0.0801       62.2426       62.3227      18.898596       0.53675
  29     18.79       43.4638        0.0996       62.0493       62.1489      18.685118       0.48402
  28     23.16       43.5046        0.1224       61.8424       61.9649      18.460300       0.43473
  27     28.12       43.5446        0.1484       61.6278       61.7763      18.231646       0.38870
  26     33.73       43.5800        0.1775       61.4177       61.5952      18.015176       0.32547
  25     40.54       43.6119        0.2126       61.1983       61.4109      17.799008       0.26818
  24     48.69       43.6397        0.2548       60.9680       61.2228      17.583078       0.22345
  23     57.69       43.6601        0.3011       60.7478       61.0489      17.388885       0.18203
  22     68.43       43.6732        0.3563       60.5202       60.8765      17.203271       0.14592
  21     81.20       43.6736        0.4219       60.2938       60.7157      17.042116       0.10649
  20     96.49       43.6601        0.5001       60.0643       60.5644      16.904278       0.07608
  19     114.6       43.6438        0.5936       59.8078       60.4014      16.757543       0.06851
  18     136.5       43.6184        0.7041       59.5157       60.2199      16.601515       0.06000
  17     162.9       43.5825        0.8355       59.1770       60.0126      16.430101       0.05479
  16     196.4       43.5240        1.0055       58.7604       59.7659      16.241907       0.04737
  15     218.7       43.4814        1.1168       58.4948       59.6116      16.130226       0.04240
  14     243.0       43.4334        1.2377       58.2089       59.4466      16.013183       0.04059
  13     269.0       43.3799        1.3684       57.9006       59.2689      15.888997       0.04029
  12     297.5       43.3213        1.5093       57.5668       59.0761      15.754730       0.03982
  11     328.5       43.2590        1.6612       57.2005       58.8617      15.602678       0.04134
  10     361.9       43.1940        1.8243       56.7963       58.6206      15.426598       0.04455
   9     398.1       43.1277        1.9992       56.3475       58.3468      15.219042       0.04836
   8     437.6       43.0629        2.1863       55.8422       58.0285      14.965636       0.05418
   7     480.5       43.0047        2.3856       55.2625       57.6481      14.643406       0.06328
   6     533.0       42.9521        2.6288       54.4972       57.1260      14.173843       0.07554
   5     589.8       42.9197        2.8877       53.6307       56.5184      13.598674       0.08537
   4     651.6       42.9188        3.1614       52.6606       55.8220      12.903158       0.09511
   3     718.7       42.9569        3.4504       51.6100       55.0604      12.103536       0.10049
   2     792.3       43.0435        3.7544       50.5019       54.2563      11.212737       0.10216
   1     891.5       12.7844       23.3752        0.0525       23.4276      10.643196       0.04847
   0    1013.0       12.8894       23.0589        0.0505       23.1095      10.220034       0.02938



 Wavenumbers: 16000. - 22650. cm-1, ATM      1
 LEVEL PRESSURE   UPWARD FLUX   DIFDOWN FLUX  DIRDOWN FLUX  DOWNWARD FLUX   NET FLUX    HEATING RATE
          mb          W/m2          W/m2          W/m2        W/m2          W/m2       degree/day
  51    .06700       79.2503        0.0000      100.7153      100.7153      21.465014       0.00000
  50    .07753       79.2502        0.0003      100.7147      100.7151      21.464895       0.09535
  49    .09103       79.2500        0.0007      100.7140      100.7147      21.464722       0.10815
  48    0.1069       79.2499        0.0012      100.7131      100.7144      21.464491       0.12333
  47    0.1255       79.2497        0.0018      100.7121      100.7139      21.464180       0.14058
  46    0.1487       79.2495        0.0025      100.7108      100.7132      21.463723       0.16658
  45    0.1794       79.2493        0.0034      100.7089      100.7123      21.463009       0.19613
  44    0.2165       79.2490        0.0045      100.7066      100.7111      21.462040       0.22043
  43    0.2613       79.2488        0.0058      100.7037      100.7095      21.460725       0.24781
  42    0.3336       79.2485        0.0080      100.6987      100.7067      21.458226       0.29142
  41    0.4307       79.2483        0.0109      100.6918      100.7027      21.454458       0.32758
  40    0.5894       79.2482        0.0157      100.6797      100.6954      21.447273       0.38209
  39     1.339       79.2534        0.0381      100.6095      100.6476      21.394200       0.59751
  38     1.782       79.2608        0.0513      100.5585      100.6098      21.349001       0.86052
  37     2.292       79.2732        0.0666      100.4903      100.5568      21.283595       1.08329
  36     2.964       79.2957        0.0866      100.3868      100.4733      21.177684       1.32950
  35     3.853       79.3338        0.1130      100.2306      100.3436      21.009748       1.59375
  34     5.035       79.3930        0.1480      100.0045      100.1525      20.759463       1.78793
  33     6.613       79.4764        0.1947       99.6939       99.8886      20.412157       1.85670
  32     8.786       79.5844        0.2575       99.2881       99.5455      19.961131       1.75162
  31     11.80       79.7224        0.3470       98.7496       99.0966      19.374192       1.64324
  30     15.07       79.8513        0.4427       98.2198       98.6625      18.811227       1.45347
  29     18.79       79.9797        0.5505       97.6651       98.2156      18.235937       1.30436
  28     23.16       80.1098        0.6760       97.0671       97.7431      17.633329       1.16525
  27     28.12       80.2353        0.8189       96.4406       97.2595      17.024172       1.03553
  26     33.73       80.3424        0.9783       95.8179       96.7962      16.453857       0.85748
  25     40.54       80.4331        1.1703       95.1548       96.3251      15.892027       0.69701
  24     48.69       80.5051        1.4008       94.4420       95.8428      15.337702       0.57364
  23     57.69       80.5482        1.6531       93.7416       95.3947      14.846523       0.46041
  22     68.43       80.5606        1.9523       92.9954       94.9476      14.386980       0.36126
  21     81.20       80.5224        2.3073       92.2231       94.5305      14.008103       0.25036
  20     96.49       80.4278        2.7286       91.4110       94.1396      13.711757       0.16356
  19     114.6       80.2912        3.2253       90.5070       93.7323      13.441083       0.12639
  18     136.5       80.1137        3.8092       89.4803       93.2894      13.175776       0.10202
  17     162.9       79.8888        4.4977       88.3022       92.7999      12.911090       0.08460
  16     196.4       79.5668        5.3803       86.8606       92.2409      12.674109       0.05965
  15     218.7       79.3451        5.9538       85.9492       91.9030      12.557831       0.04415
  14     243.0       79.1003        6.5715       84.9789       91.5505      12.450161       0.03734
  13     269.0       78.8313        7.2346       83.9493       91.1839      12.352602       0.03165
  12     297.5       78.5374        7.9437       82.8589       90.8027      12.265267       0.02590
  11     328.5       78.2203        8.7015       81.6982       90.3997      12.179449       0.02333
  10     361.9       77.8800        9.5076       80.4669       89.9746      12.094591       0.02147
   9     398.1       77.5158       10.3641       79.1611       89.5252      12.009432       0.01984
   8     437.6       77.1283       11.2711       77.7777       89.0489      11.920558       0.01900
   7     480.5       76.7182       12.2292       76.3136       88.5429      11.824677       0.01883
   6     533.0       76.2216       13.3886       74.5359       87.9245      11.702862       0.01960
   5     589.8       75.6980       14.6140       72.6469       87.2609      11.562895       0.02078
   4     651.6       75.1502       15.9034       70.6456       86.5490      11.398789       0.02244
   3     718.7       74.5788       17.2547       68.5367       85.7914      11.212611       0.02340
   2     792.3       73.9869       18.6627       66.3287       84.9914      11.004538       0.02386
   1     891.5       38.9908       49.7638        0.0678       49.8316      10.840828       0.01393
   0    1013.0       38.9330       49.5492        0.0642       49.6134      10.680425       0.01114



 Wavenumbers: 22650. - 29000. cm-1, ATM      1
 LEVEL PRESSURE   UPWARD FLUX   DIFDOWN FLUX  DIRDOWN FLUX  DOWNWARD FLUX   NET FLUX    HEATING RATE
          mb          W/m2          W/m2          W/m2        W/m2          W/m2       degree/day
  51    .06700       33.7564        0.0000       38.0063       38.0063       4.249877       0.00000
  50    .07753       33.7562        0.0004       38.0057       38.0061       4.249877       0.00000
  49    .09103       33.7560        0.0009       38.0050       38.0059       4.249877       0.00000
  48    0.1069       33.7558        0.0014       38.0042       38.0057       4.249877      -0.00000
  47    0.1255       33.7555        0.0021       38.0033       38.0054       4.249877      -0.00000
  46    0.1487       33.7552        0.0029       38.0022       38.0050       4.249877       0.00000
  45    0.1794       33.7547        0.0040       38.0006       38.0046       4.249877       0.00000
  44    0.2165       33.7541        0.0053       37.9987       38.0040       4.249877      -0.00000
  43    0.2613       33.7534        0.0068       37.9965       38.0033       4.249877       0.00000
  42    0.3336       33.7523        0.0093       37.9928       38.0022       4.249877       0.00000
  41    0.4307       33.7508        0.0127       37.9880       38.0007       4.249877       0.00000
  40    0.5894       33.7484        0.0182       37.9800       37.9983       4.249877       0.00000
  39     1.339       33.7369        0.0443       37.9425       37.9868       4.249877       0.00000
  38     1.782       33.7302        0.0597       37.9204       37.9801       4.249877      -0.00000
  37     2.292       33.7224        0.0774       37.8949       37.9723       4.249877       0.00000
  36     2.964       33.7122        0.1006       37.8614       37.9621       4.249877       0.00000
  35     3.853       33.6987        0.1314       37.8172       37.9486       4.249877      -0.00000
  34     5.035       33.6808        0.1721       37.7586       37.9307       4.249877       0.00000
  33     6.613       33.6569        0.2265       37.6803       37.9068       4.249877      -0.00000
  32     8.786       33.6248        0.2996       37.5750       37.8746       4.249877       0.00000
  31     11.80       33.5789        0.4039       37.4249       37.8288       4.249877       0.00000
  30     15.07       33.5298        0.5155       37.2642       37.7796       4.249877      -0.00000
  29     18.79       33.4745        0.6410       37.0833       37.7243       4.249877       0.00000
  28     23.16       33.4101        0.7870       36.8730       37.6600       4.249877       0.00000
  27     28.12       33.3369        0.9530       36.6338       37.5868       4.249877       0.00000
  26     33.73       33.2554        1.1376       36.3677       37.5053       4.249877      -0.00000
  25     40.54       33.1576        1.3590       36.0486       37.4075       4.249877      -0.00000
  24     48.69       33.0407        1.6233       35.6672       37.2905       4.249877       0.00000
  23     57.69       32.9134        1.9106       35.2527       37.1633       4.249877      -0.00000
  22     68.43       32.7634        2.2484       34.7649       37.0133       4.249877       0.00000
  21     81.20       32.5871        2.6447       34.1922       36.8370       4.249877       0.00000
  20     96.49       32.3803        3.1084       33.5217       36.6302       4.249877       0.00000
  19     114.6       32.1394        3.6469       32.7424       36.3893       4.249877       0.00000
  18     136.5       31.8603        4.2686       31.8416       36.1102       4.249877      -0.00000
  17     162.9       31.5367        4.9858       30.8008       35.7866       4.249877      -0.00000
  16     196.4       31.1309        5.8801       29.5007       35.3808       4.249877       0.00000
  15     218.7       30.8727        6.4459       28.6767       35.1226       4.249877       0.00000
  14     243.0       30.5991        7.0422       27.8068       34.8490       4.249877      -0.00000
  13     269.0       30.3108        7.6673       26.8933       34.5607       4.249877       0.00000
  12     297.5       30.0083        8.3189       25.9393       34.2582       4.249877       0.00000
  11     328.5       29.6917        8.9965       24.9451       33.9416       4.249877      -0.00000
  10     361.9       29.3622        9.6960       23.9160       33.6120       4.249877       0.00000
   9     398.1       29.0201       10.4159       22.8541       33.2700       4.249877      -0.00000
   8     437.6       28.6667       11.1522       21.7645       32.9166       4.249877       0.00000
   7     480.5       28.3033       11.9010       20.6521       32.5531       4.249877      -0.00000
   6     533.0       27.8761       12.7691       19.3569       32.1260       4.249877       0.00000
   5     589.8       27.4391       13.6423       18.0467       31.6890       4.249877      -0.00000
   4     651.6       26.9949       14.5131       16.7316       31.2447       4.249877       0.00000
   3     718.7       26.5456       15.3741       15.4214       30.7955       4.249877       0.00000
   2     792.3       26.0943       16.2166       14.1276       30.3442       4.249877       0.00000
   1     891.5       15.6372       19.8735        0.0134       19.8869       4.249699       0.00002
   0    1013.0       15.4899       19.7280        0.0116       19.7396       4.249699      -0.00000



 Wavenumbers: 29000. - 38000. cm-1, ATM      1
 LEVEL PRESSURE   UPWARD FLUX   DIFDOWN FLUX  DIRDOWN FLUX  DOWNWARD FLUX   NET FLUX    HEATING RATE
          mb          W/m2          W/m2          W/m2        W/m2          W/m2       degree/day
  51    .06700        4.8799        0.0000       13.4026       13.4026       8.522658       0.00000
  50    .07753        4.8797        0.0003       13.3983       13.3986       8.518859       3.04438
  49    .09103        4.8795        0.0007       13.3921       13.3928       8.513340       3.44966
  48    0.1069        4.8791        0.0011       13.3840       13.3851       8.505963       3.92676
  47    0.1255        4.8788        0.0016       13.3733       13.3749       8.496119       4.46317
  46    0.1487        4.8784        0.0022       13.3579       13.3600       8.481676       5.26437
  45    0.1794        4.8778        0.0030       13.3340       13.3371       8.459277       6.14926
  44    0.2165        4.8771        0.0040       13.3024       13.3064       8.429258       6.82875
  43    0.2613        4.8764        0.0052       13.2604       13.2656       8.389203       7.55009
  42    0.3336        4.8751        0.0070       13.1833       13.1903       8.315197       8.62840
  41    0.4307        4.8736        0.0095       13.0729       13.0824       8.208825       9.24878
  40    0.5894        4.8712        0.0134       12.8796       12.8930       8.021783       9.94668
  39     1.339        4.8627        0.0296       11.9165       11.9462       7.083450      10.56392
  38     1.782        4.8594        0.0379       11.4399       11.4779       6.618474       8.85239
  37     2.292        4.8569        0.0468       10.9796       11.0264       6.169548       7.43539
  36     2.964        4.8554        0.0577       10.4786       10.5364       5.680925       6.13369
  35     3.853        4.8560        0.0712        9.9429       10.0141       5.158076       4.96193
  34     5.035        4.8594        0.0880        9.4007        9.4887       4.629351       3.77699
  33     6.613        4.8656        0.1093        8.8752        8.9846       4.118965       2.72853
  32     8.786        4.8742        0.1368        8.3786        8.5154       3.641233       1.85534
  31     11.80        4.8847        0.1746        7.8897        8.0642       3.179571       1.29251
  30     15.07        4.8937        0.2135        7.5108        7.7243       2.830644       0.90086
  29     18.79        4.9020        0.2560        7.1776        7.4336       2.531544       0.67815
  28     23.16        4.9096        0.3037        6.8664        7.1702       2.260549       0.52402
  27     28.12        4.9157        0.3566        6.5780        6.9346       2.018886       0.41081
  26     33.73        4.9179        0.4141        6.3195        6.7336       1.815739       0.30544
  25     40.54        4.9149        0.4820        6.0663        6.5483       1.633400       0.22621
  24     48.69        4.9062        0.5615        5.8128        6.3744       1.468176       0.17098
  23     57.69        4.8918        0.6464        5.5777        6.2241       1.332292       0.12737
  22     68.43        4.8694        0.7446        5.3379        6.0825       1.213078       0.09372
  21     81.20        4.8348        0.8586        5.0965        5.9551       1.120263       0.06133
  20     96.49        4.7867        0.9902        4.8476        5.8378       1.051131       0.03816
  19     114.6        4.7282        1.1393        4.5799        5.7192       0.990940       0.02810
  18     136.5        4.6604        1.3058        4.2891        5.5949       0.934508       0.02170
  17     162.9        4.5830        1.4905        3.9732        5.4637       0.880695       0.01720
  16     196.4        4.4849        1.7116        3.6080        5.3196       0.834678       0.01158
  15     218.7        4.4231        1.8461        3.3898        5.2358       0.812764       0.00832
  14     243.0        4.3588        1.9831        3.1686        5.1516       0.792881       0.00690
  13     269.0        4.2923        2.1215        2.9461        5.0676       0.775340       0.00569
  12     297.5        4.2240        2.2602        2.7239        4.9842       0.760160       0.00450
  11     328.5        4.1548        2.3978        2.5029        4.9007       0.745897       0.00388
  10     361.9        4.0850        2.5330        2.2846        4.8176       0.732574       0.00337
   9     398.1        4.0152        2.6646        2.0708        4.7354       0.720184       0.00289
   8     437.6        3.9456        2.7915        1.8626        4.6541       0.708463       0.00251
   7     480.5        3.8768        2.9122        1.6621        4.5744       0.697538       0.00215
   6     533.0        3.7995        3.0417        1.4437        4.4853       0.685856       0.00188
   5     589.8        3.7243        3.1600        1.2390        4.3990       0.674770       0.00165
   4     651.6        3.6517        3.2658        1.0500        4.3158       0.664129       0.00146
   3     718.7        3.5820        3.3581        0.8778        4.2359       0.653897       0.00129
   2     792.3        3.5155        3.4358        0.7237        4.1596       0.644055       0.00113
   1     891.5        2.3213        2.9551        0.0006        2.9557       0.634403       0.00082
   0    1013.0        2.2803        2.9055        0.0004        2.9059       0.625632       0.00061



 Wavenumbers: 38000. - 50000. cm-1, ATM      1
 LEVEL PRESSURE   UPWARD FLUX   DIFDOWN FLUX  DIRDOWN FLUX  DOWNWARD FLUX   NET FLUX    HEATING RATE
          mb          W/m2          W/m2          W/m2        W/m2          W/m2       degree/day
  51    .06700        0.0051        0.0000        0.8267        0.8267       0.821528       0.00000
  50    .07753        0.0051        0.0001        0.8242        0.8243       0.819196       1.86936
  49    .09103        0.0050        0.0002        0.8207        0.8209       0.815872       2.07705
  48    0.1069        0.0049        0.0002        0.8162        0.8164       0.811514       2.31984
  47    0.1255        0.0048        0.0004        0.8103        0.8106       0.805801       2.59006
  46    0.1487        0.0047        0.0005        0.8018        0.8023       0.797567       3.00143
  45    0.1794        0.0045        0.0007        0.7889        0.7896       0.785013       3.44648
  44    0.2165        0.0044        0.0009        0.7720        0.7729       0.768507       3.75474
  43    0.2613        0.0042        0.0011        0.7500        0.7511       0.746955       4.06246
  42    0.3336        0.0039        0.0015        0.7106        0.7121       0.708267       4.51071
  41    0.4307        0.0035        0.0019        0.6566        0.6584       0.654972       4.63387
  40    0.5894        0.0029        0.0024        0.5680        0.5704       0.567464       4.65357
  39     1.339        0.0015        0.0030        0.2422        0.2452       0.243720       3.64476
  38     1.782        0.0010        0.0026        0.1493        0.1519       0.150889       1.76735
  37     2.292        0.0007        0.0022        0.0924        0.0946       0.093932       0.94336
  36     2.964        0.0005        0.0018        0.0539        0.0557       0.055224       0.48589
  35     3.853        0.0003        0.0013        0.0295        0.0308       0.030502       0.23462
  34     5.035        0.0002        0.0010        0.0154        0.0164       0.016181       0.10230
  33     6.613        0.0001        0.0007        0.0073        0.0080       0.007912       0.04420
  32     8.786        0.0000        0.0004        0.0030        0.0034       0.003390       0.01756
  31     11.80        0.0000        0.0003        0.0010        0.0012       0.001199       0.00613
  30     15.07        0.0000        0.0001        0.0003        0.0005       0.000463       0.00190
  29     18.79        0.0000        0.0001        0.0001        0.0002       0.000182       0.00064
  28     23.16        0.0000        0.0000        0.0000        0.0001       0.000071       0.00022
  27     28.12        0.0000        0.0000        0.0000        0.0000       0.000028       0.00007
  26     33.73        0.0000        0.0000        0.0000        0.0000       0.000011       0.00002
  25     40.54        0.0000        0.0000        0.0000        0.0000       0.000005       0.00001
  24     48.69        0.0000        0.0000        0.0000        0.0000       0.000002       0.00000
  23     57.69        0.0000        0.0000        0.0000        0.0000       0.000001       0.00000
  22     68.43        0.0000        0.0000        0.0000        0.0000       0.000000       0.00000
  21     81.20        0.0000        0.0000        0.0000        0.0000       0.000000       0.00000
  20     96.49        0.0000        0.0000        0.0000        0.0000       0.000000       0.00000
  19     114.6        0.0000        0.0000        0.0000        0.0000       0.000000       0.00000
  18     136.5        0.0000        0.0000        0.0000        0.0000       0.000000       0.00000
  17     162.9        0.0000        0.0000        0.0000        0.0000       0.000000       0.00000
  16     196.4        0.0000        0.0000        0.0000        0.0000       0.000000       0.00000
  15     218.7        0.0000        0.0000        0.0000        0.0000       0.000000       0.00000
  14     243.0        0.0000        0.0000        0.0000        0.0000       0.000000       0.00000
  13     269.0        0.0000        0.0000        0.0000        0.0000       0.000000       0.00000
  12     297.5        0.0000        0.0000        0.0000        0.0000       0.000000       0.00000
  11     328.5        0.0000        0.0000        0.0000        0.0000       0.000000       0.00000
  10     361.9        0.0000        0.0000        0.0000        0.0000       0.000000       0.00000
   9     398.1        0.0000        0.0000        0.0000        0.0000       0.000000       0.00000
   8     437.6        0.0000        0.0000        0.0000        0.0000       0.000000       0.00000
   7     480.5        0.0000        0.0000        0.0000        0.0000       0.000000       0.00000
   6     533.0        0.0000        0.0000        0.0000        0.0000       0.000000       0.00000
   5     589.8        0.0000        0.0000        0.0000        0.0000       0.000000       0.00000
   4     651.6        0.0000        0.0000        0.0000        0.0000       0.000000       0.00000
   3     718.7        0.0000        0.0000        0.0000        0.0000       0.000000       0.00000
   2     792.3        0.0000        0.0000        0.0000        0.0000       0.000000       0.00000
   1     891.5        0.0000        0.0000        0.0000        0.0000       0.000000       0.00000
   0    1013.0        0.0000        0.0000        0.0000        0.0000       0.000000       0.00000



 Wavenumbers:   820. -  2600. cm-1, ATM      1
 LEVEL PRESSURE   UPWARD FLUX   DIFDOWN FLUX  DIRDOWN FLUX  DOWNWARD FLUX   NET FLUX    HEATING RATE
          mb          W/m2          W/m2          W/m2        W/m2          W/m2       degree/day
  51    .06700        0.6921        0.0000        3.8670        3.8670       3.174915       0.00000
  50    .07753        0.6921        0.0000        3.8643        3.8643       3.172198       2.17771
  49    .09103        0.6921        0.0000        3.8635        3.8635       3.171388       0.50639
  48    0.1069        0.6921        0.0000        3.8626        3.8626       3.170497       0.47416
  47    0.1255        0.6921        0.0000        3.8616        3.8616       3.169536       0.43561
  46    0.1487        0.6921        0.0000        3.8605        3.8605       3.168427       0.40439
  45    0.1794        0.6921        0.0000        3.8592        3.8592       3.167092       0.36649
  44    0.2165        0.6921        0.0000        3.8578        3.8578       3.165714       0.31347
  43    0.2613        0.6921        0.0000        3.8564        3.8564       3.164254       0.27524
  42    0.3336        0.6921        0.0000        3.8541        3.8541       3.162022       0.26014
  41    0.4307        0.6921        0.0000        3.8512        3.8512       3.159140       0.25065
  40    0.5894        0.6921        0.0000        3.8465        3.8465       3.154413       0.25135
  39     1.339        0.6921        0.0000        3.8251        3.8251       3.133036       0.24066
  38     1.782        0.6921        0.0000        3.8133        3.8133       3.121222       0.22491
  37     2.292        0.6921        0.0000        3.8003        3.8003       3.108160       0.21635
  36     2.964        0.6921        0.0000        3.7841        3.7841       3.092030       0.20248
  35     3.853        0.6921        0.0000        3.7642        3.7642       3.072113       0.18901
  34     5.035        0.6921        0.0000        3.7395        3.7395       3.047420       0.17640
  33     6.613        0.6921        0.0000        3.7090        3.7090       3.016880       0.16326
  32     8.786        0.6921        0.0000        3.6726        3.6726       2.980482       0.14136
  31     11.80        0.6921        0.0000        3.6320        3.6320       2.939881       0.11367
  30     15.07        0.6921        0.0000        3.6016        3.6016       2.909489       0.07847
  29     18.79        0.6922        0.0000        3.5777        3.5777       2.885582       0.05420
  28     23.16        0.6922        0.0000        3.5564        3.5564       2.864217       0.04131
  27     28.12        0.6922        0.0000        3.5348        3.5348       2.842659       0.03665
  26     33.73        0.6922        0.0000        3.5118        3.5118       2.819611       0.03465
  25     40.54        0.6922        0.0000        3.4849        3.4849       2.792705       0.03338
  24     48.69        0.6923        0.0000        3.4537        3.4537       2.761432       0.03236
  23     57.69        0.6923        0.0000        3.4210        3.4210       2.728734       0.03065
  22     68.43        0.6923        0.0000        3.3844        3.3844       2.692119       0.02878
  21     81.20        0.6924        0.0000        3.3441        3.3441       2.651785       0.02665
  20     96.49        0.6924        0.0000        3.2998        3.2998       2.607377       0.02451
  19     114.6        0.6925        0.0000        3.2506        3.2507       2.558175       0.02297
  18     136.5        0.6926        0.0000        3.1936        3.1936       2.501049       0.02197
  17     162.9        0.6927        0.0000        3.1181        3.1181       2.425415       0.02418
  16     196.4        0.6930        0.0000        3.0090        3.0090       2.315974       0.02755
  15     218.7        0.6932        0.0000        2.9420        2.9420       2.248782       0.02551
  14     243.0        0.6935        0.0000        2.8605        2.8605       2.166945       0.02838
  13     269.0        0.6941        0.0000        2.7419        2.7420       2.047901       0.03862
  12     297.5        0.6950        0.0000        2.5729        2.5729       1.877934       0.05041
  11     328.5        0.6964        0.0000        2.3602        2.3602       1.663848       0.05821
  10     361.9        0.6985        0.0000        2.1524        2.1524       1.453951       0.05311
   9     398.1        0.7015        0.0000        1.9974        1.9974       1.295924       0.03682
   8     437.6        0.7057        0.0000        1.8835        1.8835       1.177806       0.02525
   7     480.5        0.7117        0.0000        1.7734        1.7734       1.061720       0.02280
   6     533.0        0.7216        0.0000        1.6397        1.6398       0.918192       0.02309
   5     589.8        0.7357        0.0000        1.5068        1.5069       0.771176       0.02182
   4     651.6        0.7565        0.0000        1.3807        1.3807       0.624204       0.02010
   3     718.7        0.7844        0.0000        1.2680        1.2681       0.483679       0.01766
   2     792.3        0.8193        0.0000        1.1659        1.1660       0.346705       0.01571
   1     891.5        0.0706        0.3433        0.0011        0.3444       0.273773       0.00621
   0    1013.0        0.0779        0.3096        0.0009        0.3105       0.232621       0.00286

  Modules and versions used in this calculation:

       rrtmg_sw.1col.f90:  $Revision$                    rrtmg_sw_init.f90:  $Revision$        
     rrtmgsw_cldprop.f90:  $Revision$                  rrtmgsw_cldprmc.f90:  NOT USED          
     rrtmg_sw_reftra.f90:  $Revision$                  rrtmg_sw_spcvrt.f90:  NOT USED          
     rrtmg_sw_spcvmc.f90:  NOT USED                    rrtmgsw_setcoef.f90:  NOT USED          
     rrtmg_sw_taumol.f90:  $Revision$                  rrtmg_sw_vrtqdr.f90:  NOT USED          
                rrtatm.f:  NOT USED                             util_xxx.f:  NOT USED          
                 extra.f:  NOT USED                       rrtmg_sw_k_g.f90:  $Revision$        

