

 Wavenumbers:   820. - 50000. cm-1, ATM      1
 LEVEL PRESSURE   UPWARD FLUX   DIFDOWN FLUX  DIRDOWN FLUX  DOWNWARD FLUX   NET FLUX    HEATING RATE
          mb          W/m2          W/m2          W/m2        W/m2          W/m2       degree/day
  51    .06700      290.3978        0.0000      397.8738      397.8738     107.475941       0.00000
  50    .07753      290.3973        0.0012      397.8577      397.8589     107.461644      11.45907
  49    .09103      290.3966        0.0027      397.8418      397.8445     107.447948       8.56061
  48    0.1069      290.3958        0.0044      397.8230      397.8274     107.431589       8.70757
  47    0.1255      290.3949        0.0064      397.7997      397.8060     107.411133       9.27382
  46    0.1487      290.3938        0.0089      397.7676      397.7765     107.382656      10.38009
  45    0.1794      290.3924        0.0123      397.7205      397.7328     107.340335      11.61829
  44    0.2165      290.3909        0.0163      397.6602      397.6765     107.285647      12.44048
  43    0.2613      290.3891        0.0210      397.5829      397.6039     107.214798      13.35483
  42    0.3336      290.3864        0.0287      397.4449      397.4736     107.087260      14.86960
  41    0.4307      290.3831        0.0389      397.2524      397.2913     106.908244      15.56503
  40    0.5894      290.3783        0.0553      396.9253      396.9806     106.602250      16.27240
  39     1.339      290.3684        0.1286      395.4254      395.5539     105.185509      15.94993
  38     1.782      290.3709        0.1697      394.7288      394.8985     104.527574      12.52604
  37     2.292      290.3811        0.2165      394.0572      394.2737     103.892572      10.51727
  36     2.964      290.4054        0.2773      393.3007      393.5780     103.172557       9.03837
  35     3.853      290.4528        0.3568      392.4318      392.7886     102.335818       7.94081
  34     5.035      290.5308        0.4615      391.4441      391.9055     101.374766       6.86535
  33     6.613      290.6431        0.6001      390.3268      390.9269     100.283710       5.83279
  32     8.786      290.7884        0.7856      389.0624      389.8480      99.059572       4.75411
  31     11.80      290.9703        1.0488      387.5500      388.5988      97.628537       4.00645
  30     15.07      291.1353        1.3293      386.1556      387.4849      96.349586       3.30200
  29     18.79      291.2947        1.6436      384.7502      386.3938      95.099145       2.83514
  28     23.16      291.4498        2.0080      383.2686      385.2766      93.826843       2.46022
  27     28.12      291.5907        2.4213      381.7329      384.1542      92.563492       2.14761
  26     33.73      291.6953        2.8807      380.1982      383.0788      91.383557       1.77406
  25     40.54      291.7600        3.4317      378.5384      381.9701      90.210106       1.45580
  24     48.69      291.7789        4.0904      376.7214      380.8118      89.032901       1.21822
  23     57.69      291.7430        4.8073      374.8959      379.7032      87.960177       1.00552
  22     68.43      291.6395        5.6528      372.8999      378.5528      86.913288       0.82300
  21     81.20      291.4321        6.6499      370.7496      377.3995      85.967378       0.62504
  20     96.49      291.1091        7.8234      368.4056      376.2290      85.119901       0.46775
  19     114.6      290.7011        9.1951      365.7513      374.9464      84.245300       0.40838
  18     136.5      290.2006       10.7894      362.7231      373.5125      83.311920       0.35891
  17     162.9      289.5954       12.6443      359.1748      371.8191      82.223757       0.34782
  16     196.4      288.7792       14.9857      354.5718      369.5575      80.778270       0.36385
  15     218.7      288.2384       16.4848      351.4437      367.9284      79.690079       0.41315
  14     243.0      287.6561       18.0806      347.7111      365.7918      78.135704       0.53911
  13     269.0      287.0357       19.7718      342.9441      362.7159      75.680234       0.79654
  12     297.5      286.3821       21.5563      337.4137      358.9700      72.587956       0.91714
  11     328.5      285.7057       23.4362      331.1302      354.5665      68.860804       1.01340
  10     361.9      285.0180       25.4063      324.1219      349.5282      64.510203       1.10075
   9     398.1      284.3319       27.4664      316.6066      344.0729      59.741021       1.11111
   8     437.6      283.6728       29.6121      308.5895      338.2016      54.528841       1.11440
   7     480.5      283.0869       31.8381      299.9349      331.7730      48.686088       1.14749
   6     533.0      282.5642       34.4799      289.7021      324.1820      41.617780       1.13707
   5     589.8      282.2891       37.2128      279.3388      316.5516      34.262457       1.09177
   4     651.6      282.4240       40.0252      268.7786      308.8038      26.379731       1.07798
   3     718.7      283.1101       42.9087      258.2837      301.1923      18.082199       1.04277
   2     792.3      284.5353       45.8498      248.0774      293.9272       9.391926       0.99668
   1     891.5       13.8451       20.8949        0.0000       20.8949       7.049765       0.19931
   0    1013.0       13.8150       20.7104        0.0000       20.7104       6.895405       0.01072



 Wavenumbers:  2600. -  3250. cm-1, ATM      1
 LEVEL PRESSURE   UPWARD FLUX   DIFDOWN FLUX  DIRDOWN FLUX  DOWNWARD FLUX   NET FLUX    HEATING RATE
          mb          W/m2          W/m2          W/m2        W/m2          W/m2       degree/day
  51    .06700        1.2476        0.0000        3.5066        3.5066       2.259025       0.00000
  50    .07753        1.2476        0.0000        3.5066        3.5066       2.259017       0.00640
  49    .09103        1.2476        0.0000        3.5066        3.5066       2.259007       0.00627
  48    0.1069        1.2476        0.0000        3.5066        3.5066       2.258996       0.00613
  47    0.1255        1.2476        0.0000        3.5066        3.5066       2.258983       0.00599
  46    0.1487        1.2476        0.0000        3.5066        3.5066       2.258966       0.00607
  45    0.1794        1.2476        0.0000        3.5065        3.5065       2.258943       0.00624
  44    0.2165        1.2476        0.0000        3.5065        3.5065       2.258916       0.00611
  43    0.2613        1.2476        0.0000        3.5065        3.5065       2.258885       0.00598
  42    0.3336        1.2476        0.0000        3.5064        3.5064       2.258832       0.00615
  41    0.4307        1.2476        0.0000        3.5064        3.5064       2.258761       0.00618
  40    0.5894        1.2476        0.0000        3.5062        3.5062       2.258642       0.00633
  39     1.339        1.2476        0.0000        3.5055        3.5055       2.257943       0.00787
  38     1.782        1.2476        0.0000        3.5050        3.5050       2.257412       0.01011
  37     2.292        1.2476        0.0000        3.5043        3.5043       2.256720       0.01147
  36     2.964        1.2476        0.0000        3.5033        3.5033       2.255728       0.01245
  35     3.853        1.2476        0.0000        3.5019        3.5019       2.254351       0.01307
  34     5.035        1.2476        0.0000        3.5001        3.5001       2.252490       0.01329
  33     6.613        1.2476        0.0000        3.4977        3.4977       2.250080       0.01288
  32     8.786        1.2476        0.0000        3.4947        3.4947       2.247109       0.01154
  31     11.80        1.2476        0.0000        3.4911        3.4911       2.243473       0.01018
  30     15.07        1.2476        0.0000        3.4878        3.4878       2.240250       0.00832
  29     18.79        1.2476        0.0000        3.4848        3.4848       2.237185       0.00695
  28     23.16        1.2476        0.0000        3.4816        3.4816       2.233962       0.00623
  27     28.12        1.2476        0.0000        3.4779        3.4779       2.230340       0.00616
  26     33.73        1.2476        0.0000        3.4735        3.4735       2.225868       0.00672
  25     40.54        1.2476        0.0000        3.4671        3.4672       2.219533       0.00786
  24     48.69        1.2476        0.0000        3.4582        3.4583       2.210624       0.00922
  23     57.69        1.2477        0.0000        3.4472        3.4472       2.199557       0.01037
  22     68.43        1.2477        0.0000        3.4329        3.4330       2.185269       0.01123
  21     81.20        1.2477        0.0000        3.4152        3.4152       2.167500       0.01174
  20     96.49        1.2478        0.0000        3.3940        3.3941       2.146299       0.01170
  19     114.6        1.2479        0.0000        3.3692        3.3692       2.121329       0.01166
  18     136.5        1.2480        0.0001        3.3419        3.3420       2.093996       0.01051
  17     162.9        1.2482        0.0001        3.3129        3.3129       2.064746       0.00935
  16     196.4        1.2486        0.0001        3.2793        3.2794       2.030854       0.00853
  15     218.7        1.2489        0.0001        3.2578        3.2579       2.008928       0.00832
  14     243.0        1.2495        0.0001        3.2320        3.2321       1.982571       0.00914
  13     269.0        1.2504        0.0001        3.1968        3.1969       1.946534       0.01169
  12     297.5        1.2518        0.0001        3.1489        3.1491       1.897234       0.01462
  11     328.5        1.2540        0.0001        3.0821        3.0822       1.828202       0.01877
  10     361.9        1.2572        0.0001        2.9902        2.9904       1.733198       0.02404
   9     398.1        1.2618        0.0001        2.8715        2.8716       1.609839       0.02874
   8     437.6        1.2685        0.0002        2.7276        2.7278       1.459331       0.03218
   7     480.5        1.2785        0.0002        2.5595        2.5597       1.281135       0.03500
   6     533.0        1.2956        0.0002        2.3617        2.3619       1.066290       0.03456
   5     589.8        1.3209        0.0002        2.1649        2.1651       0.844252       0.03296
   4     651.6        1.3586        0.0002        1.9608        1.9609       0.602300       0.03309
   3     718.7        1.4132        0.0002        1.7593        1.7595       0.346299       0.03217
   2     792.3        1.4904        0.0002        1.5761        1.5762       0.085835       0.02987
   1     891.5        0.0070        0.0317        0.0000        0.0317       0.024763       0.00520
   0    1013.0        0.0074        0.0296        0.0000        0.0296       0.022195       0.00018



 Wavenumbers:  3250. -  4000. cm-1, ATM      1
 LEVEL PRESSURE   UPWARD FLUX   DIFDOWN FLUX  DIRDOWN FLUX  DOWNWARD FLUX   NET FLUX    HEATING RATE
          mb          W/m2          W/m2          W/m2        W/m2          W/m2       degree/day
  51    .06700        0.0125        0.0000        5.9117        5.9117       5.899132       0.00000
  50    .07753        0.0125        0.0000        5.9075        5.9075       5.894942       3.35808
  49    .09103        0.0125        0.0000        5.9050        5.9050       5.892499       1.52677
  48    0.1069        0.0125        0.0000        5.9032        5.9032       5.890633       0.99346
  47    0.1255        0.0125        0.0000        5.9014        5.9014       5.888875       0.79708
  46    0.1487        0.0125        0.0000        5.8995        5.8995       5.886986       0.68848
  45    0.1794        0.0125        0.0000        5.8974        5.8974       5.884837       0.58983
  44    0.2165        0.0125        0.0000        5.8952        5.8952       5.882720       0.48155
  43    0.2613        0.0125        0.0000        5.8931        5.8931       5.880561       0.40696
  42    0.3336        0.0125        0.0000        5.8899        5.8899       5.877403       0.36820
  41    0.4307        0.0125        0.0000        5.8861        5.8861       5.873566       0.33365
  40    0.5894        0.0125        0.0000        5.8803        5.8803       5.867764       0.30857
  39     1.339        0.0125        0.0000        5.8597        5.8597       5.847166       0.23189
  38     1.782        0.0125        0.0000        5.8513        5.8513       5.838742       0.16039
  37     2.292        0.0125        0.0000        5.8431        5.8431       5.830570       0.13533
  36     2.964        0.0125        0.0000        5.8334        5.8334       5.820931       0.12100
  35     3.853        0.0125        0.0000        5.8213        5.8213       5.808755       0.11555
  34     5.035        0.0125        0.0000        5.8052        5.8052       5.792660       0.11498
  33     6.613        0.0125        0.0000        5.7833        5.7834       5.770839       0.11666
  32     8.786        0.0125        0.0000        5.7531        5.7531       5.740637       0.11729
  31     11.80        0.0125        0.0000        5.7090        5.7090       5.696469       0.12366
  30     15.07        0.0125        0.0000        5.6615        5.6615       5.649004       0.12254
  29     18.79        0.0125        0.0000        5.6093        5.6094       5.596868       0.11821
  28     23.16        0.0125        0.0000        5.5524        5.5524       5.539942       0.11008
  27     28.12        0.0125        0.0000        5.4935        5.4935       5.481063       0.10009
  26     33.73        0.0125        0.0000        5.4348        5.4349       5.422375       0.08824
  25     40.54        0.0125        0.0001        5.3707        5.3708       5.358313       0.07948
  24     48.69        0.0125        0.0001        5.2985        5.2985       5.286080       0.07475
  23     57.69        0.0124        0.0001        5.2215        5.2216       5.209141       0.07212
  22     68.43        0.0124        0.0001        5.1318        5.1319       5.119481       0.07048
  21     81.20        0.0124        0.0001        5.0284        5.0285       5.016052       0.06834
  20     96.49        0.0124        0.0001        4.9122        4.9123       4.899917       0.06410
  19     114.6        0.0124        0.0001        4.7780        4.7782       4.765806       0.06262
  18     136.5        0.0124        0.0002        4.6285        4.6287       4.616328       0.05748
  17     162.9        0.0123        0.0002        4.4406        4.4407       4.428415       0.06006
  16     196.4        0.0123        0.0002        4.1548        4.1550       4.142739       0.07191
  15     218.7        0.0123        0.0002        3.9564        3.9566       3.944356       0.07532
  14     243.0        0.0123        0.0002        3.7055        3.7058       3.693515       0.08700
  13     269.0        0.0123        0.0002        3.3399        3.3401       3.327860       0.11862
  12     297.5        0.0123        0.0002        2.8954        2.8956       2.883335       0.13184
  11     328.5        0.0123        0.0002        2.4388        2.4390       2.426725       0.12415
  10     361.9        0.0124        0.0002        2.0269        2.0271       2.014657       0.10426
   9     398.1        0.0126        0.0002        1.6753        1.6755       1.662844       0.08196
   8     437.6        0.0130        0.0002        1.3592        1.3594       1.346333       0.06767
   7     480.5        0.0137        0.0002        1.0616        1.0618       1.048038       0.05858
   6     533.0        0.0152        0.0001        0.7543        0.7544       0.739238       0.04968
   5     589.8        0.0179        0.0001        0.4951        0.4952       0.477345       0.03887
   4     651.6        0.0232        0.0001        0.2943        0.2943       0.271184       0.02819
   3     718.7        0.0335        0.0001        0.1528        0.1529       0.119330       0.01908
   2     792.3        0.0548        0.0000        0.0658        0.0658       0.011064       0.01242
   1     891.5        0.0000        0.0000        0.0000        0.0000       0.000023       0.00094
   0    1013.0        0.0000        0.0000        0.0000        0.0000       0.000004       0.00000



 Wavenumbers:  4000. -  4650. cm-1, ATM      1
 LEVEL PRESSURE   UPWARD FLUX   DIFDOWN FLUX  DIRDOWN FLUX  DOWNWARD FLUX   NET FLUX    HEATING RATE
          mb          W/m2          W/m2          W/m2        W/m2          W/m2       degree/day
  51    .06700        4.3984        0.0000        6.9421        6.9421       2.543683       0.00000
  50    .07753        4.3984        0.0000        6.9421        6.9421       2.543682       0.00079
  49    .09103        4.3984        0.0000        6.9421        6.9421       2.543681       0.00078
  48    0.1069        4.3984        0.0000        6.9421        6.9421       2.543680       0.00076
  47    0.1255        4.3984        0.0000        6.9421        6.9421       2.543678       0.00074
  46    0.1487        4.3984        0.0000        6.9421        6.9421       2.543676       0.00075
  45    0.1794        4.3984        0.0000        6.9421        6.9421       2.543673       0.00077
  44    0.2165        4.3984        0.0000        6.9421        6.9421       2.543670       0.00076
  43    0.2613        4.3984        0.0000        6.9420        6.9420       2.543666       0.00074
  42    0.3336        4.3984        0.0000        6.9420        6.9420       2.543659       0.00076
  41    0.4307        4.3984        0.0000        6.9420        6.9420       2.543650       0.00077
  40    0.5894        4.3984        0.0000        6.9420        6.9420       2.543635       0.00079
  39     1.339        4.3984        0.0000        6.9419        6.9419       2.543547       0.00100
  38     1.782        4.3984        0.0000        6.9418        6.9419       2.543477       0.00132
  37     2.292        4.3984        0.0000        6.9418        6.9418       2.543384       0.00155
  36     2.964        4.3984        0.0000        6.9416        6.9416       2.543244       0.00175
  35     3.853        4.3984        0.0000        6.9414        6.9414       2.543037       0.00196
  34     5.035        4.3984        0.0000        6.9411        6.9411       2.542732       0.00218
  33     6.613        4.3984        0.0000        6.9406        6.9407       2.542284       0.00240
  32     8.786        4.3984        0.0000        6.9399        6.9400       2.541623       0.00257
  31     11.80        4.3984        0.0001        6.9389        6.9389       2.540587       0.00290
  30     15.07        4.3984        0.0001        6.9377        6.9377       2.539374       0.00313
  29     18.79        4.3984        0.0001        6.9362        6.9363       2.537911       0.00332
  28     23.16        4.3983        0.0001        6.9343        6.9345       2.536101       0.00350
  27     28.12        4.3983        0.0001        6.9321        6.9323       2.533919       0.00371
  26     33.73        4.3984        0.0002        6.9294        6.9296       2.531239       0.00403
  25     40.54        4.3984        0.0002        6.9258        6.9260       2.527622       0.00449
  24     48.69        4.3984        0.0002        6.9210        6.9212       2.522830       0.00496
  23     57.69        4.3984        0.0003        6.9154        6.9156       2.517185       0.00529
  22     68.43        4.3985        0.0003        6.9083        6.9087       2.510159       0.00552
  21     81.20        4.3986        0.0004        6.8998        6.9001       2.501552       0.00569
  20     96.49        4.3987        0.0004        6.8894        6.8899       2.491135       0.00575
  19     114.6        4.3990        0.0005        6.8765        6.8770       2.478059       0.00611
  18     136.5        4.3993        0.0006        6.8610        6.8616       2.462238       0.00608
  17     162.9        4.3999        0.0007        6.8417        6.8424       2.442474       0.00632
  16     196.4        4.4009        0.0009        6.8147        6.8155       2.414611       0.00701
  15     218.7        4.4018        0.0010        6.7948        6.7958       2.393992       0.00783
  14     243.0        4.4031        0.0011        6.7698        6.7709       2.367732       0.00911
  13     269.0        4.4052        0.0012        6.7349        6.7360       2.330836       0.01197
  12     297.5        4.4083        0.0013        6.6869        6.6882       2.279845       0.01512
  11     328.5        4.4127        0.0014        6.6194        6.6208       2.208068       0.01952
  10     361.9        4.4186        0.0016        6.5295        6.5310       2.112443       0.02419
   9     398.1        4.4263        0.0017        6.4202        6.4219       1.995603       0.02722
   8     437.6        4.4367        0.0019        6.2962        6.2980       1.861315       0.02871
   7     480.5        4.4512        0.0020        6.1555        6.1575       1.706267       0.03045
   6     533.0        4.4751        0.0022        5.9675        5.9697       1.494584       0.03405
   5     589.8        4.5105        0.0023        5.7368        5.7391       1.228609       0.03948
   4     651.6        4.5636        0.0025        5.4662        5.4687       0.905141       0.04424
   3     718.7        4.6401        0.0027        5.1912        5.1939       0.553754       0.04416
   2     792.3        4.7474        0.0029        4.9395        4.9423       0.194986       0.04115
   1     891.5        0.0323        0.1356        0.0000        0.1356       0.103370       0.00780
   0    1013.0        0.0331        0.1320        0.0000        0.1320       0.098881       0.00031



 Wavenumbers:  4650. -  5150. cm-1, ATM      1
 LEVEL PRESSURE   UPWARD FLUX   DIFDOWN FLUX  DIRDOWN FLUX  DOWNWARD FLUX   NET FLUX    HEATING RATE
          mb          W/m2          W/m2          W/m2        W/m2          W/m2       degree/day
  51    .06700        3.0902        0.0000        6.5710        6.5710       3.480746       0.00000
  50    .07753        3.0902        0.0000        6.5708        6.5708       3.480511       0.18887
  49    .09103        3.0902        0.0000        6.5705        6.5705       3.480217       0.18362
  48    0.1069        3.0902        0.0000        6.5701        6.5701       3.479883       0.17806
  47    0.1255        3.0902        0.0000        6.5697        6.5697       3.479502       0.17238
  46    0.1487        3.0902        0.0000        6.5693        6.5693       3.479029       0.17268
  45    0.1794        3.0902        0.0000        6.5686        6.5686       3.478392       0.17474
  44    0.2165        3.0902        0.0000        6.5679        6.5679       3.477654       0.16788
  43    0.2613        3.0902        0.0000        6.5670        6.5670       3.476801       0.16078
  42    0.3336        3.0902        0.0000        6.5657        6.5657       3.475438       0.15894
  41    0.4307        3.0902        0.0000        6.5640        6.5640       3.473716       0.14971
  40    0.5894        3.0902        0.0000        6.5613        6.5613       3.471100       0.13913
  39     1.339        3.0902        0.0000        6.5516        6.5516       3.461322       0.11008
  38     1.782        3.0902        0.0000        6.5473        6.5473       3.457105       0.08027
  37     2.292        3.0902        0.0000        6.5434        6.5435       3.453218       0.06439
  36     2.964        3.0902        0.0000        6.5395        6.5395       3.449263       0.04965
  35     3.853        3.0902        0.0000        6.5355        6.5356       3.445318       0.03743
  34     5.035        3.0902        0.0000        6.5315        6.5315       3.441314       0.02861
  33     6.613        3.0902        0.0000        6.5271        6.5271       3.436916       0.02351
  32     8.786        3.0902        0.0001        6.5216        6.5216       3.431413       0.02137
  31     11.80        3.0902        0.0001        6.5135        6.5136       3.423321       0.02266
  30     15.07        3.0902        0.0001        6.5041        6.5042       3.413935       0.02423
  29     18.79        3.0903        0.0001        6.4925        6.4927       3.402394       0.02617
  28     23.16        3.0903        0.0002        6.4779        6.4780       3.387766       0.02829
  27     28.12        3.0903        0.0002        6.4599        6.4601       3.369742       0.03064
  26     33.73        3.0904        0.0002        6.4384        6.4386       3.348247       0.03232
  25     40.54        3.0905        0.0003        6.4112        6.4115       3.321031       0.03376
  24     48.69        3.0906        0.0003        6.3775        6.3778       3.287266       0.03494
  23     57.69        3.0907        0.0004        6.3404        6.3408       3.250012       0.03492
  22     68.43        3.0910        0.0004        6.2971        6.2976       3.206598       0.03413
  21     81.20        3.0913        0.0005        6.2483        6.2488       3.157474       0.03246
  20     96.49        3.0918        0.0006        6.1948        6.1954       3.103678       0.02969
  19     114.6        3.0924        0.0007        6.1381        6.1389       3.046459       0.02672
  18     136.5        3.0933        0.0009        6.0790        6.0799       2.986548       0.02304
  17     162.9        3.0946        0.0010        6.0160        6.0171       2.922473       0.02048
  16     196.4        3.0966        0.0012        5.9399        5.9411       2.844507       0.01963
  15     218.7        3.0982        0.0013        5.8896        5.8910       2.792813       0.01963
  14     243.0        3.1002        0.0015        5.8322        5.8337       2.733421       0.02060
  13     269.0        3.1032        0.0016        5.7624        5.7640       2.660826       0.02355
  12     297.5        3.1074        0.0018        5.6767        5.6785       2.571121       0.02661
  11     328.5        3.1131        0.0019        5.5726        5.5745       2.461444       0.02982
  10     361.9        3.1208        0.0021        5.4473        5.4494       2.328640       0.03360
   9     398.1        3.1311        0.0023        5.2995        5.3018       2.170636       0.03681
   8     437.6        3.1450        0.0024        5.1275        5.1299       1.984923       0.03971
   7     480.5        3.1639        0.0026        4.9290        4.9316       1.767642       0.04267
   6     533.0        3.1940        0.0028        4.6794        4.6822       1.488202       0.04495
   5     589.8        3.2361        0.0030        4.4188        4.4218       1.185634       0.04491
   4     651.6        3.2962        0.0032        4.1521        4.1552       0.859040       0.04466
   3     718.7        3.3786        0.0033        3.8929        3.8963       0.517671       0.04290
   2     792.3        3.4898        0.0035        3.6469        3.6504       0.160601       0.04095
   1     891.5        0.0214        0.0916        0.0000        0.0916       0.070196       0.00769
   0    1013.0        0.0221        0.0883        0.0000        0.0883       0.066190       0.00028



 Wavenumbers:  5150. -  6150. cm-1, ATM      1
 LEVEL PRESSURE   UPWARD FLUX   DIFDOWN FLUX  DIRDOWN FLUX  DOWNWARD FLUX   NET FLUX    HEATING RATE
          mb          W/m2          W/m2          W/m2        W/m2          W/m2       degree/day
  51    .06700        7.6033        0.0000       16.4735       16.4735       8.870224       0.00000
  50    .07753        7.6033        0.0000       16.4735       16.4735       8.870190       0.02765
  49    .09103        7.6033        0.0000       16.4734       16.4734       8.870145       0.02814
  48    0.1069        7.6033        0.0000       16.4734       16.4734       8.870091       0.02863
  47    0.1255        7.6033        0.0000       16.4733       16.4733       8.870027       0.02908
  46    0.1487        7.6033        0.0000       16.4732       16.4732       8.869943       0.03063
  45    0.1794        7.6033        0.0000       16.4731       16.4731       8.869824       0.03272
  44    0.2165        7.6033        0.0000       16.4730       16.4730       8.869677       0.03334
  43    0.2613        7.6033        0.0000       16.4728       16.4728       8.869498       0.03379
  42    0.3336        7.6033        0.0000       16.4725       16.4725       8.869192       0.03568
  41    0.4307        7.6033        0.0000       16.4720       16.4720       8.868772       0.03649
  40    0.5894        7.6033        0.0000       16.4713       16.4713       8.868070       0.03732
  39     1.339        7.6033        0.0000       16.4679       16.4679       8.864658       0.03842
  38     1.782        7.6033        0.0001       16.4659       16.4659       8.862655       0.03813
  37     2.292        7.6033        0.0001       16.4635       16.4636       8.860359       0.03802
  36     2.964        7.6033        0.0001       16.4605       16.4606       8.857383       0.03736
  35     3.853        7.6032        0.0001       16.4567       16.4568       8.853520       0.03666
  34     5.035        7.6032        0.0001       16.4516       16.4517       8.848509       0.03580
  33     6.613        7.6032        0.0002       16.4451       16.4453       8.842028       0.03465
  32     8.786        7.6032        0.0003       16.4367       16.4369       8.833685       0.03240
  31     11.80        7.6032        0.0004       16.4254       16.4257       8.822486       0.03135
  30     15.07        7.6032        0.0004       16.4141       16.4146       8.811342       0.02877
  29     18.79        7.6032        0.0006       16.4024       16.4030       8.799752       0.02628
  28     23.16        7.6033        0.0007       16.3900       16.3907       8.787404       0.02388
  27     28.12        7.6033        0.0008       16.3771       16.3779       8.774635       0.02171
  26     33.73        7.6033        0.0010       16.3641       16.3651       8.761778       0.01933
  25     40.54        7.6034        0.0012       16.3502       16.3514       8.747959       0.01714
  24     48.69        7.6036        0.0014       16.3354       16.3368       8.733246       0.01523
  23     57.69        7.6037        0.0017       16.3211       16.3228       8.719058       0.01330
  22     68.43        7.6040        0.0020       16.3062       16.3083       8.704305       0.01160
  21     81.20        7.6043        0.0024       16.2903       16.2927       8.688456       0.01047
  20     96.49        7.6047        0.0029       16.2726       16.2755       8.670820       0.00973
  19     114.6        7.6051        0.0034       16.2521       16.2555       8.650316       0.00957
  18     136.5        7.6058        0.0040       16.2245       16.2286       8.622808       0.01058
  17     162.9        7.6065        0.0048       16.1747       16.1795       8.572967       0.01593
  16     196.4        7.6077        0.0057       16.0518       16.0576       8.449902       0.03098
  15     218.7        7.6085        0.0063       15.8984       15.9047       8.296234       0.05834
  14     243.0        7.6095        0.0070       15.6153       15.6222       8.012712       0.09833
  13     269.0        7.6109        0.0076       15.1390       15.1466       7.535621       0.15477
  12     297.5        7.6130        0.0082       14.5779       14.5860       6.973066       0.16685
  11     328.5        7.6160        0.0087       13.8780       13.8867       6.270760       0.19096
  10     361.9        7.6204        0.0092       13.0814       13.0907       5.470287       0.20253
   9     398.1        7.6268        0.0097       12.2728       12.2826       4.655782       0.18976
   8     437.6        7.6362        0.0102       11.4776       11.4877       3.851521       0.17196
   7     480.5        7.6507        0.0106       10.7300       10.7405       3.089815       0.14960
   6     533.0        7.6767        0.0111       10.0326       10.0437       2.366963       0.11628
   5     589.8        7.7183        0.0117        9.5050        9.5168       1.798451       0.08439
   4     651.6        7.7856        0.0125        9.0814        9.0939       1.308282       0.06703
   3     718.7        7.8893        0.0133        8.7024        8.7158       0.826438       0.06055
   2     792.3        8.0435        0.0143        8.3379        8.3522       0.308688       0.05938
   1     891.5        0.0600        0.2466        0.0000        0.2466       0.186592       0.01039
   0    1013.0        0.0609        0.2427        0.0000        0.2427       0.181870       0.00033



 Wavenumbers:  6150. -  7700. cm-1, ATM      1
 LEVEL PRESSURE   UPWARD FLUX   DIFDOWN FLUX  DIRDOWN FLUX  DOWNWARD FLUX   NET FLUX    HEATING RATE
          mb          W/m2          W/m2          W/m2        W/m2          W/m2       degree/day
  51    .06700       11.8992        0.0000       30.4684       30.4684      18.569154       0.00000
  50    .07753       11.8992        0.0000       30.4683       30.4683      18.569102       0.04144
  49    .09103       11.8992        0.0000       30.4683       30.4683      18.569035       0.04174
  48    0.1069       11.8992        0.0000       30.4682       30.4682      18.568956       0.04202
  47    0.1255       11.8992        0.0000       30.4681       30.4681      18.568863       0.04227
  46    0.1487       11.8992        0.0000       30.4680       30.4680      18.568742       0.04411
  45    0.1794       11.8992        0.0000       30.4678       30.4678      18.568572       0.04669
  44    0.2165       11.8992        0.0000       30.4676       30.4676      18.568365       0.04715
  43    0.2613       11.8992        0.0000       30.4673       30.4673      18.568113       0.04744
  42    0.3336       11.8992        0.0000       30.4669       30.4669      18.567686       0.04974
  41    0.4307       11.8992        0.0000       30.4663       30.4663      18.567105       0.05052
  40    0.5894       11.8992        0.0001       30.4653       30.4653      18.566138       0.05146
  39     1.339       11.8991        0.0002       30.4604       30.4606      18.561454       0.05273
  38     1.782       11.8991        0.0002       30.4576       30.4578      18.558704       0.05235
  37     2.292       11.8990        0.0003       30.4543       30.4546      18.555546       0.05231
  36     2.964       11.8990        0.0004       30.4501       30.4504      18.551438       0.05156
  35     3.853       11.8989        0.0005       30.4445       30.4450      18.546081       0.05084
  34     5.035       11.8988        0.0006       30.4373       30.4379      18.539081       0.05000
  33     6.613       11.8987        0.0008       30.4278       30.4286      18.529933       0.04890
  32     8.786       11.8985        0.0011       30.4154       30.4165      18.517980       0.04642
  31     11.80       11.8982        0.0014       30.3984       30.3998      18.501595       0.04588
  30     15.07       11.8979        0.0018       30.3810       30.3828      18.484880       0.04315
  29     18.79       11.8976        0.0023       30.3623       30.3646      18.466979       0.04059
  28     23.16       11.8972        0.0028       30.3417       30.3445      18.447294       0.03806
  27     28.12       11.8968        0.0034       30.3196       30.3230      18.426192       0.03587
  26     33.73       11.8963        0.0041       30.2965       30.3006      18.404271       0.03296
  25     40.54       11.8958        0.0049       30.2708       30.2757      18.379930       0.03020
  24     48.69       11.8951        0.0059       30.2423       30.2482      18.353149       0.02771
  23     57.69       11.8943        0.0070       30.2139       30.2209      18.326577       0.02491
  22     68.43       11.8934        0.0083       30.1834       30.1917      18.298293       0.02223
  21     81.20       11.8923        0.0099       30.1500       30.1599      18.267553       0.02031
  20     96.49       11.8910        0.0117       30.1126       30.1244      18.233319       0.01889
  19     114.6       11.8895        0.0139       30.0695       30.0834      18.193910       0.01840
  18     136.5       11.8877        0.0165       30.0139       30.0305      18.142716       0.01969
  17     162.9       11.8857        0.0196       29.9225       29.9421      18.056456       0.02757
  16     196.4       11.8831        0.0236       29.7333       29.7569      17.873884       0.04596
  15     218.7       11.8815        0.0262       29.5259       29.5520      17.670554       0.07720
  14     243.0       11.8800        0.0288       29.1375       29.1663      17.286345       0.13326
  13     269.0       11.8790        0.0314       28.3800       28.4114      16.532470       0.24455
  12     297.5       11.8790        0.0339       27.3895       27.4235      15.544470       0.29303
  11     328.5       11.8809        0.0363       26.2257       26.2620      14.381156       0.31630
  10     361.9       11.8858        0.0386       24.8453       24.8839      12.998091       0.34993
   9     398.1       11.8955        0.0406       23.3471       23.3877      11.492209       0.35084
   8     437.6       11.9128        0.0424       21.7966       21.8391       9.926298       0.33480
   7     480.5       11.9435        0.0440       20.1977       20.2417       8.298164       0.31976
   6     533.0       12.0034        0.0457       18.4969       18.5426       6.539230       0.28296
   5     589.8       12.1031        0.0474       16.9754       17.0227       4.919616       0.24040
   4     651.6       12.2685        0.0491       15.6022       15.6512       3.382746       0.21017
   3     718.7       12.5258        0.0510       14.4232       14.4742       1.948435       0.18025
   2     792.3       12.9123        0.0532       13.4386       13.4918       0.579500       0.15700
   1     891.5        0.0854        0.3590        0.0000        0.3590       0.273604       0.02603
   0    1013.0        0.0875        0.3490        0.0000        0.3490       0.261482       0.00084



 Wavenumbers:  7700. -  8050. cm-1, ATM      1
 LEVEL PRESSURE   UPWARD FLUX   DIFDOWN FLUX  DIRDOWN FLUX  DOWNWARD FLUX   NET FLUX    HEATING RATE
          mb          W/m2          W/m2          W/m2        W/m2          W/m2       degree/day
  51    .06700        5.6247        0.0000        7.2006        7.2006       1.575860       0.00000
  50    .07753        5.6247        0.0000        7.2006        7.2006       1.575838       0.01722
  49    .09103        5.6247        0.0000        7.2005        7.2005       1.575811       0.01688
  48    0.1069        5.6247        0.0000        7.2005        7.2005       1.575780       0.01652
  47    0.1255        5.6247        0.0000        7.2005        7.2005       1.575744       0.01617
  46    0.1487        5.6248        0.0000        7.2004        7.2005       1.575699       0.01641
  45    0.1794        5.6248        0.0000        7.2004        7.2004       1.575638       0.01688
  44    0.2165        5.6248        0.0000        7.2003        7.2003       1.575565       0.01656
  43    0.2613        5.6248        0.0000        7.2003        7.2003       1.575479       0.01625
  42    0.3336        5.6248        0.0000        7.2001        7.2001       1.575336       0.01663
  41    0.4307        5.6248        0.0000        7.2000        7.2000       1.575147       0.01644
  40    0.5894        5.6249        0.0000        7.1997        7.1997       1.574838       0.01642
  39     1.339        5.6251        0.0001        7.1984        7.1985       1.573377       0.01645
  38     1.782        5.6253        0.0001        7.1977        7.1978       1.572519       0.01633
  37     2.292        5.6254        0.0001        7.1968        7.1970       1.571527       0.01644
  36     2.964        5.6256        0.0002        7.1957        7.1959       1.570223       0.01636
  35     3.853        5.6259        0.0002        7.1942        7.1944       1.568502       0.01633
  34     5.035        5.6263        0.0003        7.1922        7.1925       1.566217       0.01632
  33     6.613        5.6268        0.0004        7.1896        7.1900       1.563167       0.01631
  32     8.786        5.6275        0.0005        7.1860        7.1865       1.559061       0.01595
  31     11.80        5.6284        0.0006        7.1810        7.1816       1.553197       0.01642
  30     15.07        5.6295        0.0008        7.1755        7.1764       1.546915       0.01622
  29     18.79        5.6306        0.0010        7.1694        7.1705       1.539836       0.01605
  28     23.16        5.6320        0.0013        7.1623        7.1636       1.531592       0.01594
  27     28.12        5.6336        0.0015        7.1542        7.1558       1.522198       0.01597
  26     33.73        5.6353        0.0018        7.1452        7.1471       1.511726       0.01574
  25     40.54        5.6375        0.0022        7.1344        7.1366       1.499136       0.01562
  24     48.69        5.6401        0.0026        7.1215        7.1241       1.484044       0.01562
  23     57.69        5.6430        0.0031        7.1074        7.1106       1.467578       0.01543
  22     68.43        5.6464        0.0037        7.0909        7.0946       1.448116       0.01530
  21     81.20        5.6506        0.0044        7.0713        7.0757       1.425140       0.01518
  20     96.49        5.6556        0.0052        7.0484        7.0536       1.398052       0.01495
  19     114.6        5.6615        0.0061        7.0217        7.0278       1.366285       0.01483
  18     136.5        5.6687        0.0073        6.9906        6.9979       1.329164       0.01427
  17     162.9        5.6774        0.0086        6.9544        6.9630       1.285660       0.01391
  16     196.4        5.6888        0.0104        6.9087        6.9191       1.230312       0.01393
  15     218.7        5.6965        0.0115        6.8794        6.8910       1.194502       0.01360
  14     243.0        5.7049        0.0128        6.8481        6.8609       1.155998       0.01335
  13     269.0        5.7142        0.0141        6.8147        6.8288       1.114614       0.01342
  12     297.5        5.7246        0.0156        6.7791        6.7946       1.070084       0.01321
  11     328.5        5.7361        0.0171        6.7409        6.7581       1.021989       0.01308
  10     361.9        5.7490        0.0188        6.7002        6.7190       0.969961       0.01316
   9     398.1        5.7636        0.0206        6.6563        6.6769       0.913327       0.01319
   8     437.6        5.7801        0.0226        6.6089        6.6314       0.851354       0.01325
   7     480.5        5.7990        0.0246        6.5570        6.5816       0.782570       0.01351
   6     533.0        5.8244        0.0271        6.4915        6.5186       0.694187       0.01422
   5     589.8        5.8547        0.0299        6.4182        6.4481       0.593435       0.01495
   4     651.6        5.8909        0.0327        6.3359        6.3686       0.477678       0.01583
   3     718.7        5.9342        0.0358        6.2441        6.2799       0.345734       0.01658
   2     792.3        5.9850        0.0390        6.1437        6.1828       0.197759       0.01697
   1     891.5        0.0463        0.1905        0.0000        0.1905       0.144179       0.00456
   0    1013.0        0.0470        0.1874        0.0000        0.1874       0.140397       0.00026



 Wavenumbers:  8050. - 12850. cm-1, ATM      1
 LEVEL PRESSURE   UPWARD FLUX   DIFDOWN FLUX  DIRDOWN FLUX  DOWNWARD FLUX   NET FLUX    HEATING RATE
          mb          W/m2          W/m2          W/m2        W/m2          W/m2       degree/day
  51    .06700       73.1752        0.0000      100.8135      100.8135      27.638320       0.00000
  50    .07753       73.1752        0.0000      100.8135      100.8135      27.638320       0.00000
  49    .09103       73.1752        0.0001      100.8134      100.8135      27.638320       0.00000
  48    0.1069       73.1751        0.0001      100.8134      100.8135      27.638320      -0.00000
  47    0.1255       73.1751        0.0002      100.8133      100.8134      27.638320       0.00000
  46    0.1487       73.1751        0.0002      100.8132      100.8134      27.638320       0.00000
  45    0.1794       73.1750        0.0003      100.8131      100.8134      27.638320      -0.00000
  44    0.2165       73.1750        0.0004      100.8129      100.8133      27.638320      -0.00000
  43    0.2613       73.1749        0.0005      100.8127      100.8133      27.638320      -0.00000
  42    0.3336       73.1748        0.0007      100.8125      100.8132      27.638320       0.00000
  41    0.4307       73.1747        0.0010      100.8121      100.8130      27.638320       0.00000
  40    0.5894       73.1745        0.0014      100.8115      100.8128      27.638320       0.00000
  39     1.339       73.1735        0.0034      100.8085      100.8119      27.638320      -0.00000
  38     1.782       73.1730        0.0045      100.8068      100.8113      27.638320       0.00000
  37     2.292       73.1723        0.0059      100.8047      100.8106      27.638320      -0.00000
  36     2.964       73.1714        0.0076      100.8021      100.8097      27.638320       0.00000
  35     3.853       73.1703        0.0100      100.7986      100.8086      27.638320       0.00000
  34     5.035       73.1687        0.0131      100.7940      100.8071      27.638320      -0.00000
  33     6.613       73.1667        0.0172      100.7878      100.8050      27.638320       0.00000
  32     8.786       73.1639        0.0228      100.7794      100.8022      27.638320       0.00000
  31     11.80       73.1600        0.0309      100.7674      100.7983      27.638320       0.00000
  30     15.07       73.1557        0.0395      100.7546      100.7940      27.638320       0.00000
  29     18.79       73.1509        0.0492      100.7400      100.7892      27.638320      -0.00000
  28     23.16       73.1453        0.0606      100.7230      100.7836      27.638320       0.00000
  27     28.12       73.1388        0.0737      100.7035      100.7772      27.638320      -0.00000
  26     33.73       73.1316        0.0883      100.6817      100.7699      27.638320       0.00000
  25     40.54       73.1229        0.1060      100.6552      100.7612      27.638320       0.00000
  24     48.69       73.1123        0.1273      100.6234      100.7507      27.638320      -0.00000
  23     57.69       73.1007        0.1508      100.5883      100.7391      27.638320       0.00000
  22     68.43       73.0869        0.1788      100.5464      100.7252      27.638320       0.00000
  21     81.20       73.0704        0.2122      100.4965      100.7087      27.638320      -0.00000
  20     96.49       73.0507        0.2521      100.4370      100.6890      27.638320      -0.00000
  19     114.6       73.0275        0.2995      100.3585      100.6580      27.630488       0.00366
  18     136.5       72.9999        0.3558      100.2634      100.6192      27.619228       0.00433
  17     162.9       72.9672        0.4230      100.1407      100.5637      27.596439       0.00728
  16     196.4       72.9249        0.5103       99.9505      100.4608      27.535817       0.01526
  15     218.7       72.8973        0.5676       99.7889      100.3565      27.459261       0.02907
  14     243.0       72.8679        0.6299       99.5472      100.1771      27.309230       0.05204
  13     269.0       72.8382        0.6971       99.1452       99.8423      27.004179       0.09896
  12     297.5       72.8100        0.7693       98.5975       99.3668      26.556731       0.13271
  11     328.5       72.7866        0.8467       97.8659       98.7126      25.925948       0.17151
  10     361.9       72.7727        0.9292       96.8848       97.8139      25.041254       0.22384
   9     398.1       72.7746        1.0165       95.6330       96.6494      23.874876       0.27174
   8     437.6       72.8039        1.1082       94.0655       95.1736      22.369754       0.32180
   7     480.5       72.8836        1.2034       92.0807       93.2841      20.400478       0.38676
   6     533.0       73.0650        1.3165       89.4449       90.7613      17.696301       0.43502
   5     589.8       73.3883        1.4339       86.5544       87.9882      14.599985       0.45959
   4     651.6       73.9355        1.5550       83.4174       84.9724      11.036874       0.48727
   3     718.7       74.7784        1.6808       80.2037       81.8845       7.106127       0.49399
   2     792.3       76.0066        1.8121       77.0811       78.8931       2.886485       0.48395
   1     891.5        0.5651        2.3326        0.0000        2.3326       1.767478       0.09522
   0    1013.0        0.5731        2.2861        0.0000        2.2861       1.712964       0.00379



 Wavenumbers: 12850. - 16000. cm-1, ATM      1
 LEVEL PRESSURE   UPWARD FLUX   DIFDOWN FLUX  DIRDOWN FLUX  DOWNWARD FLUX   NET FLUX    HEATING RATE
          mb          W/m2          W/m2          W/m2        W/m2          W/m2       degree/day
  51    .06700       52.3341        0.0000       63.1686       63.1686      10.834487       0.00000
  50    .07753       52.3341        0.0001       63.1677       63.1678      10.833703       0.62828
  49    .09103       52.3341        0.0001       63.1666       63.1668      10.832725       0.61115
  48    0.1069       52.3340        0.0002       63.1654       63.1656      10.831610       0.59331
  47    0.1255       52.3340        0.0003       63.1640       63.1644      10.830341       0.57547
  46    0.1487       52.3340        0.0005       63.1623       63.1628      10.828755       0.57798
  45    0.1794       52.3340        0.0006       63.1600       63.1606      10.826625       0.58472
  44    0.2165       52.3340        0.0009       63.1573       63.1581      10.824157       0.56147
  43    0.2613       52.3340        0.0011       63.1542       63.1553      10.821303       0.53797
  42    0.3336       52.3341        0.0015       63.1493       63.1508      10.816742       0.53184
  41    0.4307       52.3342        0.0021       63.1431       63.1452      10.811014       0.49803
  40    0.5894       52.3345        0.0030       63.1338       63.1368      10.802285       0.46420
  39     1.339       52.3380        0.0072       63.0956       63.1028      10.764813       0.42186
  38     1.782       52.3415        0.0097       63.0740       63.0837      10.742269       0.42921
  37     2.292       52.3469        0.0126       63.0477       63.0603      10.713395       0.47822
  36     2.964       52.3560        0.0164       63.0095       63.0259      10.669879       0.54626
  35     3.853       52.3711        0.0214       62.9533       62.9746      10.603575       0.62924
  34     5.035       52.3939        0.0280       62.8725       62.9005      10.506605       0.69271
  33     6.613       52.4259        0.0368       62.7621       62.7989      10.373018       0.71415
  32     8.786       52.4675        0.0487       62.6182       62.6670      10.199533       0.67375
  31     11.80       52.5212        0.0657       62.4284       62.4941       9.972861       0.63461
  30     15.07       52.5723        0.0839       62.2426       62.3265       9.754211       0.56451
  29     18.79       52.6241        0.1045       62.0493       62.1538       9.529662       0.50912
  28     23.16       52.6777        0.1284       61.8424       61.9708       9.293154       0.45733
  27     28.12       52.7309        0.1557       61.6278       61.7835       9.052583       0.40896
  26     33.73       52.7790        0.1862       61.4177       61.6039       8.824854       0.34240
  25     40.54       52.8239        0.2230       61.1983       61.4213       8.597489       0.28207
  24     48.69       52.8650        0.2674       60.9680       61.2354       8.370399       0.23500
  23     57.69       52.8976        0.3160       60.7478       61.0638       8.166212       0.19139
  22     68.43       52.9230        0.3740       60.5202       60.8941       7.971144       0.15335
  21     81.20       52.9347        0.4429       60.2938       60.7368       7.802094       0.11171
  20     96.49       52.9315        0.5252       60.0643       60.5894       7.657960       0.07955
  19     114.6       52.9270        0.6235       59.8078       60.4312       7.504267       0.07176
  18     136.5       52.9142        0.7398       59.5157       60.2555       7.341277       0.06267
  17     162.9       52.8924        0.8780       59.1770       60.0551       7.162737       0.05707
  16     196.4       52.8496        1.0570       58.7604       59.8174       6.967795       0.04907
  15     218.7       52.8165        1.1743       58.4948       59.6691       6.852556       0.04375
  14     243.0       52.7785        1.3016       58.2089       59.5105       6.731981       0.04182
  13     269.0       52.7357        1.4393       57.9006       59.3399       6.604207       0.04145
  12     297.5       52.6885        1.5878       57.5668       59.1546       6.466144       0.04095
  11     328.5       52.6389        1.7481       57.2005       58.9485       6.309620       0.04256
  10     361.9       52.5884        1.9201       56.7963       58.7165       6.128030       0.04594
   9     398.1       52.5389        2.1048       56.3475       58.4523       5.913429       0.05000
   8     437.6       52.4940        2.3023       55.8422       58.1445       5.650549       0.05621
   7     480.5       52.4606        2.5129       55.2625       57.7754       5.314815       0.06594
   6     533.0       52.4443        2.7702       54.4972       57.2673       4.822974       0.07912
   5     589.8       52.4584        3.0442       53.6307       56.6749       4.216475       0.09002
   4     651.6       52.5181        3.3343       52.6606       55.9949       3.476781       0.10116
   3     718.7       52.6337        3.6409       51.6100       55.2509       2.617261       0.10802
   2     792.3       52.8188        3.9640       50.5019       54.4658       1.647052       0.11127
   1     891.5        1.6008        2.9151        0.0000        2.9151       1.314318       0.02831
   0    1013.0        1.6093        2.8857        0.0000        2.8857       1.276324       0.00264



 Wavenumbers: 16000. - 22650. cm-1, ATM      1
 LEVEL PRESSURE   UPWARD FLUX   DIFDOWN FLUX  DIRDOWN FLUX  DOWNWARD FLUX   NET FLUX    HEATING RATE
          mb          W/m2          W/m2          W/m2        W/m2          W/m2       degree/day
  51    .06700       87.6301        0.0000      100.7153      100.7153      13.085213       0.00000
  50    .07753       87.6300        0.0003      100.7147      100.7151      13.085090       0.09846
  49    .09103       87.6299        0.0008      100.7140      100.7148      13.084912       0.11167
  48    0.1069       87.6297        0.0013      100.7131      100.7144      13.084672       0.12734
  47    0.1255       87.6296        0.0018      100.7121      100.7139      13.084352       0.14515
  46    0.1487       87.6294        0.0025      100.7108      100.7133      13.083880       0.17200
  45    0.1794       87.6292        0.0035      100.7089      100.7124      13.083143       0.20252
  44    0.2165       87.6291        0.0046      100.7066      100.7112      13.082142       0.22761
  43    0.2613       87.6289        0.0060      100.7037      100.7097      13.080785       0.25588
  42    0.3336       87.6287        0.0083      100.6987      100.7070      13.078204       0.30091
  41    0.4307       87.6287        0.0112      100.6918      100.7030      13.074313       0.33825
  40    0.5894       87.6290        0.0161      100.6797      100.6959      13.066894       0.39453
  39     1.339       87.6366        0.0392      100.6095      100.6487      13.012092       0.61698
  38     1.782       87.6458        0.0527      100.5585      100.6112      12.965419       0.88857
  37     2.292       87.6608        0.0684      100.4903      100.5587      12.897879       1.11864
  36     2.964       87.6872        0.0890      100.3868      100.4757      12.788508       1.37293
  35     3.853       87.7316        0.1161      100.2306      100.3467      12.615075       1.64591
  34     5.035       87.8000        0.1521      100.0045      100.1566      12.356575       1.84662
  33     6.613       87.8961        0.2001       99.6939       99.8939      11.997824       1.91788
  32     8.786       88.0208        0.2646       99.2881       99.5526      11.531857       1.80965
  31     11.80       88.1808        0.3566       98.7496       99.1062      10.925340       1.69806
  30     15.07       88.3314        0.4550       98.2198       98.6748      10.343450       1.50233
  29     18.79       88.4823        0.5659       97.6651       98.2310       9.748671       1.34855
  28     23.16       88.6365        0.6949       97.0671       97.7620       9.125479       1.20505
  27     28.12       88.7871        0.8419       96.4406       97.2825       8.495336       1.07120
  26     33.73       88.9186        1.0059       95.8179       96.8238       7.905204       0.88728
  25     40.54       89.0346        1.2034       95.1548       96.3583       7.323682       0.72144
  24     48.69       89.1329        1.4407       94.4420       95.8827       6.749753       0.59393
  23     57.69       89.2009        1.7004       93.7416       95.4420       6.241049       0.47683
  22     68.43       89.2388        2.0084       92.9954       95.0038       5.764966       0.37426
  21     81.20       89.2249        2.3741       92.2231       94.5973       5.372334       0.25945
  20     96.49       89.1539        2.8080       91.4110       94.2190       5.065136       0.16955
  19     114.6       89.0424        3.3199       90.5070       93.8269       4.784495       0.13104
  18     136.5       88.8928        3.9218       89.4803       93.4021       4.509328       0.10581
  17     162.9       88.6994        4.6318       88.3022       92.9341       4.234699       0.08778
  16     196.4       88.4145        5.5426       86.8606       92.4032       3.988707       0.06192
  15     218.7       88.2158        6.1346       85.9492       92.0838       3.867958       0.04584
  14     243.0       87.9954        6.7726       84.9789       91.7515       3.756110       0.03879
  13     269.0       87.7522        7.4576       83.9493       91.4069       3.654725       0.03289
  12     297.5       87.4857        8.1907       82.8589       91.0496       3.563921       0.02693
  11     328.5       87.1979        8.9743       81.6982       90.6726       3.474645       0.02427
  10     361.9       86.8892        9.8085       80.4669       90.2755       3.386306       0.02235
   9     398.1       86.5589       10.6953       79.1611       89.8564       3.297581       0.02067
   8     437.6       86.2080       11.6352       77.7777       89.4129       3.204892       0.01982
   7     480.5       85.8375       12.6286       76.3136       88.9423       3.104762       0.01967
   6     533.0       85.3904       13.8319       74.5359       88.3678       2.977341       0.02050
   5     589.8       84.9213       15.1050       72.6469       87.7519       2.830640       0.02178
   4     651.6       84.4336       16.4462       70.6456       87.0918       2.658219       0.02358
   3     718.7       83.9284       17.8538       68.5367       86.3905       2.462082       0.02465
   2     792.3       83.4089       19.3225       66.3287       85.6512       2.242282       0.02521
   1     891.5        7.7165        9.8560        0.0000        9.8560       2.139430       0.00875
   0    1013.0        7.7027        9.8162        0.0000        9.8162       2.113420       0.00181



 Wavenumbers: 22650. - 29000. cm-1, ATM      1
 LEVEL PRESSURE   UPWARD FLUX   DIFDOWN FLUX  DIRDOWN FLUX  DOWNWARD FLUX   NET FLUX    HEATING RATE
          mb          W/m2          W/m2          W/m2        W/m2          W/m2       degree/day
  51    .06700       37.1290        0.0000       38.0063       38.0063       0.877256       0.00000
  50    .07753       37.1289        0.0004       38.0057       38.0061       0.877256       0.00000
  49    .09103       37.1287        0.0009       38.0050       38.0059       0.877256      -0.00000
  48    0.1069       37.1284        0.0015       38.0042       38.0057       0.877256       0.00000
  47    0.1255       37.1282        0.0021       38.0033       38.0054       0.877256       0.00000
  46    0.1487       37.1279        0.0029       38.0022       38.0051       0.877256      -0.00000
  45    0.1794       37.1274        0.0041       38.0006       38.0047       0.877256       0.00000
  44    0.2165       37.1269        0.0054       37.9987       38.0041       0.877256       0.00000
  43    0.2613       37.1262        0.0070       37.9965       38.0035       0.877256      -0.00000
  42    0.3336       37.1252        0.0096       37.9928       38.0024       0.877256      -0.00000
  41    0.4307       37.1238        0.0131       37.9880       38.0011       0.877256       0.00000
  40    0.5894       37.1215        0.0187       37.9800       37.9988       0.877256       0.00000
  39     1.339       37.1108        0.0456       37.9425       37.9881       0.877256       0.00000
  38     1.782       37.1045        0.0613       37.9204       37.9818       0.877256      -0.00000
  37     2.292       37.0972        0.0795       37.8949       37.9745       0.877256       0.00000
  36     2.964       37.0876        0.1035       37.8614       37.9649       0.877256       0.00000
  35     3.853       37.0750        0.1350       37.8172       37.9523       0.877256      -0.00000
  34     5.035       37.0582        0.1769       37.7586       37.9355       0.877256       0.00000
  33     6.613       37.0359        0.2328       37.6803       37.9131       0.877256      -0.00000
  32     8.786       37.0058        0.3080       37.5750       37.8830       0.877256       0.00000
  31     11.80       36.9628        0.4152       37.4249       37.8401       0.877256       0.00000
  30     15.07       36.9169        0.5300       37.2642       37.7942       0.877256       0.00000
  29     18.79       36.8652        0.6592       37.0833       37.7425       0.877256       0.00000
  28     23.16       36.8051        0.8093       36.8730       37.6823       0.877256      -0.00000
  27     28.12       36.7367        0.9801       36.6338       37.6139       0.877256       0.00000
  26     33.73       36.6606        1.1701       36.3677       37.5378       0.877256       0.00000
  25     40.54       36.5693        1.3980       36.0486       37.4465       0.877256       0.00000
  24     48.69       36.4602        1.6702       35.6672       37.3374       0.877256      -0.00000
  23     57.69       36.3415        1.9661       35.2527       37.2188       0.877256       0.00000
  22     68.43       36.2019        2.3142       34.7649       37.0792       0.877256      -0.00000
  21     81.20       36.0379        2.7229       34.1922       36.9152       0.877256       0.00000
  20     96.49       35.8459        3.2014       33.5217       36.7231       0.877256      -0.00000
  19     114.6       35.6225        3.7574       32.7424       36.4997       0.877256       0.00000
  18     136.5       35.3642        4.3999       31.8416       36.2414       0.877256       0.00000
  17     162.9       35.0655        5.1420       30.8008       35.9428       0.877256      -0.00000
  16     196.4       34.6921        6.0687       29.5007       35.5693       0.877256      -0.00000
  15     218.7       34.4552        6.6558       28.6767       35.3325       0.877256       0.00000
  14     243.0       34.2049        7.2754       27.8068       35.0822       0.877256      -0.00000
  13     269.0       33.9419        7.9258       26.8933       34.8191       0.877256       0.00000
  12     297.5       33.6669        8.6049       25.9393       34.5442       0.877256       0.00000
  11     328.5       33.3800        9.3122       24.9451       34.2573       0.877256       0.00000
  10     361.9       33.0827       10.0440       23.9160       33.9600       0.877256      -0.00000
   9     398.1       32.7755       10.7987       22.8541       33.6528       0.877256       0.00000
   8     437.6       32.4598       11.5726       21.7645       33.3371       0.877256       0.00000
   7     480.5       32.1369       12.3621       20.6521       33.0142       0.877256      -0.00000
   6     533.0       31.7602       13.2805       19.3569       32.6374       0.877256       0.00000
   5     589.8       31.3781       14.2086       18.0467       32.2553       0.877256      -0.00000
   4     651.6       30.9933       15.1390       16.7316       31.8706       0.877256       0.00000
   3     718.7       30.6087       16.0645       15.4214       31.4859       0.877256      -0.00000
   2     792.3       30.2272       16.9769       14.1276       31.1045       0.877256       0.00000
   1     891.5        3.2199        4.0950        0.0000        4.0950       0.875119       0.00018
   0    1013.0        3.1895        4.0647        0.0000        4.0647       0.875119       0.00000



 Wavenumbers: 29000. - 38000. cm-1, ATM      1
 LEVEL PRESSURE   UPWARD FLUX   DIFDOWN FLUX  DIRDOWN FLUX  DOWNWARD FLUX   NET FLUX    HEATING RATE
          mb          W/m2          W/m2          W/m2        W/m2          W/m2       degree/day
  51    .06700        5.3183        0.0000       13.4026       13.4026       8.084314       0.00000
  50    .07753        5.3181        0.0003       13.3983       13.3986       8.080515       3.04481
  49    .09103        5.3178        0.0007       13.3921       13.3928       8.074995       3.45015
  48    0.1069        5.3175        0.0011       13.3840       13.3851       8.067618       3.92732
  47    0.1255        5.3172        0.0016       13.3733       13.3749       8.057771       4.46382
  46    0.1487        5.3167        0.0022       13.3579       13.3601       8.043327       5.26516
  45    0.1794        5.3162        0.0030       13.3340       13.3371       8.020924       6.15020
  44    0.2165        5.3155        0.0040       13.3024       13.3064       7.990900       6.82983
  43    0.2613        5.3148        0.0052       13.2604       13.2656       7.950839       7.55133
  42    0.3336        5.3136        0.0071       13.1833       13.1904       7.876820       8.62989
  41    0.4307        5.3121        0.0096       13.0729       13.0825       7.770429       9.25048
  40    0.5894        5.3098        0.0135       12.8796       12.8931       7.583348       9.94872
  39     1.339        5.3018        0.0300       11.9165       11.9465       6.644724      10.56720
  38     1.782        5.2988        0.0384       11.4399       11.4783       6.179502       8.85708
  37     2.292        5.2968        0.0474       10.9796       11.0270       5.730226       7.44117
  36     2.964        5.2961        0.0585       10.4786       10.5371       5.241048       6.14066
  35     3.853        5.2977        0.0722        9.9429       10.0151       4.717332       4.97016
  34     5.035        5.3027        0.0893        9.4007        9.4900       4.187328       3.78613
  33     6.613        5.3111        0.1110        8.8752        8.9862       3.675177       2.73796
  32     8.786        5.3225        0.1390        8.3786        8.5176       3.195152       1.86425
  31     11.80        5.3368        0.1776        7.8897        8.0672       2.730484       1.30092
  30     15.07        5.3495        0.2174        7.5108        7.7282       2.378630       0.90842
  29     18.79        5.3619        0.2607        7.1776        7.4384       2.076486       0.68505
  28     23.16        5.3738        0.3096        6.8664        7.1761       1.802227       0.53033
  27     28.12        5.3846        0.3637        6.5780        6.9418       1.557171       0.41658
  26     33.73        5.3915        0.4228        6.3195        6.7422       1.350754       0.31035
  25     40.54        5.3936        0.4924        6.0663        6.5587       1.165091       0.23033
  24     48.69        5.3905        0.5741        5.8128        6.3870       0.996478       0.17449
  23     57.69        5.3816        0.6614        5.5777        6.2391       0.857487       0.13028
  22     68.43        5.3651        0.7625        5.3379        6.1004       0.735265       0.09608
  21     81.20        5.3366        0.8800        5.0965        5.9764       0.639884       0.06303
  20     96.49        5.2948        1.0158        4.8476        5.8634       0.568674       0.03930
  19     114.6        5.2433        1.1700        4.5799        5.7498       0.506522       0.02902
  18     136.5        5.1835        1.3425        4.2891        5.6316       0.448090       0.02247
  17     162.9        5.1154        1.5344        3.9732        5.5076       0.392187       0.01787
  16     196.4        5.0288        1.7650        3.6080        5.3730       0.344196       0.01208
  15     218.7        4.9743        1.9058        3.3898        5.2956       0.321259       0.00871
  14     243.0        4.9179        2.0497        3.1686        5.2183       0.300387       0.00724
  13     269.0        4.8598        2.1957        2.9461        5.1417       0.281915       0.00599
  12     297.5        4.8006        2.3425        2.7239        5.0665       0.265874       0.00476
  11     328.5        4.7411        2.4890        2.5029        4.9919       0.250746       0.00411
  10     361.9        4.6819        2.6338        2.2846        4.9184       0.236558       0.00359
   9     398.1        4.6233        2.7758        2.0708        4.8466       0.223305       0.00309
   8     437.6        4.5659        2.9140        1.8626        4.7766       0.210707       0.00269
   7     480.5        4.5102        3.0470        1.6621        4.7091       0.198904       0.00232
   6     533.0        4.4491        3.1916        1.4437        4.6353       0.186206       0.00204
   5     589.8        4.3915        3.3265        1.2390        4.5655       0.174072       0.00180
   4     651.6        4.3380        3.4503        1.0500        4.5003       0.162337       0.00160
   3     718.7        4.2890        3.5622        0.8778        4.4400       0.150961       0.00143
   2     792.3        4.2450        3.6612        0.7237        4.3849       0.139921       0.00127
   1     891.5        0.4856        0.6183        0.0000        0.6183       0.132650       0.00062
   0    1013.0        0.4770        0.6079        0.0000        0.6079       0.130889       0.00012



 Wavenumbers: 38000. - 50000. cm-1, ATM      1
 LEVEL PRESSURE   UPWARD FLUX   DIFDOWN FLUX  DIRDOWN FLUX  DOWNWARD FLUX   NET FLUX    HEATING RATE
          mb          W/m2          W/m2          W/m2        W/m2          W/m2       degree/day
  51    .06700        0.0051        0.0000        0.8267        0.8267       0.821528       0.00000
  50    .07753        0.0051        0.0001        0.8242        0.8243       0.819196       1.86936
  49    .09103        0.0050        0.0002        0.8207        0.8209       0.815872       2.07705
  48    0.1069        0.0049        0.0002        0.8162        0.8164       0.811514       2.31984
  47    0.1255        0.0048        0.0004        0.8103        0.8106       0.805801       2.59006
  46    0.1487        0.0047        0.0005        0.8018        0.8023       0.797567       3.00143
  45    0.1794        0.0045        0.0007        0.7889        0.7896       0.785013       3.44648
  44    0.2165        0.0044        0.0009        0.7720        0.7729       0.768507       3.75474
  43    0.2613        0.0042        0.0011        0.7500        0.7511       0.746955       4.06246
  42    0.3336        0.0039        0.0015        0.7106        0.7121       0.708267       4.51071
  41    0.4307        0.0035        0.0019        0.6566        0.6584       0.654972       4.63387
  40    0.5894        0.0029        0.0024        0.5680        0.5704       0.567464       4.65357
  39     1.339        0.0015        0.0030        0.2422        0.2452       0.243720       3.64476
  38     1.782        0.0010        0.0026        0.1493        0.1519       0.150889       1.76735
  37     2.292        0.0007        0.0022        0.0924        0.0946       0.093932       0.94336
  36     2.964        0.0005        0.0018        0.0539        0.0557       0.055224       0.48589
  35     3.853        0.0003        0.0013        0.0295        0.0308       0.030502       0.23462
  34     5.035        0.0002        0.0010        0.0154        0.0164       0.016181       0.10230
  33     6.613        0.0001        0.0007        0.0073        0.0080       0.007912       0.04420
  32     8.786        0.0000        0.0004        0.0030        0.0034       0.003390       0.01756
  31     11.80        0.0000        0.0003        0.0010        0.0012       0.001199       0.00613
  30     15.07        0.0000        0.0001        0.0003        0.0005       0.000463       0.00190
  29     18.79        0.0000        0.0001        0.0001        0.0002       0.000182       0.00064
  28     23.16        0.0000        0.0000        0.0000        0.0001       0.000071       0.00022
  27     28.12        0.0000        0.0000        0.0000        0.0000       0.000028       0.00007
  26     33.73        0.0000        0.0000        0.0000        0.0000       0.000011       0.00002
  25     40.54        0.0000        0.0000        0.0000        0.0000       0.000005       0.00001
  24     48.69        0.0000        0.0000        0.0000        0.0000       0.000002       0.00000
  23     57.69        0.0000        0.0000        0.0000        0.0000       0.000001       0.00000
  22     68.43        0.0000        0.0000        0.0000        0.0000       0.000000       0.00000
  21     81.20        0.0000        0.0000        0.0000        0.0000       0.000000       0.00000
  20     96.49        0.0000        0.0000        0.0000        0.0000       0.000000       0.00000
  19     114.6        0.0000        0.0000        0.0000        0.0000       0.000000       0.00000
  18     136.5        0.0000        0.0000        0.0000        0.0000       0.000000       0.00000
  17     162.9        0.0000        0.0000        0.0000        0.0000       0.000000       0.00000
  16     196.4        0.0000        0.0000        0.0000        0.0000       0.000000       0.00000
  15     218.7        0.0000        0.0000        0.0000        0.0000       0.000000       0.00000
  14     243.0        0.0000        0.0000        0.0000        0.0000       0.000000       0.00000
  13     269.0        0.0000        0.0000        0.0000        0.0000       0.000000       0.00000
  12     297.5        0.0000        0.0000        0.0000        0.0000       0.000000       0.00000
  11     328.5        0.0000        0.0000        0.0000        0.0000       0.000000       0.00000
  10     361.9        0.0000        0.0000        0.0000        0.0000       0.000000       0.00000
   9     398.1        0.0000        0.0000        0.0000        0.0000       0.000000       0.00000
   8     437.6        0.0000        0.0000        0.0000        0.0000       0.000000       0.00000
   7     480.5        0.0000        0.0000        0.0000        0.0000       0.000000       0.00000
   6     533.0        0.0000        0.0000        0.0000        0.0000       0.000000       0.00000
   5     589.8        0.0000        0.0000        0.0000        0.0000       0.000000       0.00000
   4     651.6        0.0000        0.0000        0.0000        0.0000       0.000000       0.00000
   3     718.7        0.0000        0.0000        0.0000        0.0000       0.000000       0.00000
   2     792.3        0.0000        0.0000        0.0000        0.0000       0.000000       0.00000
   1     891.5        0.0000        0.0000        0.0000        0.0000       0.000000       0.00000
   0    1013.0        0.0000        0.0000        0.0000        0.0000       0.000000       0.00000



 Wavenumbers:   820. -  2600. cm-1, ATM      1
 LEVEL PRESSURE   UPWARD FLUX   DIFDOWN FLUX  DIRDOWN FLUX  DOWNWARD FLUX   NET FLUX    HEATING RATE
          mb          W/m2          W/m2          W/m2        W/m2          W/m2       degree/day
  51    .06700        0.9300        0.0000        3.8670        3.8670       2.936998       0.00000
  50    .07753        0.9300        0.0000        3.8643        3.8643       2.934281       2.17771
  49    .09103        0.9300        0.0000        3.8635        3.8635       2.933471       0.50640
  48    0.1069        0.9300        0.0000        3.8626        3.8626       2.932580       0.47417
  47    0.1255        0.9300        0.0000        3.8616        3.8616       2.931619       0.43561
  46    0.1487        0.9300        0.0000        3.8605        3.8605       2.930510       0.40439
  45    0.1794        0.9300        0.0000        3.8592        3.8592       2.929175       0.36650
  44    0.2165        0.9300        0.0000        3.8578        3.8578       2.927797       0.31348
  43    0.2613        0.9300        0.0000        3.8564        3.8564       2.926336       0.27524
  42    0.3336        0.9300        0.0000        3.8541        3.8541       2.924105       0.26015
  41    0.4307        0.9300        0.0000        3.8512        3.8512       2.921222       0.25065
  40    0.5894        0.9300        0.0000        3.8465        3.8465       2.916495       0.25136
  39     1.339        0.9300        0.0000        3.8251        3.8251       2.895118       0.24067
  38     1.782        0.9300        0.0000        3.8133        3.8133       2.883304       0.22492
  37     2.292        0.9300        0.0000        3.8003        3.8003       2.870241       0.21636
  36     2.964        0.9300        0.0000        3.7841        3.7841       2.854110       0.20249
  35     3.853        0.9300        0.0000        3.7642        3.7642       2.834192       0.18902
  34     5.035        0.9300        0.0000        3.7395        3.7395       2.809497       0.17641
  33     6.613        0.9300        0.0000        3.7090        3.7090       2.778956       0.16327
  32     8.786        0.9301        0.0000        3.6726        3.6726       2.742555       0.14137
  31     11.80        0.9301        0.0000        3.6320        3.6320       2.701950       0.11368
  30     15.07        0.9301        0.0000        3.6016        3.6016       2.671554       0.07848
  29     18.79        0.9301        0.0000        3.5777        3.5777       2.647643       0.05421
  28     23.16        0.9301        0.0000        3.5564        3.5564       2.626273       0.04132
  27     28.12        0.9301        0.0000        3.5348        3.5348       2.604707       0.03666
  26     33.73        0.9302        0.0000        3.5118        3.5118       2.581653       0.03466
  25     40.54        0.9302        0.0000        3.4849        3.4849       2.554738       0.03339
  24     48.69        0.9302        0.0000        3.4537        3.4537       2.523453       0.03237
  23     57.69        0.9303        0.0000        3.4210        3.4210       2.490743       0.03066
  22     68.43        0.9303        0.0000        3.3844        3.3844       2.454114       0.02880
  21     81.20        0.9304        0.0000        3.3441        3.3441       2.413763       0.02666
  20     96.49        0.9305        0.0000        3.2998        3.2998       2.369333       0.02452
  19     114.6        0.9305        0.0000        3.2506        3.2507       2.320106       0.02299
  18     136.5        0.9307        0.0000        3.1936        3.1936       2.262944       0.02198
  17     162.9        0.9309        0.0000        3.1181        3.1181       2.187248       0.02420
  16     196.4        0.9313        0.0000        3.0090        3.0090       2.077689       0.02758
  15     218.7        0.9316        0.0000        2.9420        2.9420       2.010410       0.02554
  14     243.0        0.9320        0.0000        2.8605        2.8605       1.928446       0.02843
  13     269.0        0.9328        0.0000        2.7419        2.7420       1.809190       0.03869
  12     297.5        0.9340        0.0000        2.5729        2.5729       1.638874       0.05051
  11     328.5        0.9360        0.0000        2.3602        2.3602       1.424244       0.05836
  10     361.9        0.9389        0.0000        2.1524        2.1524       1.213521       0.05332
   9     398.1        0.9431        0.0000        1.9974        1.9974       1.054333       0.03709
   8     437.6        0.9489        0.0000        1.8835        1.8835       0.934607       0.02560
   7     480.5        0.9572        0.0000        1.7734        1.7735       0.816242       0.02325
   6     533.0        0.9708        0.0000        1.6397        1.6398       0.669006       0.02369
   5     589.8        0.9902        0.0000        1.5068        1.5069       0.516688       0.02261
   4     651.6        1.0188        0.0000        1.3807        1.3807       0.361892       0.02117
   3     718.7        1.0572        0.0000        1.2680        1.2681       0.210849       0.01898
   2     792.3        1.1055        0.0000        1.1659        1.1660       0.060494       0.01724
   1     891.5        0.0048        0.0229        0.0000        0.0229       0.018044       0.00361
   0    1013.0        0.0052        0.0209        0.0000        0.0209       0.015669       0.00016

  Modules and versions used in this calculation:

       rrtmg_sw.1col.f90:  $Revision$                    rrtmg_sw_init.f90:  $Revision$        
     rrtmgsw_cldprop.f90:  $Revision$                  rrtmgsw_cldprmc.f90:  NOT USED          
     rrtmg_sw_reftra.f90:  $Revision$                  rrtmg_sw_spcvrt.f90:  NOT USED          
     rrtmg_sw_spcvmc.f90:  NOT USED                    rrtmgsw_setcoef.f90:  NOT USED          
     rrtmg_sw_taumol.f90:  $Revision$                  rrtmg_sw_vrtqdr.f90:  NOT USED          
                rrtatm.f:  NOT USED                             util_xxx.f:  NOT USED          
                 extra.f:  NOT USED                       rrtmg_sw_k_g.f90:  $Revision$        

