

 Wavenumbers:   820. - 50000. cm-1, ATM      1
 LEVEL PRESSURE   UPWARD FLUX   DIFDOWN FLUX  DIRDOWN FLUX  DOWNWARD FLUX   NET FLUX    HEATING RATE
          mb          W/m2          W/m2          W/m2        W/m2          W/m2       degree/day
  51    .06700      276.6576        0.0000      397.8738      397.8738     121.216225       0.00000
  50    .07753      276.6570        0.0012      397.8577      397.8589     121.201931      11.45703
  49    .09103      276.6563        0.0027      397.8418      397.8445     121.188238       8.55833
  48    0.1069      276.6555        0.0044      397.8230      397.8273     121.171885       8.70498
  47    0.1255      276.6545        0.0063      397.7997      397.8060     121.151435       9.27090
  46    0.1487      276.6535        0.0088      397.7676      397.7764     121.122968      10.37666
  45    0.1794      276.6520        0.0122      397.7205      397.7327     121.080661      11.61426
  44    0.2165      276.6504        0.0161      397.6602      397.6764     121.025993      12.43597
  43    0.2613      276.6485        0.0208      397.5829      397.6037     120.955170      13.34978
  42    0.3336      276.6457        0.0285      397.4449      397.4734     120.827684      14.86367
  41    0.4307      276.6422        0.0386      397.2524      397.2910     120.648744      15.55838
  40    0.5894      276.6372        0.0548      396.9253      396.9801     120.342896      16.26465
  39     1.339      276.6255        0.1274      395.4254      395.5528     118.927227      15.93785
  38     1.782      276.6267        0.1681      394.7288      394.8969     118.270200      12.50873
  37     2.292      276.6351        0.2145      394.0572      394.2716     117.636510      10.49557
  36     2.964      276.6567        0.2747      393.3007      393.5754     116.918611       9.01180
  35     3.853      276.6999        0.3534      392.4318      392.7852     116.085225       7.90899
  34     5.035      276.7718        0.4569      391.4441      391.9010     115.129174       6.82963
  33     6.613      276.8758        0.5941      390.3268      390.9209     114.045076       5.79559
  32     8.786      277.0100        0.7776      389.0624      389.8400     112.830017       4.71885
  31     11.80      277.1772        1.0381      387.5500      388.5881     111.410885       3.97312
  30     15.07      277.3277        1.3156      386.1556      387.4712     110.143454       3.27226
  29     18.79      277.4718        1.6265      384.7502      386.3767     108.904896       2.80819
  28     23.16      277.6104        1.9869      383.2686      385.2555     107.645173       2.43590
  27     28.12      277.7339        2.3957      381.7329      384.1286     106.394686       2.12574
  26     33.73      277.8212        2.8500      380.1982      383.0481     105.226950       1.75572
  25     40.54      277.8675        3.3948      378.5384      381.9332     104.065685       1.44068
  24     48.69      277.8667        4.0460      376.7214      380.7674     102.900686       1.20559
  23     57.69      277.8116        4.7546      374.8959      379.6505     101.838959       0.99521
  22     68.43      277.6877        5.5903      372.8999      378.4902     100.802548       0.81476
  21     81.20      277.4597        6.5755      370.7496      377.3252      99.865502       0.61919
  20     96.49      277.1153        7.7350      368.4056      376.1406      99.025211       0.46378
  19     114.6      276.6833        9.0898      365.7513      374.8411      98.157749       0.40504
  18     136.5      276.1555       10.6640      362.7231      373.3871      97.231615       0.35612
  17     162.9      275.5187       12.4950      359.1748      371.6697      96.150996       0.34541
  16     196.4      274.6639       14.8050      354.5718      369.3768      94.712904       0.36198
  15     218.7      274.0984       16.2834      351.4437      367.7271      93.628736       0.41162
  14     243.0      273.4895       17.8568      347.7111      365.5680      92.078480       0.53768
  13     269.0      272.8401       19.5235      342.9441      362.4676      89.627459       0.79510
  12     297.5      272.1548       21.2814      337.4137      358.6951      86.540270       0.91563
  11     328.5      271.4431       23.1324      331.1302      354.2627      82.819572       1.01165
  10     361.9      270.7157       25.0713      324.1219      349.1932      78.477504       1.09859
   9     398.1      269.9842       27.0975      316.6066      343.7041      73.719920       1.10841
   8     437.6      269.2720       29.2068      308.5895      337.7962      68.524191       1.11088
   7     480.5      268.6221       31.3934      299.9349      331.3282      62.706149       1.14264
   6     533.0      268.0077       33.9862      289.7021      323.6884      55.680656       1.13018
   5     589.8      267.6141       36.6660      279.3388      316.0048      48.390683       1.08207
   4     651.6      267.5902       39.4207      268.7786      308.1993      40.609098       1.06415
   3     718.7      268.0638       42.2418      258.2837      300.5254      32.461649       1.02391
   2     792.3      269.2032       45.1154      248.0774      293.1928      23.989624       0.97165
   1     891.5       36.6353       57.5441        0.0000       57.5441      20.908742       0.26217
   0    1013.0       36.6080       56.8604        0.0000       56.8604      20.252373       0.04558



 Wavenumbers:  2600. -  3250. cm-1, ATM      1
 LEVEL PRESSURE   UPWARD FLUX   DIFDOWN FLUX  DIRDOWN FLUX  DOWNWARD FLUX   NET FLUX    HEATING RATE
          mb          W/m2          W/m2          W/m2        W/m2          W/m2       degree/day
  51    .06700        1.1678        0.0000        3.5066        3.5066       2.338864       0.00000
  50    .07753        1.1678        0.0000        3.5066        3.5066       2.338856       0.00640
  49    .09103        1.1678        0.0000        3.5066        3.5066       2.338846       0.00627
  48    0.1069        1.1678        0.0000        3.5066        3.5066       2.338835       0.00613
  47    0.1255        1.1678        0.0000        3.5066        3.5066       2.338822       0.00599
  46    0.1487        1.1678        0.0000        3.5066        3.5066       2.338805       0.00607
  45    0.1794        1.1678        0.0000        3.5065        3.5065       2.338782       0.00624
  44    0.2165        1.1678        0.0000        3.5065        3.5065       2.338755       0.00611
  43    0.2613        1.1678        0.0000        3.5065        3.5065       2.338724       0.00598
  42    0.3336        1.1678        0.0000        3.5064        3.5064       2.338671       0.00615
  41    0.4307        1.1678        0.0000        3.5064        3.5064       2.338600       0.00618
  40    0.5894        1.1678        0.0000        3.5062        3.5062       2.338481       0.00633
  39     1.339        1.1678        0.0000        3.5055        3.5055       2.337782       0.00787
  38     1.782        1.1678        0.0000        3.5050        3.5050       2.337251       0.01011
  37     2.292        1.1678        0.0000        3.5043        3.5043       2.336559       0.01147
  36     2.964        1.1678        0.0000        3.5033        3.5033       2.335567       0.01245
  35     3.853        1.1678        0.0000        3.5019        3.5019       2.334190       0.01307
  34     5.035        1.1678        0.0000        3.5001        3.5001       2.332329       0.01329
  33     6.613        1.1678        0.0000        3.4977        3.4977       2.329919       0.01288
  32     8.786        1.1678        0.0000        3.4947        3.4947       2.326948       0.01154
  31     11.80        1.1678        0.0000        3.4911        3.4911       2.323312       0.01018
  30     15.07        1.1678        0.0000        3.4878        3.4878       2.320089       0.00832
  29     18.79        1.1678        0.0000        3.4848        3.4848       2.317024       0.00695
  28     23.16        1.1678        0.0000        3.4816        3.4816       2.313802       0.00623
  27     28.12        1.1678        0.0000        3.4779        3.4779       2.310180       0.00616
  26     33.73        1.1678        0.0000        3.4735        3.4735       2.305709       0.00672
  25     40.54        1.1678        0.0000        3.4671        3.4672       2.299374       0.00786
  24     48.69        1.1678        0.0000        3.4582        3.4583       2.290467       0.00922
  23     57.69        1.1678        0.0000        3.4472        3.4472       2.279401       0.01037
  22     68.43        1.1678        0.0000        3.4329        3.4330       2.265116       0.01123
  21     81.20        1.1679        0.0000        3.4152        3.4152       2.247351       0.01174
  20     96.49        1.1679        0.0000        3.3940        3.3941       2.226155       0.01170
  19     114.6        1.1680        0.0000        3.3692        3.3692       2.201192       0.01166
  18     136.5        1.1681        0.0001        3.3419        3.3420       2.173869       0.01051
  17     162.9        1.1683        0.0001        3.3129        3.3129       2.144634       0.00934
  16     196.4        1.1687        0.0001        3.2793        3.2794       2.110770       0.00852
  15     218.7        1.1690        0.0001        3.2578        3.2579       2.088871       0.00831
  14     243.0        1.1695        0.0001        3.2320        3.2321       2.062555       0.00913
  13     269.0        1.1704        0.0001        3.1968        3.1969       2.026586       0.01167
  12     297.5        1.1717        0.0001        3.1489        3.1491       1.977391       0.01459
  11     328.5        1.1737        0.0001        3.0821        3.0822       1.908518       0.01873
  10     361.9        1.1766        0.0001        2.9902        2.9904       1.813752       0.02398
   9     398.1        1.1809        0.0001        2.8715        2.8716       1.690739       0.02866
   8     437.6        1.1871        0.0002        2.7276        2.7278       1.540737       0.03207
   7     480.5        1.1964        0.0002        2.5595        2.5597       1.363312       0.03485
   6     533.0        1.2121        0.0002        2.3617        2.3619       1.149789       0.03435
   5     589.8        1.2354        0.0002        2.1649        2.1651       0.929732       0.03266
   4     651.6        1.2701        0.0002        1.9608        1.9609       0.690812       0.03267
   3     718.7        1.3202        0.0002        1.7593        1.7595       0.439316       0.03161
   2     792.3        1.3908        0.0002        1.5761        1.5762       0.185482       0.02911
   1     891.5        0.0275        0.1299        0.0000        0.1299       0.102408       0.00707
   0    1013.0        0.0298        0.1187        0.0000        0.1187       0.088951       0.00093



 Wavenumbers:  3250. -  4000. cm-1, ATM      1
 LEVEL PRESSURE   UPWARD FLUX   DIFDOWN FLUX  DIRDOWN FLUX  DOWNWARD FLUX   NET FLUX    HEATING RATE
          mb          W/m2          W/m2          W/m2        W/m2          W/m2       degree/day
  51    .06700        0.0107        0.0000        5.9117        5.9117       5.900945       0.00000
  50    .07753        0.0107        0.0000        5.9075        5.9075       5.896755       3.35808
  49    .09103        0.0107        0.0000        5.9050        5.9050       5.894312       1.52677
  48    0.1069        0.0107        0.0000        5.9032        5.9032       5.892446       0.99346
  47    0.1255        0.0107        0.0000        5.9014        5.9014       5.890688       0.79708
  46    0.1487        0.0107        0.0000        5.8995        5.8995       5.888799       0.68848
  45    0.1794        0.0107        0.0000        5.8974        5.8974       5.886651       0.58983
  44    0.2165        0.0107        0.0000        5.8952        5.8952       5.884534       0.48155
  43    0.2613        0.0107        0.0000        5.8931        5.8931       5.882375       0.40696
  42    0.3336        0.0107        0.0000        5.8899        5.8899       5.879217       0.36820
  41    0.4307        0.0107        0.0000        5.8861        5.8861       5.875379       0.33365
  40    0.5894        0.0107        0.0000        5.8803        5.8803       5.869577       0.30857
  39     1.339        0.0107        0.0000        5.8597        5.8597       5.848979       0.23189
  38     1.782        0.0107        0.0000        5.8513        5.8513       5.840555       0.16039
  37     2.292        0.0107        0.0000        5.8431        5.8431       5.832384       0.13533
  36     2.964        0.0107        0.0000        5.8334        5.8334       5.822744       0.12100
  35     3.853        0.0107        0.0000        5.8213        5.8213       5.810569       0.11555
  34     5.035        0.0107        0.0000        5.8052        5.8052       5.794473       0.11498
  33     6.613        0.0107        0.0000        5.7833        5.7834       5.772652       0.11666
  32     8.786        0.0107        0.0000        5.7531        5.7531       5.742451       0.11729
  31     11.80        0.0107        0.0000        5.7090        5.7090       5.698282       0.12366
  30     15.07        0.0107        0.0000        5.6615        5.6615       5.650817       0.12254
  29     18.79        0.0107        0.0000        5.6093        5.6094       5.598681       0.11821
  28     23.16        0.0107        0.0000        5.5524        5.5524       5.541756       0.11008
  27     28.12        0.0107        0.0000        5.4935        5.4935       5.482877       0.10009
  26     33.73        0.0107        0.0000        5.4348        5.4349       5.424188       0.08824
  25     40.54        0.0107        0.0001        5.3707        5.3708       5.360126       0.07948
  24     48.69        0.0106        0.0001        5.2985        5.2985       5.287893       0.07475
  23     57.69        0.0106        0.0001        5.2215        5.2216       5.210954       0.07212
  22     68.43        0.0106        0.0001        5.1318        5.1319       5.121294       0.07048
  21     81.20        0.0106        0.0001        5.0284        5.0285       5.017865       0.06834
  20     96.49        0.0106        0.0001        4.9122        4.9123       4.901730       0.06410
  19     114.6        0.0106        0.0001        4.7780        4.7782       4.767619       0.06262
  18     136.5        0.0105        0.0002        4.6285        4.6287       4.618141       0.05748
  17     162.9        0.0105        0.0002        4.4406        4.4407       4.430228       0.06006
  16     196.4        0.0105        0.0002        4.1548        4.1550       4.144553       0.07191
  15     218.7        0.0105        0.0002        3.9564        3.9566       3.946170       0.07532
  14     243.0        0.0104        0.0002        3.7055        3.7058       3.695330       0.08700
  13     269.0        0.0104        0.0002        3.3399        3.3401       3.329677       0.11862
  12     297.5        0.0104        0.0002        2.8954        2.8956       2.885158       0.13184
  11     328.5        0.0105        0.0002        2.4388        2.4390       2.428558       0.12415
  10     361.9        0.0106        0.0002        2.0269        2.0271       2.016510       0.10425
   9     398.1        0.0108        0.0002        1.6753        1.6755       1.664730       0.08196
   8     437.6        0.0111        0.0002        1.3592        1.3594       1.348278       0.06766
   7     480.5        0.0117        0.0002        1.0616        1.0618       1.050090       0.05856
   6     533.0        0.0129        0.0001        0.7543        0.7544       0.741510       0.04964
   5     589.8        0.0152        0.0001        0.4951        0.4952       0.480021       0.03881
   4     651.6        0.0197        0.0001        0.2943        0.2943       0.274649       0.02809
   3     718.7        0.0285        0.0001        0.1528        0.1529       0.124348       0.01889
   2     792.3        0.0466        0.0000        0.0658        0.0658       0.019265       0.01205
   1     891.5        0.0000        0.0007        0.0000        0.0007       0.000728       0.00158
   0    1013.0        0.0000        0.0002        0.0000        0.0002       0.000132       0.00004



 Wavenumbers:  4000. -  4650. cm-1, ATM      1
 LEVEL PRESSURE   UPWARD FLUX   DIFDOWN FLUX  DIRDOWN FLUX  DOWNWARD FLUX   NET FLUX    HEATING RATE
          mb          W/m2          W/m2          W/m2        W/m2          W/m2       degree/day
  51    .06700        4.1354        0.0000        6.9421        6.9421       2.806702       0.00000
  50    .07753        4.1354        0.0000        6.9421        6.9421       2.806701       0.00079
  49    .09103        4.1354        0.0000        6.9421        6.9421       2.806700       0.00078
  48    0.1069        4.1354        0.0000        6.9421        6.9421       2.806698       0.00076
  47    0.1255        4.1354        0.0000        6.9421        6.9421       2.806697       0.00074
  46    0.1487        4.1354        0.0000        6.9421        6.9421       2.806694       0.00075
  45    0.1794        4.1354        0.0000        6.9421        6.9421       2.806692       0.00077
  44    0.2165        4.1354        0.0000        6.9421        6.9421       2.806688       0.00076
  43    0.2613        4.1354        0.0000        6.9420        6.9420       2.806684       0.00074
  42    0.3336        4.1354        0.0000        6.9420        6.9420       2.806678       0.00076
  41    0.4307        4.1354        0.0000        6.9420        6.9420       2.806669       0.00077
  40    0.5894        4.1354        0.0000        6.9420        6.9420       2.806654       0.00079
  39     1.339        4.1354        0.0000        6.9419        6.9419       2.806565       0.00100
  38     1.782        4.1354        0.0000        6.9418        6.9419       2.806496       0.00132
  37     2.292        4.1354        0.0000        6.9418        6.9418       2.806402       0.00155
  36     2.964        4.1354        0.0000        6.9416        6.9416       2.806263       0.00175
  35     3.853        4.1354        0.0000        6.9414        6.9414       2.806056       0.00196
  34     5.035        4.1354        0.0000        6.9411        6.9411       2.805751       0.00218
  33     6.613        4.1354        0.0000        6.9406        6.9407       2.805303       0.00240
  32     8.786        4.1353        0.0000        6.9399        6.9400       2.804642       0.00257
  31     11.80        4.1353        0.0001        6.9389        6.9389       2.803606       0.00290
  30     15.07        4.1353        0.0001        6.9377        6.9377       2.802393       0.00313
  29     18.79        4.1353        0.0001        6.9362        6.9363       2.800931       0.00332
  28     23.16        4.1353        0.0001        6.9343        6.9344       2.799122       0.00350
  27     28.12        4.1353        0.0001        6.9321        6.9323       2.796940       0.00371
  26     33.73        4.1353        0.0001        6.9294        6.9296       2.794261       0.00403
  25     40.54        4.1353        0.0002        6.9258        6.9260       2.790647       0.00448
  24     48.69        4.1354        0.0002        6.9210        6.9212       2.785858       0.00496
  23     57.69        4.1354        0.0003        6.9154        6.9156       2.780218       0.00529
  22     68.43        4.1354        0.0003        6.9083        6.9086       2.773198       0.00552
  21     81.20        4.1355        0.0004        6.8998        6.9001       2.764601       0.00568
  20     96.49        4.1357        0.0004        6.8894        6.8899       2.754198       0.00574
  19     114.6        4.1359        0.0005        6.8765        6.8770       2.741143       0.00610
  18     136.5        4.1362        0.0006        6.8610        6.8616       2.725352       0.00607
  17     162.9        4.1368        0.0007        6.8417        6.8424       2.705633       0.00630
  16     196.4        4.1377        0.0009        6.8147        6.8155       2.677847       0.00699
  15     218.7        4.1385        0.0010        6.7948        6.7958       2.657292       0.00780
  14     243.0        4.1397        0.0011        6.7698        6.7708       2.631126       0.00908
  13     269.0        4.1416        0.0012        6.7349        6.7360       2.594375       0.01192
  12     297.5        4.1445        0.0013        6.6869        6.6881       2.543599       0.01506
  11     328.5        4.1487        0.0014        6.6194        6.6208       2.472126       0.01943
  10     361.9        4.1541        0.0015        6.5295        6.5310       2.376903       0.02409
   9     398.1        4.1613        0.0017        6.4202        6.4219       2.260598       0.02710
   8     437.6        4.1710        0.0018        6.2962        6.2980       2.127035       0.02856
   7     480.5        4.1844        0.0020        6.1555        6.1575       1.973017       0.03025
   6     533.0        4.2066        0.0021        5.9675        5.9697       1.763054       0.03378
   5     589.8        4.2394        0.0023        5.7368        5.7391       1.499669       0.03910
   4     651.6        4.2885        0.0025        5.4662        5.4687       1.180188       0.04369
   3     718.7        4.3591        0.0026        5.1912        5.1938       0.834763       0.04341
   2     792.3        4.4575        0.0028        4.9395        4.9423       0.484841       0.04013
   1     891.5        0.1109        0.4753        0.0000        0.4753       0.364430       0.01025
   0    1013.0        0.1147        0.4574        0.0000        0.4574       0.342741       0.00151



 Wavenumbers:  4650. -  5150. cm-1, ATM      1
 LEVEL PRESSURE   UPWARD FLUX   DIFDOWN FLUX  DIRDOWN FLUX  DOWNWARD FLUX   NET FLUX    HEATING RATE
          mb          W/m2          W/m2          W/m2        W/m2          W/m2       degree/day
  51    .06700        2.9023        0.0000        6.5710        6.5710       3.668734       0.00000
  50    .07753        2.9023        0.0000        6.5708        6.5708       3.668498       0.18887
  49    .09103        2.9023        0.0000        6.5705        6.5705       3.668204       0.18362
  48    0.1069        2.9023        0.0000        6.5701        6.5701       3.667870       0.17806
  47    0.1255        2.9023        0.0000        6.5697        6.5697       3.667490       0.17238
  46    0.1487        2.9023        0.0000        6.5693        6.5693       3.667016       0.17268
  45    0.1794        2.9023        0.0000        6.5686        6.5686       3.666379       0.17474
  44    0.2165        2.9023        0.0000        6.5679        6.5679       3.665641       0.16788
  43    0.2613        2.9023        0.0000        6.5670        6.5670       3.664788       0.16078
  42    0.3336        2.9023        0.0000        6.5657        6.5657       3.663425       0.15894
  41    0.4307        2.9023        0.0000        6.5640        6.5640       3.661703       0.14971
  40    0.5894        2.9023        0.0000        6.5613        6.5613       3.659087       0.13913
  39     1.339        2.9023        0.0000        6.5516        6.5516       3.649309       0.11008
  38     1.782        2.9023        0.0000        6.5473        6.5473       3.645093       0.08027
  37     2.292        2.9023        0.0000        6.5434        6.5435       3.641205       0.06439
  36     2.964        2.9023        0.0000        6.5395        6.5395       3.637250       0.04965
  35     3.853        2.9022        0.0000        6.5355        6.5356       3.633306       0.03743
  34     5.035        2.9022        0.0000        6.5315        6.5315       3.629302       0.02861
  33     6.613        2.9022        0.0000        6.5271        6.5271       3.624904       0.02351
  32     8.786        2.9022        0.0001        6.5216        6.5216       3.619402       0.02137
  31     11.80        2.9022        0.0001        6.5135        6.5136       3.611311       0.02265
  30     15.07        2.9022        0.0001        6.5041        6.5042       3.601926       0.02423
  29     18.79        2.9023        0.0001        6.4925        6.4926       3.590388       0.02616
  28     23.16        2.9023        0.0002        6.4779        6.4780       3.575763       0.02828
  27     28.12        2.9023        0.0002        6.4599        6.4601       3.557744       0.03063
  26     33.73        2.9024        0.0002        6.4384        6.4386       3.536255       0.03231
  25     40.54        2.9024        0.0003        6.4112        6.4115       3.509048       0.03375
  24     48.69        2.9025        0.0003        6.3775        6.3778       3.475295       0.03493
  23     57.69        2.9027        0.0004        6.3404        6.3407       3.438055       0.03491
  22     68.43        2.9029        0.0004        6.2971        6.2976       3.394662       0.03411
  21     81.20        2.9032        0.0005        6.2483        6.2488       3.345567       0.03244
  20     96.49        2.9036        0.0006        6.1948        6.1954       3.291811       0.02967
  19     114.6        2.9042        0.0007        6.1381        6.1389       3.234647       0.02669
  18     136.5        2.9050        0.0008        6.0790        6.0798       3.174812       0.02301
  17     162.9        2.9062        0.0010        6.0160        6.0170       3.110841       0.02045
  16     196.4        2.9080        0.0012        5.9399        5.9411       3.033036       0.01958
  15     218.7        2.9095        0.0013        5.8896        5.8910       2.981468       0.01958
  14     243.0        2.9114        0.0015        5.8322        5.8336       2.922240       0.02054
  13     269.0        2.9141        0.0016        5.7624        5.7640       2.849873       0.02348
  12     297.5        2.9180        0.0018        5.6767        5.6785       2.760488       0.02651
  11     328.5        2.9233        0.0019        5.5726        5.5745       2.651242       0.02970
  10     361.9        2.9304        0.0021        5.4473        5.4494       2.519018       0.03345
   9     398.1        2.9399        0.0023        5.2995        5.3017       2.361792       0.03663
   8     437.6        2.9528        0.0024        5.1275        5.1299       2.177122       0.03948
   7     480.5        2.9703        0.0026        4.9290        4.9316       1.961270       0.04239
   6     533.0        2.9980        0.0028        4.6794        4.6821       1.684100       0.04459
   5     589.8        3.0370        0.0029        4.4188        4.4217       1.384733       0.04444
   4     651.6        3.0925        0.0031        4.1521        4.1552       1.062738       0.04403
   3     718.7        3.1685        0.0033        3.8929        3.8962       0.727748       0.04210
   2     792.3        3.2709        0.0034        3.6469        3.6503       0.379440       0.03995
   1     891.5        0.0764        0.3355        0.0000        0.3355       0.259053       0.01024
   0    1013.0        0.0799        0.3189        0.0000        0.3189       0.238922       0.00140



 Wavenumbers:  5150. -  6150. cm-1, ATM      1
 LEVEL PRESSURE   UPWARD FLUX   DIFDOWN FLUX  DIRDOWN FLUX  DOWNWARD FLUX   NET FLUX    HEATING RATE
          mb          W/m2          W/m2          W/m2        W/m2          W/m2       degree/day
  51    .06700        7.1524        0.0000       16.4735       16.4735       9.321148       0.00000
  50    .07753        7.1524        0.0000       16.4735       16.4735       9.321113       0.02764
  49    .09103        7.1524        0.0000       16.4734       16.4734       9.321068       0.02814
  48    0.1069        7.1524        0.0000       16.4734       16.4734       9.321014       0.02862
  47    0.1255        7.1524        0.0000       16.4733       16.4733       9.320950       0.02907
  46    0.1487        7.1524        0.0000       16.4732       16.4732       9.320866       0.03063
  45    0.1794        7.1524        0.0000       16.4731       16.4731       9.320747       0.03272
  44    0.2165        7.1524        0.0000       16.4730       16.4730       9.320600       0.03334
  43    0.2613        7.1524        0.0000       16.4728       16.4728       9.320421       0.03379
  42    0.3336        7.1524        0.0000       16.4725       16.4725       9.320115       0.03567
  41    0.4307        7.1524        0.0000       16.4720       16.4720       9.319695       0.03649
  40    0.5894        7.1524        0.0000       16.4713       16.4713       9.318994       0.03732
  39     1.339        7.1523        0.0000       16.4679       16.4679       9.315581       0.03842
  38     1.782        7.1523        0.0001       16.4659       16.4659       9.313579       0.03812
  37     2.292        7.1523        0.0001       16.4635       16.4636       9.311284       0.03802
  36     2.964        7.1523        0.0001       16.4605       16.4606       9.308308       0.03735
  35     3.853        7.1523        0.0001       16.4567       16.4568       9.304446       0.03665
  34     5.035        7.1523        0.0001       16.4516       16.4517       9.299436       0.03579
  33     6.613        7.1523        0.0002       16.4451       16.4453       9.292957       0.03464
  32     8.786        7.1523        0.0003       16.4367       16.4369       9.284616       0.03239
  31     11.80        7.1523        0.0003       16.4254       16.4257       9.273421       0.03134
  30     15.07        7.1523        0.0004       16.4141       16.4146       9.262282       0.02876
  29     18.79        7.1523        0.0006       16.4024       16.4030       9.250697       0.02627
  28     23.16        7.1523        0.0007       16.3900       16.3907       9.238357       0.02386
  27     28.12        7.1523        0.0008       16.3771       16.3779       9.225596       0.02169
  26     33.73        7.1524        0.0010       16.3641       16.3651       9.212750       0.01931
  25     40.54        7.1524        0.0012       16.3502       16.3514       9.198945       0.01713
  24     48.69        7.1525        0.0014       16.3354       16.3368       9.184252       0.01521
  23     57.69        7.1527        0.0017       16.3211       16.3228       9.170087       0.01328
  22     68.43        7.1529        0.0020       16.3062       16.3082       9.155364       0.01157
  21     81.20        7.1531        0.0024       16.2903       16.2927       9.139553       0.01045
  20     96.49        7.1535        0.0028       16.2726       16.2754       9.121964       0.00971
  19     114.6        7.1539        0.0034       16.2521       16.2554       9.101517       0.00955
  18     136.5        7.1544        0.0040       16.2245       16.2285       9.074078       0.01055
  17     162.9        7.1551        0.0047       16.1747       16.1795       9.024325       0.01590
  16     196.4        7.1561        0.0057       16.0518       16.0575       8.901381       0.03095
  15     218.7        7.1569        0.0063       15.8984       15.9047       8.747797       0.05831
  14     243.0        7.1578        0.0069       15.6153       15.6222       8.464377       0.09830
  13     269.0        7.1591        0.0075       15.1390       15.1465       7.987420       0.15472
  12     297.5        7.1609        0.0081       14.5779       14.5860       7.425047       0.16679
  11     328.5        7.1636        0.0086       13.8780       13.8866       6.723000       0.19088
  10     361.9        7.1677        0.0091       13.0814       13.0906       5.922900       0.20243
   9     398.1        7.1735        0.0096       12.2728       12.2824       5.108932       0.18964
   8     437.6        7.1821        0.0100       11.4776       11.4876       4.305462       0.17179
   7     480.5        7.1954        0.0104       10.7300       10.7404       3.544979       0.14936
   6     533.0        7.2192        0.0109       10.0326       10.0436       2.824333       0.11593
   5     589.8        7.2572        0.0116        9.5050        9.5166       2.259381       0.08386
   4     651.6        7.3186        0.0123        9.0814        9.0937       1.775039       0.06624
   3     718.7        7.4133        0.0131        8.7024        8.7156       1.302315       0.05941
   2     792.3        7.5537        0.0140        8.3379        8.3520       0.798343       0.05780
   1     891.5        0.1973        0.8247        0.0000        0.8247       0.627493       0.01454
   0    1013.0        0.2013        0.8030        0.0000        0.8030       0.601678       0.00179



 Wavenumbers:  6150. -  7700. cm-1, ATM      1
 LEVEL PRESSURE   UPWARD FLUX   DIFDOWN FLUX  DIRDOWN FLUX  DOWNWARD FLUX   NET FLUX    HEATING RATE
          mb          W/m2          W/m2          W/m2        W/m2          W/m2       degree/day
  51    .06700       11.1770        0.0000       30.4684       30.4684      19.291345       0.00000
  50    .07753       11.1770        0.0000       30.4683       30.4683      19.291293       0.04144
  49    .09103       11.1770        0.0000       30.4683       30.4683      19.291227       0.04174
  48    0.1069       11.1770        0.0000       30.4682       30.4682      19.291148       0.04202
  47    0.1255       11.1770        0.0000       30.4681       30.4681      19.291054       0.04227
  46    0.1487       11.1770        0.0000       30.4680       30.4680      19.290933       0.04411
  45    0.1794       11.1770        0.0000       30.4678       30.4678      19.290763       0.04669
  44    0.2165       11.1770        0.0000       30.4676       30.4676      19.290556       0.04715
  43    0.2613       11.1770        0.0000       30.4673       30.4673      19.290304       0.04744
  42    0.3336       11.1770        0.0000       30.4669       30.4669      19.289878       0.04974
  41    0.4307       11.1770        0.0000       30.4663       30.4663      19.289297       0.05052
  40    0.5894       11.1770        0.0001       30.4653       30.4653      19.288329       0.05146
  39     1.339       11.1769        0.0002       30.4604       30.4606      19.283645       0.05273
  38     1.782       11.1769        0.0002       30.4576       30.4578      19.280896       0.05235
  37     2.292       11.1768        0.0003       30.4543       30.4546      19.277737       0.05231
  36     2.964       11.1768        0.0004       30.4501       30.4504      19.273630       0.05156
  35     3.853       11.1767        0.0005       30.4445       30.4450      19.268273       0.05084
  34     5.035       11.1766        0.0006       30.4373       30.4379      19.261273       0.05000
  33     6.613       11.1765        0.0008       30.4278       30.4286      19.252125       0.04890
  32     8.786       11.1763        0.0011       30.4154       30.4165      19.240172       0.04642
  31     11.80       11.1760        0.0014       30.3984       30.3998      19.223786       0.04588
  30     15.07       11.1757        0.0018       30.3810       30.3828      19.207072       0.04315
  29     18.79       11.1754        0.0023       30.3623       30.3646      19.189171       0.04059
  28     23.16       11.1750        0.0028       30.3417       30.3445      19.169486       0.03806
  27     28.12       11.1746        0.0034       30.3196       30.3230      19.148384       0.03587
  26     33.73       11.1741        0.0041       30.2965       30.3006      19.126464       0.03296
  25     40.54       11.1735        0.0049       30.2708       30.2757      19.102123       0.03020
  24     48.69       11.1728        0.0059       30.2423       30.2482      19.075342       0.02771
  23     57.69       11.1721        0.0070       30.2139       30.2208      19.048770       0.02491
  22     68.43       11.1711        0.0083       30.1834       30.1916      19.020488       0.02223
  21     81.20       11.1700        0.0098       30.1500       30.1598      18.989749       0.02031
  20     96.49       11.1687        0.0116       30.1126       30.1243      18.955516       0.01889
  19     114.6       11.1672        0.0138       30.0695       30.0833      18.916109       0.01840
  18     136.5       11.1654        0.0164       30.0139       30.0303      18.864919       0.01968
  17     162.9       11.1633        0.0195       29.9225       29.9419      18.778667       0.02757
  16     196.4       11.1606        0.0234       29.7333       29.7567      18.596112       0.04595
  15     218.7       11.1590        0.0259       29.5259       29.5518      18.392801       0.07719
  14     243.0       11.1574        0.0286       29.1375       29.1660      18.008627       0.13324
  13     269.0       11.1563        0.0311       28.3800       28.4112      17.254837       0.24453
  12     297.5       11.1561        0.0336       27.3895       27.4231      16.267009       0.29298
  11     328.5       11.1577        0.0360       26.2257       26.2617      15.104021       0.31621
  10     361.9       11.1620        0.0382       24.8453       24.8835      13.721534       0.34978
   9     398.1       11.1706        0.0402       23.3471       23.3873      12.216618       0.35061
   8     437.6       11.1863        0.0420       21.7966       21.8386      10.652308       0.33446
   7     480.5       11.2143        0.0435       20.1977       20.2412       9.026902       0.31922
   6     533.0       11.2689        0.0451       18.4969       18.5420       7.273164       0.28212
   5     589.8       11.3599        0.0467       16.9754       17.0221       5.662163       0.23913
   4     651.6       11.5109        0.0484       15.6022       15.6505       4.139664       0.20821
   3     718.7       11.7453        0.0503       14.4232       14.4734       2.728172       0.17739
   2     792.3       12.0962        0.0524       13.4386       13.4910       1.394840       0.15292
   1     891.5        0.2914        1.2605        0.0000        1.2605       0.969101       0.03623
   0    1013.0        0.3021        1.2049        0.0000        1.2049       0.902795       0.00460



 Wavenumbers:  7700. -  8050. cm-1, ATM      1
 LEVEL PRESSURE   UPWARD FLUX   DIFDOWN FLUX  DIRDOWN FLUX  DOWNWARD FLUX   NET FLUX    HEATING RATE
          mb          W/m2          W/m2          W/m2        W/m2          W/m2       degree/day
  51    .06700        5.3011        0.0000        7.2006        7.2006       1.899476       0.00000
  50    .07753        5.3011        0.0000        7.2006        7.2006       1.899455       0.01704
  49    .09103        5.3011        0.0000        7.2005        7.2005       1.899428       0.01670
  48    0.1069        5.3011        0.0000        7.2005        7.2005       1.899397       0.01635
  47    0.1255        5.3011        0.0000        7.2005        7.2005       1.899362       0.01600
  46    0.1487        5.3011        0.0000        7.2004        7.2005       1.899317       0.01624
  45    0.1794        5.3011        0.0000        7.2004        7.2004       1.899257       0.01671
  44    0.2165        5.3012        0.0000        7.2003        7.2003       1.899184       0.01639
  43    0.2613        5.3012        0.0000        7.2003        7.2003       1.899099       0.01608
  42    0.3336        5.3012        0.0000        7.2001        7.2001       1.898958       0.01645
  41    0.4307        5.3012        0.0000        7.2000        7.2000       1.898771       0.01627
  40    0.5894        5.3013        0.0000        7.1997        7.1997       1.898465       0.01626
  39     1.339        5.3015        0.0001        7.1984        7.1985       1.897019       0.01628
  38     1.782        5.3016        0.0001        7.1977        7.1978       1.896170       0.01616
  37     2.292        5.3018        0.0001        7.1968        7.1970       1.895188       0.01627
  36     2.964        5.3020        0.0002        7.1957        7.1959       1.893898       0.01619
  35     3.853        5.3022        0.0002        7.1942        7.1944       1.892195       0.01616
  34     5.035        5.3026        0.0003        7.1922        7.1925       1.889933       0.01615
  33     6.613        5.3030        0.0004        7.1896        7.1899       1.886915       0.01614
  32     8.786        5.3037        0.0005        7.1860        7.1865       1.882852       0.01578
  31     11.80        5.3046        0.0006        7.1810        7.1816       1.877050       0.01624
  30     15.07        5.3055        0.0008        7.1755        7.1764       1.870834       0.01605
  29     18.79        5.3066        0.0010        7.1694        7.1704       1.863830       0.01588
  28     23.16        5.3079        0.0012        7.1623        7.1636       1.855674       0.01577
  27     28.12        5.3094        0.0015        7.1542        7.1558       1.846380       0.01580
  26     33.73        5.3110        0.0018        7.1452        7.1470       1.836022       0.01557
  25     40.54        5.3130        0.0022        7.1344        7.1366       1.823568       0.01545
  24     48.69        5.3155        0.0026        7.1215        7.1241       1.808643       0.01544
  23     57.69        5.3182        0.0031        7.1074        7.1105       1.792361       0.01526
  22     68.43        5.3214        0.0036        7.0909        7.0945       1.773120       0.01513
  21     81.20        5.3252        0.0043        7.0713        7.0757       1.750408       0.01501
  20     96.49        5.3299        0.0051        7.0484        7.0535       1.723638       0.01478
  19     114.6        5.3355        0.0061        7.0217        7.0277       1.692252       0.01465
  18     136.5        5.3422        0.0072        6.9906        6.9978       1.655588       0.01410
  17     162.9        5.3503        0.0085        6.9544        6.9629       1.612636       0.01373
  16     196.4        5.3610        0.0102        6.9087        6.9190       1.558016       0.01375
  15     218.7        5.3681        0.0114        6.8794        6.8908       1.522692       0.01341
  14     243.0        5.3760        0.0126        6.8481        6.8607       1.484724       0.01317
  13     269.0        5.3847        0.0139        6.8147        6.8286       1.443933       0.01323
  12     297.5        5.3944        0.0153        6.7791        6.7944       1.400058       0.01301
  11     328.5        5.4051        0.0169        6.7409        6.7578       1.352694       0.01288
  10     361.9        5.4172        0.0185        6.7002        6.7187       1.301482       0.01296
   9     398.1        5.4308        0.0203        6.6563        6.6766       1.245765       0.01298
   8     437.6        5.4462        0.0222        6.6089        6.6311       1.184830       0.01303
   7     480.5        5.4640        0.0242        6.5570        6.5812       1.117237       0.01327
   6     533.0        5.4878        0.0267        6.4915        6.5182       1.030442       0.01396
   5     589.8        5.5160        0.0294        6.4182        6.4476       0.931575       0.01468
   4     651.6        5.5500        0.0322        6.3359        6.3681       0.818077       0.01552
   3     718.7        5.5906        0.0352        6.2441        6.2794       0.688822       0.01624
   2     792.3        5.6382        0.0384        6.1437        6.1822       0.544004       0.01661
   1     891.5        0.1551        0.6391        0.0000        0.6391       0.484021       0.00510
   0    1013.0        0.1576        0.6285        0.0000        0.6285       0.470899       0.00091



 Wavenumbers:  8050. - 12850. cm-1, ATM      1
 LEVEL PRESSURE   UPWARD FLUX   DIFDOWN FLUX  DIRDOWN FLUX  DOWNWARD FLUX   NET FLUX    HEATING RATE
          mb          W/m2          W/m2          W/m2        W/m2          W/m2       degree/day
  51    .06700       68.8721        0.0000      100.8135      100.8135      31.941426       0.00000
  50    .07753       68.8721        0.0000      100.8135      100.8135      31.941426       0.00000
  49    .09103       68.8721        0.0001      100.8134      100.8135      31.941426       0.00000
  48    0.1069       68.8720        0.0001      100.8134      100.8135      31.941426      -0.00000
  47    0.1255       68.8720        0.0002      100.8133      100.8134      31.941426       0.00000
  46    0.1487       68.8720        0.0002      100.8132      100.8134      31.941426      -0.00000
  45    0.1794       68.8719        0.0003      100.8131      100.8134      31.941426       0.00000
  44    0.2165       68.8719        0.0004      100.8129      100.8133      31.941426      -0.00000
  43    0.2613       68.8718        0.0005      100.8127      100.8133      31.941426       0.00000
  42    0.3336       68.8717        0.0007      100.8125      100.8132      31.941426       0.00000
  41    0.4307       68.8716        0.0009      100.8121      100.8130      31.941426       0.00000
  40    0.5894       68.8714        0.0014      100.8115      100.8128      31.941426       0.00000
  39     1.339       68.8704        0.0033      100.8085      100.8118      31.941426      -0.00000
  38     1.782       68.8698        0.0045      100.8068      100.8112      31.941426      -0.00000
  37     2.292       68.8691        0.0058      100.8047      100.8105      31.941426       0.00000
  36     2.964       68.8682        0.0075      100.8021      100.8096      31.941426      -0.00000
  35     3.853       68.8670        0.0098      100.7986      100.8084      31.941426      -0.00000
  34     5.035       68.8654        0.0129      100.7940      100.8069      31.941426      -0.00000
  33     6.613       68.8633        0.0170      100.7878      100.8048      31.941426       0.00000
  32     8.786       68.8605        0.0225      100.7794      100.8019      31.941426       0.00000
  31     11.80       68.8564        0.0304      100.7674      100.7978      31.941426      -0.00000
  30     15.07       68.8520        0.0389      100.7546      100.7934      31.941426       0.00000
  29     18.79       68.8471        0.0485      100.7400      100.7885      31.941426      -0.00000
  28     23.16       68.8413        0.0597      100.7230      100.7827      31.941426       0.00000
  27     28.12       68.8346        0.0726      100.7035      100.7761      31.941426       0.00000
  26     33.73       68.8272        0.0870      100.6817      100.7686      31.941426      -0.00000
  25     40.54       68.8182        0.1044      100.6552      100.7596      31.941426       0.00000
  24     48.69       68.8074        0.1254      100.6234      100.7488      31.941426      -0.00000
  23     57.69       68.7954        0.1486      100.5883      100.7368      31.941426       0.00000
  22     68.43       68.7812        0.1761      100.5464      100.7226      31.941426       0.00000
  21     81.20       68.7642        0.2091      100.4965      100.7056      31.941426      -0.00000
  20     96.49       68.7439        0.2483      100.4370      100.6853      31.941426       0.00000
  19     114.6       68.7199        0.2951      100.3585      100.6535      31.933606       0.00365
  18     136.5       68.6915        0.3505      100.2634      100.6139      31.922363       0.00432
  17     162.9       68.6578        0.4167      100.1407      100.5574      31.899603       0.00727
  16     196.4       68.6141        0.5027       99.9505      100.4532      31.839036       0.01525
  15     218.7       68.5856        0.5592       99.7889      100.3481      31.762529       0.02905
  14     243.0       68.5551        0.6205       99.5472      100.1677      31.612601       0.05200
  13     269.0       68.5241        0.6867       99.1452       99.8319      31.307822       0.09887
  12     297.5       68.4943        0.7578       98.5975       99.3553      30.860961       0.13253
  11     328.5       68.4686        0.8340       97.8659       98.6999      30.231326       0.17120
  10     361.9       68.4513        0.9152       96.8848       97.8000      29.348700       0.22331
   9     398.1       68.4482        1.0011       95.6330       96.6341      28.185805       0.27093
   8     437.6       68.4703        1.0913       94.0655       95.1568      26.686474       0.32057
   7     480.5       68.5386        1.1849       92.0807       93.2656      24.727071       0.38482
   6     533.0       68.6994        1.2960       89.4449       90.7408      22.041429       0.43203
   5     589.8       68.9906        1.4113       86.5544       87.9657      18.975078       0.45515
   4     651.6       69.4874        1.5302       83.4174       84.9476      15.460214       0.48067
   3     718.7       70.2546        1.6536       80.2037       81.8573      11.602699       0.48478
   2     792.3       71.3728        1.7822       77.0811       78.8633       7.490504       0.47162
   1     891.5        1.8816        7.8890        0.0000        7.8890       6.007398       0.12621
   0    1013.0        1.9212        7.6632        0.0000        7.6632       5.742048       0.01842



 Wavenumbers: 12850. - 16000. cm-1, ATM      1
 LEVEL PRESSURE   UPWARD FLUX   DIFDOWN FLUX  DIRDOWN FLUX  DOWNWARD FLUX   NET FLUX    HEATING RATE
          mb          W/m2          W/m2          W/m2        W/m2          W/m2       degree/day
  51    .06700       49.6942        0.0000       63.1686       63.1686      13.474345       0.00000
  50    .07753       49.6942        0.0001       63.1677       63.1678      13.473561       0.62777
  49    .09103       49.6942        0.0001       63.1666       63.1668      13.472585       0.61058
  48    0.1069       49.6942        0.0002       63.1654       63.1656      13.471471       0.59265
  47    0.1255       49.6942        0.0003       63.1640       63.1644      13.470204       0.57472
  46    0.1487       49.6941        0.0005       63.1623       63.1628      13.468620       0.57709
  45    0.1794       49.6941        0.0006       63.1600       63.1606      13.466494       0.58367
  44    0.2165       49.6941        0.0008       63.1573       63.1581      13.464031       0.56029
  43    0.2613       49.6941        0.0011       63.1542       63.1553      13.461184       0.53665
  42    0.3336       49.6942        0.0015       63.1493       63.1508      13.456636       0.53029
  41    0.4307       49.6943        0.0020       63.1431       63.1452      13.450928       0.49628
  40    0.5894       49.6945        0.0029       63.1338       63.1368      13.442237       0.46216
  39     1.339       49.6976        0.0071       63.0956       63.1027      13.405049       0.41867
  38     1.782       49.7009        0.0096       63.0740       63.0836      13.382746       0.42461
  37     2.292       49.7059        0.0124       63.0477       63.0601      13.354222       0.47243
  36     2.964       49.7144        0.0162       63.0095       63.0257      13.311273       0.53915
  35     3.853       49.7285        0.0211       62.9533       62.9743      13.245868       0.62070
  34     5.035       49.7499        0.0276       62.8725       62.9001      13.150243       0.68311
  33     6.613       49.7799        0.0364       62.7621       62.7984      13.018528       0.70415
  32     8.786       49.8189        0.0481       62.6182       62.6663      12.847485       0.66427
  31     11.80       49.8692        0.0649       62.4284       62.4932      12.624012       0.62565
  30     15.07       49.9170        0.0828       62.2426       62.3254      12.408453       0.55653
  29     18.79       49.9653        0.1031       62.0493       62.1524      12.187085       0.50191
  28     23.16       50.0152        0.1267       61.8424       61.9691      11.953937       0.45083
  27     28.12       50.0646        0.1536       61.6278       61.7814      11.716791       0.40313
  26     33.73       50.1091        0.1837       61.4177       61.6014      11.492298       0.33753
  25     40.54       50.1502        0.2200       61.1983       61.4183      11.268150       0.27808
  24     48.69       50.1875        0.2637       60.9680       61.2317      11.044268       0.23168
  23     57.69       50.2166        0.3117       60.7478       61.0595      10.842953       0.18870
  22     68.43       50.2384        0.3688       60.5202       60.8890      10.650602       0.15121
  21     81.20       50.2469        0.4369       60.2938       60.7307      10.483821       0.11021
  20     96.49       50.2407        0.5179       60.0643       60.5822      10.341497       0.07855
  19     114.6       50.2328        0.6148       59.8078       60.4226      10.189829       0.07082
  18     136.5       50.2163        0.7295       59.5157       60.2452      10.028864       0.06189
  17     162.9       50.1904        0.8657       59.1770       60.0428       9.852398       0.05641
  16     196.4       50.1431        1.0421       58.7604       59.8025       9.659422       0.04857
  15     218.7       50.1072        1.1577       58.4948       59.6525       9.545219       0.04336
  14     243.0       50.0663        1.2831       58.2089       59.4920       9.425673       0.04146
  13     269.0       50.0204        1.4187       57.9006       59.3193       9.298943       0.04111
  12     297.5       49.9699        1.5651       57.5668       59.1319       9.161983       0.04062
  11     328.5       49.9166        1.7229       57.2005       58.9234       9.006756       0.04221
  10     361.9       49.8619        1.8924       56.7963       58.6887       8.826759       0.04554
   9     398.1       49.8075        2.0742       56.3475       58.4217       8.614190       0.04952
   8     437.6       49.7569        2.2687       55.8422       58.1109       8.354036       0.05562
   7     480.5       49.7164        2.4760       55.2625       57.7385       8.022178       0.06518
   6     533.0       49.6896        2.7292       54.4972       57.2264       7.536722       0.07809
   5     589.8       49.6903        2.9988       53.6307       56.6295       6.939198       0.08869
   4     651.6       49.7326        3.2842       52.6606       55.9448       6.212162       0.09942
   3     718.7       49.8259        3.5857       51.6100       55.1957       5.369813       0.10586
   2     792.3       49.9826        3.9032       50.5019       54.4050       4.422397       0.10866
   1     891.5        4.8433        8.8516        0.0000        8.8516       4.008305       0.03524
   0    1013.0        4.8771        8.7451        0.0000        8.7451       3.867947       0.00975



 Wavenumbers: 16000. - 22650. cm-1, ATM      1
 LEVEL PRESSURE   UPWARD FLUX   DIFDOWN FLUX  DIRDOWN FLUX  DOWNWARD FLUX   NET FLUX    HEATING RATE
          mb          W/m2          W/m2          W/m2        W/m2          W/m2       degree/day
  51    .06700       84.4174        0.0000      100.7153      100.7153      16.297855       0.00000
  50    .07753       84.4173        0.0003      100.7147      100.7151      16.297733       0.09728
  49    .09103       84.4172        0.0008      100.7140      100.7148      16.297557       0.11033
  48    0.1069       84.4171        0.0012      100.7131      100.7144      16.297321       0.12582
  47    0.1255       84.4169        0.0018      100.7121      100.7139      16.297004       0.14341
  46    0.1487       84.4167        0.0025      100.7108      100.7133      16.296538       0.16994
  45    0.1794       84.4165        0.0035      100.7089      100.7123      16.295809       0.20009
  44    0.2165       84.4163        0.0046      100.7066      100.7111      16.294821       0.22488
  43    0.2613       84.4161        0.0059      100.7037      100.7096      16.293479       0.25281
  42    0.3336       84.4159        0.0082      100.6987      100.7069      16.290929       0.29730
  41    0.4307       84.4158        0.0111      100.6918      100.7029      16.287086       0.33419
  40    0.5894       84.4159        0.0160      100.6797      100.6957      16.279756       0.38980
  39     1.339       84.4227        0.0388      100.6095      100.6483      16.225610       0.60958
  38     1.782       84.4311        0.0522      100.5585      100.6106      16.179498       0.87791
  37     2.292       84.4452        0.0677      100.4903      100.5580      16.112769       1.10521
  36     2.964       84.4701        0.0881      100.3868      100.4748      16.004714       1.35642
  35     3.853       84.5121        0.1149      100.2306      100.3455      15.833370       1.62608
  34     5.035       84.5770        0.1505      100.0045      100.1550      15.577993       1.82431
  33     6.613       84.6683        0.1980       99.6939       99.8919      15.223593       1.89462
  32     8.786       84.7866        0.2618       99.2881       99.5499      14.763306       1.78759
  31     11.80       84.9382        0.3529       98.7496       99.1025      14.164231       1.67722
  30     15.07       85.0806        0.4503       98.2198       98.6701      13.589535       1.48375
  29     18.79       85.2229        0.5600       97.6651       98.2251      13.002165       1.33175
  28     23.16       85.3680        0.6876       97.0671       97.7548      12.386798       1.18992
  27     28.12       85.5090        0.8331       96.4406       97.2736      11.764632       1.05764
  26     33.73       85.6312        0.9953       95.8179       96.8132      11.182033       0.87595
  25     40.54       85.7375        1.1907       95.1548       96.3455      10.607996       0.71216
  24     48.69       85.8258        1.4254       94.4420       95.8673      10.041518       0.58622
  23     57.69       85.8843        1.6822       93.7416       95.4238       9.539475       0.47059
  22     68.43       85.9125        1.9868       92.9954       94.9822       9.069679       0.36932
  21     81.20       85.8893        2.3484       92.2231       94.5716       8.682275       0.25599
  20     96.49       85.8093        2.7775       91.4110       94.1885       8.379202       0.16727
  19     114.6       85.6882        3.2835       90.5070       93.7905       8.102358       0.12927
  18     136.5       85.5278        3.8785       89.4803       93.3588       7.830947       0.10436
  17     162.9       85.3224        4.5803       88.3022       92.8825       7.560106       0.08657
  16     196.4       85.0233        5.4802       86.8606       92.3408       7.317546       0.06106
  15     218.7       84.8158        6.0651       85.9492       92.0143       7.198500       0.04520
  14     243.0       84.5860        6.6953       84.9789       91.6742       7.088242       0.03824
  13     269.0       84.3328        7.3719       83.9493       91.3211       6.988312       0.03242
  12     297.5       84.0558        8.0957       82.8589       90.9547       6.898824       0.02654
  11     328.5       83.7568        8.8694       81.6982       90.5677       6.810854       0.02392
  10     361.9       83.4359        9.6928       80.4669       90.1598       6.723823       0.02202
   9     398.1       83.0927       10.5680       79.1611       89.7291       6.636428       0.02036
   8     437.6       82.7278       11.4952       77.7777       89.2730       6.545150       0.01952
   7     480.5       82.3421       12.4751       76.3136       88.7887       6.446571       0.01936
   6     533.0       81.8761       13.6614       74.5359       88.1973       6.321173       0.02017
   5     589.8       81.3863       14.9162       72.6469       87.5631       6.176876       0.02142
   4     651.6       80.8757       16.2375       70.6456       86.8831       6.007394       0.02318
   3     718.7       80.3454       17.6235       68.5367       86.1601       5.814756       0.02421
   2     792.3       79.7984       19.0688       66.3287       85.3975       5.599068       0.02474
   1     891.5       19.7260       25.2034        0.0000       25.2034       5.477417       0.01035
   0    1013.0       19.6940       25.0975        0.0000       25.0975       5.403493       0.00513



 Wavenumbers: 22650. - 29000. cm-1, ATM      1
 LEVEL PRESSURE   UPWARD FLUX   DIFDOWN FLUX  DIRDOWN FLUX  DOWNWARD FLUX   NET FLUX    HEATING RATE
          mb          W/m2          W/m2          W/m2        W/m2          W/m2       degree/day
  51    .06700       35.8071        0.0000       38.0063       38.0063       2.199185       0.00000
  50    .07753       35.8069        0.0004       38.0057       38.0061       2.199185       0.00000
  49    .09103       35.8067        0.0009       38.0050       38.0059       2.199185       0.00000
  48    0.1069       35.8065        0.0014       38.0042       38.0057       2.199185       0.00000
  47    0.1255       35.8062        0.0021       38.0033       38.0054       2.199185      -0.00000
  46    0.1487       35.8059        0.0029       38.0022       38.0051       2.199185       0.00000
  45    0.1794       35.8054        0.0040       38.0006       38.0046       2.199185       0.00000
  44    0.2165       35.8049        0.0053       37.9987       38.0041       2.199185       0.00000
  43    0.2613       35.8042        0.0069       37.9965       38.0034       2.199185      -0.00000
  42    0.3336       35.8032        0.0095       37.9928       38.0023       2.199185       0.00000
  41    0.4307       35.8017        0.0129       37.9880       38.0009       2.199185       0.00000
  40    0.5894       35.7994        0.0185       37.9800       37.9986       2.199185       0.00000
  39     1.339       35.7884        0.0451       37.9425       37.9876       2.199185      -0.00000
  38     1.782       35.7819        0.0607       37.9204       37.9811       2.199185       0.00000
  37     2.292       35.7744        0.0787       37.8949       37.9736       2.199185       0.00000
  36     2.964       35.7646        0.1024       37.8614       37.9638       2.199185      -0.00000
  35     3.853       35.7516        0.1336       37.8172       37.9508       2.199185       0.00000
  34     5.035       35.7344        0.1750       37.7586       37.9336       2.199185       0.00000
  33     6.613       35.7114        0.2303       37.6803       37.9106       2.199185      -0.00000
  32     8.786       35.6806        0.3047       37.5750       37.8797       2.199185       0.00000
  31     11.80       35.6365        0.4108       37.4249       37.8356       2.199185       0.00000
  30     15.07       35.5893        0.5243       37.2642       37.7885       2.199185       0.00000
  29     18.79       35.5362        0.6520       37.0833       37.7353       2.199185      -0.00000
  28     23.16       35.4744        0.8006       36.8730       37.6736       2.199185       0.00000
  27     28.12       35.4041        0.9695       36.6338       37.6033       2.199185       0.00000
  26     33.73       35.3259        1.1574       36.3677       37.5251       2.199185      -0.00000
  25     40.54       35.2320        1.3826       36.0486       37.4312       2.199185       0.00000
  24     48.69       35.1198        1.6518       35.6672       37.3190       2.199185       0.00000
  23     57.69       34.9978        1.9443       35.2527       37.1970       2.199185      -0.00000
  22     68.43       34.8541        2.2884       34.7649       37.0533       2.199185       0.00000
  21     81.20       34.6853        2.6922       34.1922       36.8845       2.199185       0.00000
  20     96.49       34.4874        3.1649       33.5217       36.6866       2.199185       0.00000
  19     114.6       34.2572        3.7140       32.7424       36.4564       2.199185      -0.00000
  18     136.5       33.9907        4.3483       31.8416       36.1899       2.199185       0.00000
  17     162.9       33.6823        5.0806       30.8008       35.8814       2.199185      -0.00000
  16     196.4       33.2961        5.9946       29.5007       35.4953       2.199185       0.00000
  15     218.7       33.0508        6.5733       28.6767       35.2500       2.199185       0.00000
  14     243.0       32.7914        7.1838       27.8068       34.9906       2.199185      -0.00000
  13     269.0       32.5185        7.8243       26.8933       34.7176       2.199185       0.00000
  12     297.5       32.2327        8.4926       25.9393       34.4319       2.199185       0.00000
  11     328.5       31.9341        9.1882       24.9451       34.1333       2.199185      -0.00000
  10     361.9       31.6242        9.9073       23.9160       33.8234       2.199185      -0.00000
   9     398.1       31.3033       10.6483       22.8541       33.5025       2.199185       0.00000
   8     437.6       30.9728       11.4075       21.7645       33.1720       2.199185      -0.00000
   7     480.5       30.6340       12.1810       20.6521       32.8331       2.199185       0.00000
   6     533.0       30.2374       13.0797       19.3569       32.4366       2.199185       0.00000
   5     589.8       29.8338       13.9862       18.0467       32.0329       2.199185       0.00000
   4     651.6       29.4256       14.8932       16.7316       31.6248       2.199185      -0.00000
   3     718.7       29.0156       15.7934       15.4214       31.2148       2.199185      -0.00000
   2     792.3       28.6067       16.6783       14.1276       30.8059       2.199185       0.00000
   1     891.5        8.0888       10.2873        0.0000       10.2873       2.198476       0.00006
   0    1013.0        8.0127       10.2112        0.0000       10.2112       2.198476      -0.00000



 Wavenumbers: 29000. - 38000. cm-1, ATM      1
 LEVEL PRESSURE   UPWARD FLUX   DIFDOWN FLUX  DIRDOWN FLUX  DOWNWARD FLUX   NET FLUX    HEATING RATE
          mb          W/m2          W/m2          W/m2        W/m2          W/m2       degree/day
  51    .06700        5.1436        0.0000       13.4026       13.4026       8.258988       0.00000
  50    .07753        5.1434        0.0003       13.3983       13.3986       8.255190       3.04464
  49    .09103        5.1431        0.0007       13.3921       13.3928       8.249670       3.44996
  48    0.1069        5.1428        0.0011       13.3840       13.3851       8.242292       3.92710
  47    0.1255        5.1425        0.0016       13.3733       13.3749       8.232447       4.46356
  46    0.1487        5.1421        0.0022       13.3579       13.3601       8.218003       5.26485
  45    0.1794        5.1415        0.0030       13.3340       13.3371       8.195601       6.14982
  44    0.2165        5.1408        0.0040       13.3024       13.3064       8.165580       6.82941
  43    0.2613        5.1401        0.0052       13.2604       13.2656       8.125521       7.55084
  42    0.3336        5.1389        0.0071       13.1833       13.1904       8.051507       8.62930
  41    0.4307        5.1373        0.0095       13.0729       13.0825       7.945124       9.24981
  40    0.5894        5.1350        0.0135       12.8796       12.8931       7.758058       9.94791
  39     1.339        5.1268        0.0298       11.9165       11.9464       6.819550      10.56590
  38     1.782        5.1237        0.0382       11.4399       11.4781       6.354425       8.85522
  37     2.292        5.1215        0.0472       10.9796       11.0268       5.905289       7.43887
  36     2.964        5.1205        0.0582       10.4786       10.5368       5.416331       6.13789
  35     3.853        5.1217        0.0718        9.9429       10.0147       4.892959       4.96689
  34     5.035        5.1260        0.0888        9.4007        9.4895       4.363464       3.78250
  33     6.613        5.1336        0.1103        8.8752        8.9856       3.852013       2.73422
  32     8.786        5.1439        0.1382        8.3786        8.5168       3.372898       1.86071
  31     11.80        5.1566        0.1764        7.8897        8.0660       2.909424       1.29758
  30     15.07        5.1679        0.2158        7.5108        7.7266       2.558731       0.90542
  29     18.79        5.1787        0.2588        7.1776        7.4364       2.257795       0.68232
  28     23.16        5.1889        0.3073        6.8664        7.1737       1.984830       0.52782
  27     28.12        5.1978        0.3609        6.5780        6.9389       1.741120       0.41429
  26     33.73        5.2028        0.4193        6.3195        6.7388       1.535999       0.30840
  25     40.54        5.2029        0.4883        6.0663        6.5545       1.351653       0.22870
  24     48.69        5.1976        0.5691        5.8128        6.3819       1.184382       0.17310
  23     57.69        5.1865        0.6554        5.5777        6.2331       1.046621       0.12913
  22     68.43        5.1677        0.7554        5.3379        6.0933       0.925590       0.09515
  21     81.20        5.1367        0.8714        5.0965        5.9679       0.831224       0.06236
  20     96.49        5.0924        1.0056        4.8476        5.8532       0.760836       0.03885
  19     114.6        5.0381        1.1577        4.5799        5.7376       0.699459       0.02866
  18     136.5        4.9752        1.3279        4.2891        5.6170       0.641818       0.02216
  17     162.9        4.9034        1.5169        3.9732        5.4901       0.586740       0.01760
  16     196.4        4.8122        1.7437        3.6080        5.3517       0.539530       0.01188
  15     218.7        4.7548        1.8820        3.3898        5.2718       0.516997       0.00855
  14     243.0        4.6952        2.0232        3.1686        5.1917       0.496515       0.00710
  13     269.0        4.6338        2.1661        2.9461        5.1122       0.478411       0.00587
  12     297.5        4.5710        2.3098        2.7239        5.0337       0.462710       0.00466
  11     328.5        4.5076        2.4527        2.5029        4.9555       0.447923       0.00402
  10     361.9        4.4442        2.5937        2.2846        4.8783       0.434077       0.00350
   9     398.1        4.3811        2.7315        2.0708        4.8023       0.421165       0.00301
   8     437.6        4.3189        2.8652        1.8626        4.7278       0.408913       0.00262
   7     480.5        4.2580        2.9933        1.6621        4.6555       0.397456       0.00225
   6     533.0        4.1904        3.1319        1.4437        4.5756       0.385160       0.00198
   5     589.8        4.1258        3.2602        1.2390        4.4992       0.373439       0.00174
   4     651.6        4.0647        3.3768        1.0500        4.4269       0.362136       0.00155
   3     718.7        4.0075        3.4809        0.8778        4.3587       0.351212       0.00137
   2     792.3        3.9546        3.5715        0.7237        4.2952       0.340644       0.00121
   1     891.5        1.2169        1.5494        0.0000        1.5494       0.332524       0.00069
   0    1013.0        1.1954        1.5234        0.0000        1.5234       0.327996       0.00031



 Wavenumbers: 38000. - 50000. cm-1, ATM      1
 LEVEL PRESSURE   UPWARD FLUX   DIFDOWN FLUX  DIRDOWN FLUX  DOWNWARD FLUX   NET FLUX    HEATING RATE
          mb          W/m2          W/m2          W/m2        W/m2          W/m2       degree/day
  51    .06700        0.0051        0.0000        0.8267        0.8267       0.821528       0.00000
  50    .07753        0.0051        0.0001        0.8242        0.8243       0.819196       1.86936
  49    .09103        0.0050        0.0002        0.8207        0.8209       0.815872       2.07705
  48    0.1069        0.0049        0.0002        0.8162        0.8164       0.811514       2.31984
  47    0.1255        0.0048        0.0004        0.8103        0.8106       0.805801       2.59006
  46    0.1487        0.0047        0.0005        0.8018        0.8023       0.797567       3.00143
  45    0.1794        0.0045        0.0007        0.7889        0.7896       0.785013       3.44648
  44    0.2165        0.0044        0.0009        0.7720        0.7729       0.768507       3.75474
  43    0.2613        0.0042        0.0011        0.7500        0.7511       0.746955       4.06246
  42    0.3336        0.0039        0.0015        0.7106        0.7121       0.708267       4.51071
  41    0.4307        0.0035        0.0019        0.6566        0.6584       0.654972       4.63387
  40    0.5894        0.0029        0.0024        0.5680        0.5704       0.567464       4.65357
  39     1.339        0.0015        0.0030        0.2422        0.2452       0.243720       3.64476
  38     1.782        0.0010        0.0026        0.1493        0.1519       0.150889       1.76735
  37     2.292        0.0007        0.0022        0.0924        0.0946       0.093932       0.94336
  36     2.964        0.0005        0.0018        0.0539        0.0557       0.055224       0.48589
  35     3.853        0.0003        0.0013        0.0295        0.0308       0.030502       0.23462
  34     5.035        0.0002        0.0010        0.0154        0.0164       0.016181       0.10230
  33     6.613        0.0001        0.0007        0.0073        0.0080       0.007912       0.04420
  32     8.786        0.0000        0.0004        0.0030        0.0034       0.003390       0.01756
  31     11.80        0.0000        0.0003        0.0010        0.0012       0.001199       0.00613
  30     15.07        0.0000        0.0001        0.0003        0.0005       0.000463       0.00190
  29     18.79        0.0000        0.0001        0.0001        0.0002       0.000182       0.00064
  28     23.16        0.0000        0.0000        0.0000        0.0001       0.000071       0.00022
  27     28.12        0.0000        0.0000        0.0000        0.0000       0.000028       0.00007
  26     33.73        0.0000        0.0000        0.0000        0.0000       0.000011       0.00002
  25     40.54        0.0000        0.0000        0.0000        0.0000       0.000005       0.00001
  24     48.69        0.0000        0.0000        0.0000        0.0000       0.000002       0.00000
  23     57.69        0.0000        0.0000        0.0000        0.0000       0.000001       0.00000
  22     68.43        0.0000        0.0000        0.0000        0.0000       0.000000       0.00000
  21     81.20        0.0000        0.0000        0.0000        0.0000       0.000000       0.00000
  20     96.49        0.0000        0.0000        0.0000        0.0000       0.000000       0.00000
  19     114.6        0.0000        0.0000        0.0000        0.0000       0.000000       0.00000
  18     136.5        0.0000        0.0000        0.0000        0.0000       0.000000       0.00000
  17     162.9        0.0000        0.0000        0.0000        0.0000       0.000000       0.00000
  16     196.4        0.0000        0.0000        0.0000        0.0000       0.000000       0.00000
  15     218.7        0.0000        0.0000        0.0000        0.0000       0.000000       0.00000
  14     243.0        0.0000        0.0000        0.0000        0.0000       0.000000       0.00000
  13     269.0        0.0000        0.0000        0.0000        0.0000       0.000000       0.00000
  12     297.5        0.0000        0.0000        0.0000        0.0000       0.000000       0.00000
  11     328.5        0.0000        0.0000        0.0000        0.0000       0.000000       0.00000
  10     361.9        0.0000        0.0000        0.0000        0.0000       0.000000       0.00000
   9     398.1        0.0000        0.0000        0.0000        0.0000       0.000000       0.00000
   8     437.6        0.0000        0.0000        0.0000        0.0000       0.000000       0.00000
   7     480.5        0.0000        0.0000        0.0000        0.0000       0.000000       0.00000
   6     533.0        0.0000        0.0000        0.0000        0.0000       0.000000       0.00000
   5     589.8        0.0000        0.0000        0.0000        0.0000       0.000000       0.00000
   4     651.6        0.0000        0.0000        0.0000        0.0000       0.000000       0.00000
   3     718.7        0.0000        0.0000        0.0000        0.0000       0.000000       0.00000
   2     792.3        0.0000        0.0000        0.0000        0.0000       0.000000       0.00000
   1     891.5        0.0000        0.0000        0.0000        0.0000       0.000000       0.00000
   0    1013.0        0.0000        0.0000        0.0000        0.0000       0.000000       0.00000



 Wavenumbers:   820. -  2600. cm-1, ATM      1
 LEVEL PRESSURE   UPWARD FLUX   DIFDOWN FLUX  DIRDOWN FLUX  DOWNWARD FLUX   NET FLUX    HEATING RATE
          mb          W/m2          W/m2          W/m2        W/m2          W/m2       degree/day
  51    .06700        0.8713        0.0000        3.8670        3.8670       2.995685       0.00000
  50    .07753        0.8713        0.0000        3.8643        3.8643       2.992968       2.17771
  49    .09103        0.8713        0.0000        3.8635        3.8635       2.992157       0.50640
  48    0.1069        0.8713        0.0000        3.8626        3.8626       2.991267       0.47417
  47    0.1255        0.8713        0.0000        3.8616        3.8616       2.990306       0.43561
  46    0.1487        0.8713        0.0000        3.8605        3.8605       2.989196       0.40439
  45    0.1794        0.8713        0.0000        3.8592        3.8592       2.987861       0.36650
  44    0.2165        0.8713        0.0000        3.8578        3.8578       2.986483       0.31348
  43    0.2613        0.8713        0.0000        3.8564        3.8564       2.985023       0.27524
  42    0.3336        0.8713        0.0000        3.8541        3.8541       2.982792       0.26015
  41    0.4307        0.8713        0.0000        3.8512        3.8512       2.979909       0.25065
  40    0.5894        0.8713        0.0000        3.8465        3.8465       2.975182       0.25136
  39     1.339        0.8713        0.0000        3.8251        3.8251       2.953805       0.24067
  38     1.782        0.8713        0.0000        3.8133        3.8133       2.941991       0.22492
  37     2.292        0.8713        0.0000        3.8003        3.8003       2.928928       0.21635
  36     2.964        0.8713        0.0000        3.7841        3.7841       2.912797       0.20249
  35     3.853        0.8713        0.0000        3.7642        3.7642       2.892880       0.18902
  34     5.035        0.8714        0.0000        3.7395        3.7395       2.868185       0.17641
  33     6.613        0.8714        0.0000        3.7090        3.7090       2.837645       0.16327
  32     8.786        0.8714        0.0000        3.6726        3.6726       2.801245       0.14136
  31     11.80        0.8714        0.0000        3.6320        3.6320       2.760640       0.11368
  30     15.07        0.8714        0.0000        3.6016        3.6016       2.730246       0.07847
  29     18.79        0.8714        0.0000        3.5777        3.5777       2.706335       0.05421
  28     23.16        0.8714        0.0000        3.5564        3.5564       2.684967       0.04132
  27     28.12        0.8714        0.0000        3.5348        3.5348       2.663403       0.03666
  26     33.73        0.8715        0.0000        3.5118        3.5118       2.640350       0.03466
  25     40.54        0.8715        0.0000        3.4849        3.4849       2.613438       0.03339
  24     48.69        0.8715        0.0000        3.4537        3.4537       2.582156       0.03237
  23     57.69        0.8716        0.0000        3.4210        3.4210       2.549449       0.03066
  22     68.43        0.8716        0.0000        3.3844        3.3844       2.512824       0.02879
  21     81.20        0.8717        0.0000        3.3441        3.3441       2.472477       0.02666
  20     96.49        0.8717        0.0000        3.2998        3.2998       2.428053       0.02452
  19     114.6        0.8718        0.0000        3.2506        3.2507       2.378832       0.02298
  18     136.5        0.8719        0.0000        3.1936        3.1936       2.321680       0.02198
  17     162.9        0.8721        0.0000        3.1181        3.1181       2.246000       0.02419
  16     196.4        0.8725        0.0000        3.0090        3.0090       2.136472       0.02757
  15     218.7        0.8728        0.0000        2.9420        2.9420       2.069216       0.02553
  14     243.0        0.8732        0.0000        2.8605        2.8605       1.987285       0.02842
  13     269.0        0.8739        0.0000        2.7419        2.7420       1.868084       0.03867
  12     297.5        0.8750        0.0000        2.5729        2.5729       1.697859       0.05049
  11     328.5        0.8768        0.0000        2.3602        2.3602       1.483370       0.05832
  10     361.9        0.8796        0.0000        2.1524        2.1524       1.272860       0.05326
   9     398.1        0.8835        0.0000        1.9974        1.9974       1.113972       0.03702
   8     437.6        0.8889        0.0000        1.8835        1.8835       0.994660       0.02551
   7     480.5        0.8966        0.0000        1.7734        1.7734       0.876880       0.02313
   6     533.0        0.9092        0.0000        1.6397        1.6398       0.730594       0.02353
   5     589.8        0.9272        0.0000        1.5068        1.5069       0.579633       0.02241
   4     651.6        0.9539        0.0000        1.3807        1.3807       0.426840       0.02089
   3     718.7        0.9896        0.0000        1.2680        1.2681       0.278499       0.01864
   2     792.3        1.0344        0.0000        1.1659        1.1660       0.131609       0.01685
   1     891.5        0.0202        0.0976        0.0000        0.0976       0.077386       0.00461
   0    1013.0        0.0222        0.0885        0.0000        0.0885       0.066294       0.00077

  Modules and versions used in this calculation:

       rrtmg_sw.1col.f90:  $Revision$                    rrtmg_sw_init.f90:  $Revision$        
     rrtmgsw_cldprop.f90:  $Revision$                  rrtmgsw_cldprmc.f90:  NOT USED          
     rrtmg_sw_reftra.f90:  $Revision$                  rrtmg_sw_spcvrt.f90:  NOT USED          
     rrtmg_sw_spcvmc.f90:  NOT USED                    rrtmgsw_setcoef.f90:  NOT USED          
     rrtmg_sw_taumol.f90:  $Revision$                  rrtmg_sw_vrtqdr.f90:  NOT USED          
                rrtatm.f:  NOT USED                             util_xxx.f:  NOT USED          
                 extra.f:  NOT USED                       rrtmg_sw_k_g.f90:  $Revision$        

