

 Wavenumbers:   820. - 50000. cm-1, ATM      1
 LEVEL PRESSURE   UPWARD FLUX   DIFDOWN FLUX  DIRDOWN FLUX  DOWNWARD FLUX   NET FLUX    HEATING RATE
          mb          W/m2          W/m2          W/m2        W/m2          W/m2       degree/day
  51    .06700      294.2880        0.0000      397.8738      397.8738     103.585765       0.00000
  50    .07753      294.2875        0.0012      397.8577      397.8589     103.571467      11.45969
  49    .09103      294.2868        0.0027      397.8418      397.8445     103.557770       8.56131
  48    0.1069      294.2860        0.0044      397.8230      397.8274     103.541410       8.70835
  47    0.1255      294.2851        0.0064      397.7997      397.8061     103.520952       9.27471
  46    0.1487      294.2840        0.0089      397.7676      397.7765     103.492472      10.38114
  45    0.1794      294.2827        0.0123      397.7205      397.7328     103.450146      11.61952
  44    0.2165      294.2811        0.0163      397.6602      397.6765     103.395453      12.44186
  43    0.2613      294.2793        0.0210      397.5829      397.6039     103.324595      13.35638
  42    0.3336      294.2767        0.0288      397.4449      397.4737     103.197042      14.87141
  41    0.4307      294.2734        0.0390      397.2524      397.2914     103.018003      15.56707
  40    0.5894      294.2688        0.0554      396.9253      396.9807     102.711963      16.27478
  39     1.339      294.2594        0.1289      395.4254      395.5543     101.294893      15.95363
  38     1.782      294.2623        0.1702      394.7288      394.8990     100.636678      12.53136
  37     2.292      294.2730        0.2172      394.0572      394.2743     100.001274      10.52395
  36     2.964      294.2982        0.2782      393.3007      393.5788      99.280607       9.04655
  35     3.853      294.3469        0.3579      392.4318      392.7897      98.442837       7.95060
  34     5.035      294.4267        0.4629      391.4441      391.9070      97.480247       6.87634
  33     6.613      294.5417        0.6020      390.3268      390.9287      96.387051       5.84423
  32     8.786      294.6903        0.7881      389.0624      389.8505      95.160120       4.76496
  31     11.80      294.8768        1.0522      387.5500      388.6022      93.725425       4.01669
  30     15.07      295.0463        1.3336      386.1556      387.4892      92.442931       3.31115
  29     18.79      295.2104        1.6490      384.7502      386.3992      91.188835       2.84342
  28     23.16      295.3706        2.0146      383.2686      385.2833      89.912665       2.46770
  27     28.12      295.5170        2.4294      381.7329      384.1623      88.645358       2.15434
  26     33.73      295.6269        2.8904      380.1982      383.0886      87.461672       1.77970
  25     40.54      295.6973        3.4434      378.5384      381.9817      86.284475       1.46045
  24     48.69      295.7223        4.1044      376.7214      380.8258      85.103518       1.22211
  23     57.69      295.6924        4.8239      374.8959      379.7198      84.027414       1.00869
  22     68.43      295.5952        5.6726      372.8999      378.5725      82.977305       0.82553
  21     81.20      295.3943        6.6734      370.7496      377.4230      82.028675       0.62684
  20     96.49      295.0780        7.8514      368.4056      376.2570      81.178994       0.46896
  19     114.6      294.6775        9.2284      365.7513      374.9797      80.302229       0.40939
  18     136.5      294.1855       10.8290      362.7231      373.5521      79.366651       0.35975
  17     162.9      293.5901       12.6916      359.1748      371.8663      78.276199       0.34855
  16     196.4      292.7861       15.0428      354.5718      369.6146      76.828469       0.36441
  15     218.7      292.2530       16.5484      351.4437      367.9921      75.739055       0.41361
  14     243.0      291.6791       18.1514      347.7111      365.8625      74.183425       0.53954
  13     269.0      291.0678       19.8503      342.9441      362.7944      71.726591       0.79699
  12     297.5      290.4242       21.6432      337.4137      359.0569      68.632738       0.91760
  11     328.5      289.7589       23.5322      331.1302      354.6625      64.903567       1.01395
  10     361.9      289.0838       25.5122      324.1219      349.6341      60.550270       1.10143
   9     398.1      288.4121       27.5829      316.6066      344.1895      55.777390       1.11197
   8     437.6      287.7698       29.7402      308.5895      338.3297      50.559921       1.11553
   7     480.5      287.2044       31.9786      299.9349      331.9135      44.709160       1.14907
   6     533.0      286.7111       34.6358      289.7021      324.3380      37.626874       1.13931
   5     589.8      286.4743       37.3855      279.3388      316.7243      30.250048       1.09496
   4     651.6      286.6610       40.2161      268.7786      308.9947      22.333716       1.08258
   3     718.7      287.4174       43.1194      258.2837      301.4030      13.985672       1.04912
   2     792.3      288.9385       46.0818      248.0774      294.1592       5.220730       1.00524
   1     891.5        6.8596       10.1747        0.0000       10.1747       3.315073       0.16216
   0    1013.0        6.8396       10.0998        0.0000       10.0998       3.260201       0.00381



 Wavenumbers:  2600. -  3250. cm-1, ATM      1
 LEVEL PRESSURE   UPWARD FLUX   DIFDOWN FLUX  DIRDOWN FLUX  DOWNWARD FLUX   NET FLUX    HEATING RATE
          mb          W/m2          W/m2          W/m2        W/m2          W/m2       degree/day
  51    .06700        1.2704        0.0000        3.5066        3.5066       2.236212       0.00000
  50    .07753        1.2704        0.0000        3.5066        3.5066       2.236204       0.00640
  49    .09103        1.2704        0.0000        3.5066        3.5066       2.236194       0.00627
  48    0.1069        1.2704        0.0000        3.5066        3.5066       2.236182       0.00613
  47    0.1255        1.2704        0.0000        3.5066        3.5066       2.236169       0.00599
  46    0.1487        1.2704        0.0000        3.5066        3.5066       2.236153       0.00607
  45    0.1794        1.2704        0.0000        3.5065        3.5065       2.236130       0.00624
  44    0.2165        1.2704        0.0000        3.5065        3.5065       2.236103       0.00611
  43    0.2613        1.2704        0.0000        3.5065        3.5065       2.236071       0.00598
  42    0.3336        1.2704        0.0000        3.5064        3.5064       2.236019       0.00615
  41    0.4307        1.2704        0.0000        3.5064        3.5064       2.235948       0.00618
  40    0.5894        1.2704        0.0000        3.5062        3.5062       2.235828       0.00633
  39     1.339        1.2704        0.0000        3.5055        3.5055       2.235130       0.00787
  38     1.782        1.2704        0.0000        3.5050        3.5050       2.234599       0.01011
  37     2.292        1.2704        0.0000        3.5043        3.5043       2.233906       0.01147
  36     2.964        1.2704        0.0000        3.5033        3.5033       2.232915       0.01245
  35     3.853        1.2704        0.0000        3.5019        3.5019       2.231538       0.01307
  34     5.035        1.2704        0.0000        3.5001        3.5001       2.229677       0.01329
  33     6.613        1.2704        0.0000        3.4977        3.4977       2.227267       0.01288
  32     8.786        1.2704        0.0000        3.4947        3.4947       2.224295       0.01154
  31     11.80        1.2704        0.0000        3.4911        3.4911       2.220659       0.01018
  30     15.07        1.2704        0.0000        3.4878        3.4878       2.217437       0.00832
  29     18.79        1.2704        0.0000        3.4848        3.4848       2.214371       0.00695
  28     23.16        1.2704        0.0000        3.4816        3.4816       2.211149       0.00623
  27     28.12        1.2704        0.0000        3.4779        3.4779       2.207527       0.00616
  26     33.73        1.2704        0.0000        3.4735        3.4735       2.203054       0.00672
  25     40.54        1.2704        0.0000        3.4671        3.4672       2.196719       0.00786
  24     48.69        1.2704        0.0000        3.4582        3.4583       2.187810       0.00922
  23     57.69        1.2705        0.0000        3.4472        3.4472       2.176742       0.01037
  22     68.43        1.2705        0.0000        3.4329        3.4330       2.162453       0.01123
  21     81.20        1.2705        0.0000        3.4152        3.4152       2.144683       0.01174
  20     96.49        1.2706        0.0000        3.3940        3.3941       2.123480       0.01170
  19     114.6        1.2707        0.0000        3.3692        3.3692       2.098508       0.01166
  18     136.5        1.2708        0.0001        3.3419        3.3420       2.071171       0.01051
  17     162.9        1.2710        0.0001        3.3129        3.3129       2.041916       0.00935
  16     196.4        1.2714        0.0001        3.2793        3.2794       2.008016       0.00853
  15     218.7        1.2718        0.0001        3.2578        3.2579       1.986081       0.00833
  14     243.0        1.2723        0.0001        3.2320        3.2321       1.959711       0.00915
  13     269.0        1.2733        0.0001        3.1968        3.1969       1.923652       0.01170
  12     297.5        1.2747        0.0001        3.1489        3.1491       1.874319       0.01463
  11     328.5        1.2770        0.0001        3.0821        3.0822       1.805235       0.01878
  10     361.9        1.2802        0.0001        2.9902        2.9904       1.710154       0.02406
   9     398.1        1.2850        0.0001        2.8715        2.8716       1.586682       0.02877
   8     437.6        1.2918        0.0002        2.7276        2.7278       1.436009       0.03221
   7     480.5        1.3021        0.0002        2.5595        2.5597       1.257558       0.03505
   6     533.0        1.3196        0.0002        2.3617        2.3619       1.042273       0.03463
   5     589.8        1.3455        0.0002        2.1649        2.1651       0.819572       0.03306
   4     651.6        1.3844        0.0002        1.9608        1.9609       0.576595       0.03323
   3     718.7        1.4405        0.0002        1.7593        1.7595       0.319048       0.03237
   2     792.3        1.5200        0.0002        1.5761        1.5762       0.056271       0.03014
   1     891.5        0.0025        0.0112        0.0000        0.0112       0.008675       0.00405
   0    1013.0        0.0027        0.0106        0.0000        0.0106       0.007949       0.00005



 Wavenumbers:  3250. -  4000. cm-1, ATM      1
 LEVEL PRESSURE   UPWARD FLUX   DIFDOWN FLUX  DIRDOWN FLUX  DOWNWARD FLUX   NET FLUX    HEATING RATE
          mb          W/m2          W/m2          W/m2        W/m2          W/m2       degree/day
  51    .06700        0.0133        0.0000        5.9117        5.9117       5.898400       0.00000
  50    .07753        0.0133        0.0000        5.9075        5.9075       5.894210       3.35808
  49    .09103        0.0133        0.0000        5.9050        5.9050       5.891768       1.52677
  48    0.1069        0.0133        0.0000        5.9032        5.9032       5.889901       0.99346
  47    0.1255        0.0133        0.0000        5.9014        5.9014       5.888143       0.79708
  46    0.1487        0.0133        0.0000        5.8995        5.8995       5.886254       0.68848
  45    0.1794        0.0133        0.0000        5.8974        5.8974       5.884106       0.58983
  44    0.2165        0.0133        0.0000        5.8952        5.8952       5.881989       0.48155
  43    0.2613        0.0133        0.0000        5.8931        5.8931       5.879830       0.40696
  42    0.3336        0.0133        0.0000        5.8899        5.8899       5.876672       0.36820
  41    0.4307        0.0133        0.0000        5.8861        5.8861       5.872835       0.33365
  40    0.5894        0.0133        0.0000        5.8803        5.8803       5.867032       0.30857
  39     1.339        0.0133        0.0000        5.8597        5.8597       5.846435       0.23189
  38     1.782        0.0133        0.0000        5.8513        5.8513       5.838010       0.16039
  37     2.292        0.0133        0.0000        5.8431        5.8431       5.829839       0.13533
  36     2.964        0.0133        0.0000        5.8334        5.8334       5.820199       0.12100
  35     3.853        0.0132        0.0000        5.8213        5.8213       5.808024       0.11555
  34     5.035        0.0132        0.0000        5.8052        5.8052       5.791929       0.11498
  33     6.613        0.0132        0.0000        5.7833        5.7834       5.770107       0.11666
  32     8.786        0.0132        0.0000        5.7531        5.7531       5.739906       0.11729
  31     11.80        0.0132        0.0000        5.7090        5.7090       5.695737       0.12366
  30     15.07        0.0132        0.0000        5.6615        5.6615       5.648272       0.12254
  29     18.79        0.0132        0.0000        5.6093        5.6094       5.596137       0.11821
  28     23.16        0.0132        0.0000        5.5524        5.5524       5.539211       0.11008
  27     28.12        0.0132        0.0000        5.4935        5.4935       5.480332       0.10009
  26     33.73        0.0132        0.0000        5.4348        5.4349       5.421643       0.08824
  25     40.54        0.0132        0.0001        5.3707        5.3708       5.357582       0.07948
  24     48.69        0.0132        0.0001        5.2985        5.2985       5.285348       0.07475
  23     57.69        0.0132        0.0001        5.2215        5.2216       5.208410       0.07212
  22     68.43        0.0132        0.0001        5.1318        5.1319       5.118749       0.07048
  21     81.20        0.0131        0.0001        5.0284        5.0285       5.015320       0.06834
  20     96.49        0.0131        0.0001        4.9122        4.9123       4.899186       0.06410
  19     114.6        0.0131        0.0001        4.7780        4.7782       4.765074       0.06262
  18     136.5        0.0131        0.0002        4.6285        4.6287       4.615596       0.05748
  17     162.9        0.0131        0.0002        4.4406        4.4407       4.427683       0.06006
  16     196.4        0.0130        0.0002        4.1548        4.1550       4.142008       0.07191
  15     218.7        0.0130        0.0002        3.9564        3.9566       3.943624       0.07532
  14     243.0        0.0130        0.0002        3.7055        3.7058       3.692783       0.08700
  13     269.0        0.0130        0.0002        3.3399        3.3401       3.327127       0.11862
  12     297.5        0.0130        0.0002        2.8954        2.8956       2.882600       0.13184
  11     328.5        0.0131        0.0002        2.4388        2.4390       2.425985       0.12415
  10     361.9        0.0132        0.0002        2.0269        2.0271       2.013910       0.10426
   9     398.1        0.0134        0.0002        1.6753        1.6755       1.662083       0.08197
   8     437.6        0.0138        0.0002        1.3592        1.3594       1.345548       0.06768
   7     480.5        0.0146        0.0002        1.0616        1.0618       1.047211       0.05859
   6     533.0        0.0161        0.0001        0.7543        0.7544       0.738322       0.04969
   5     589.8        0.0190        0.0001        0.4951        0.4952       0.476265       0.03890
   4     651.6        0.0246        0.0001        0.2943        0.2943       0.269786       0.02824
   3     718.7        0.0355        0.0001        0.1528        0.1529       0.117306       0.01916
   2     792.3        0.0581        0.0000        0.0658        0.0658       0.007756       0.01256
   1     891.5        0.0000        0.0000        0.0000        0.0000       0.000001       0.00066
   0    1013.0        0.0000        0.0000        0.0000        0.0000       0.000000       0.00000



 Wavenumbers:  4000. -  4650. cm-1, ATM      1
 LEVEL PRESSURE   UPWARD FLUX   DIFDOWN FLUX  DIRDOWN FLUX  DOWNWARD FLUX   NET FLUX    HEATING RATE
          mb          W/m2          W/m2          W/m2        W/m2          W/m2       degree/day
  51    .06700        4.4676        0.0000        6.9421        6.9421       2.474467       0.00000
  50    .07753        4.4676        0.0000        6.9421        6.9421       2.474466       0.00079
  49    .09103        4.4676        0.0000        6.9421        6.9421       2.474465       0.00078
  48    0.1069        4.4676        0.0000        6.9421        6.9421       2.474464       0.00076
  47    0.1255        4.4676        0.0000        6.9421        6.9421       2.474462       0.00074
  46    0.1487        4.4676        0.0000        6.9421        6.9421       2.474460       0.00075
  45    0.1794        4.4676        0.0000        6.9421        6.9421       2.474457       0.00077
  44    0.2165        4.4676        0.0000        6.9421        6.9421       2.474454       0.00076
  43    0.2613        4.4676        0.0000        6.9420        6.9420       2.474450       0.00074
  42    0.3336        4.4676        0.0000        6.9420        6.9420       2.474443       0.00076
  41    0.4307        4.4676        0.0000        6.9420        6.9420       2.474434       0.00077
  40    0.5894        4.4676        0.0000        6.9420        6.9420       2.474420       0.00079
  39     1.339        4.4676        0.0000        6.9419        6.9419       2.474331       0.00100
  38     1.782        4.4676        0.0000        6.9418        6.9419       2.474261       0.00132
  37     2.292        4.4676        0.0000        6.9418        6.9418       2.474168       0.00155
  36     2.964        4.4676        0.0000        6.9416        6.9416       2.474028       0.00175
  35     3.853        4.4676        0.0000        6.9414        6.9414       2.473821       0.00196
  34     5.035        4.4676        0.0000        6.9411        6.9411       2.473517       0.00218
  33     6.613        4.4676        0.0000        6.9406        6.9407       2.473068       0.00240
  32     8.786        4.4676        0.0000        6.9399        6.9400       2.472407       0.00257
  31     11.80        4.4676        0.0001        6.9389        6.9389       2.471370       0.00290
  30     15.07        4.4676        0.0001        6.9377        6.9377       2.470157       0.00313
  29     18.79        4.4676        0.0001        6.9362        6.9363       2.468695       0.00332
  28     23.16        4.4676        0.0001        6.9343        6.9345       2.466885       0.00350
  27     28.12        4.4676        0.0001        6.9321        6.9323       2.464702       0.00371
  26     33.73        4.4676        0.0002        6.9294        6.9296       2.462021       0.00403
  25     40.54        4.4676        0.0002        6.9258        6.9260       2.458404       0.00449
  24     48.69        4.4676        0.0002        6.9210        6.9212       2.453611       0.00496
  23     57.69        4.4676        0.0003        6.9154        6.9156       2.447965       0.00529
  22     68.43        4.4677        0.0003        6.9083        6.9087       2.440936       0.00553
  21     81.20        4.4678        0.0004        6.8998        6.9001       2.432326       0.00569
  20     96.49        4.4680        0.0004        6.8894        6.8899       2.421905       0.00575
  19     114.6        4.4682        0.0005        6.8765        6.8770       2.408823       0.00611
  18     136.5        4.4686        0.0006        6.8610        6.8616       2.392992       0.00609
  17     162.9        4.4692        0.0007        6.8417        6.8424       2.373213       0.00632
  16     196.4        4.4702        0.0009        6.8147        6.8155       2.345327       0.00702
  15     218.7        4.4711        0.0010        6.7948        6.7958       2.324688       0.00784
  14     243.0        4.4725        0.0011        6.7698        6.7709       2.298400       0.00912
  13     269.0        4.4746        0.0012        6.7349        6.7360       2.261459       0.01198
  12     297.5        4.4778        0.0013        6.6869        6.6882       2.210403       0.01514
  11     328.5        4.4823        0.0014        6.6194        6.6208       2.138535       0.01954
  10     361.9        4.4882        0.0016        6.5295        6.5310       2.042788       0.02422
   9     398.1        4.4961        0.0017        6.4202        6.4219       1.925785       0.02726
   8     437.6        4.5068        0.0019        6.2962        6.2980       1.791274       0.02876
   7     480.5        4.5216        0.0020        6.1555        6.1575       1.635905       0.03051
   6     533.0        4.5460        0.0022        5.9675        5.9697       1.423680       0.03414
   5     589.8        4.5822        0.0024        5.7368        5.7391       1.156877       0.03960
   4     651.6        4.6366        0.0025        5.4662        5.4688       0.832118       0.04441
   3     718.7        4.7151        0.0027        5.1912        5.1939       0.478759       0.04441
   2     792.3        4.8254        0.0029        4.9395        4.9423       0.116985       0.04149
   1     891.5        0.0139        0.0575        0.0000        0.0575       0.043625       0.00624
   0    1013.0        0.0141        0.0564        0.0000        0.0564       0.042262       0.00009



 Wavenumbers:  4650. -  5150. cm-1, ATM      1
 LEVEL PRESSURE   UPWARD FLUX   DIFDOWN FLUX  DIRDOWN FLUX  DOWNWARD FLUX   NET FLUX    HEATING RATE
          mb          W/m2          W/m2          W/m2        W/m2          W/m2       degree/day
  51    .06700        3.1407        0.0000        6.5710        6.5710       3.430288       0.00000
  50    .07753        3.1407        0.0000        6.5708        6.5708       3.430053       0.18887
  49    .09103        3.1407        0.0000        6.5705        6.5705       3.429759       0.18362
  48    0.1069        3.1407        0.0000        6.5701        6.5701       3.429424       0.17806
  47    0.1255        3.1407        0.0000        6.5697        6.5697       3.429044       0.17238
  46    0.1487        3.1407        0.0000        6.5693        6.5693       3.428570       0.17268
  45    0.1794        3.1407        0.0000        6.5686        6.5686       3.427934       0.17474
  44    0.2165        3.1407        0.0000        6.5679        6.5679       3.427196       0.16788
  43    0.2613        3.1407        0.0000        6.5670        6.5670       3.426343       0.16078
  42    0.3336        3.1407        0.0000        6.5657        6.5657       3.424980       0.15894
  41    0.4307        3.1407        0.0000        6.5640        6.5640       3.423258       0.14971
  40    0.5894        3.1407        0.0000        6.5613        6.5613       3.420642       0.13913
  39     1.339        3.1407        0.0000        6.5516        6.5516       3.410864       0.11008
  38     1.782        3.1407        0.0000        6.5473        6.5473       3.406647       0.08027
  37     2.292        3.1407        0.0000        6.5434        6.5435       3.402760       0.06439
  36     2.964        3.1407        0.0000        6.5395        6.5395       3.398805       0.04965
  35     3.853        3.1407        0.0000        6.5355        6.5356       3.394860       0.03743
  34     5.035        3.1407        0.0000        6.5315        6.5315       3.390856       0.02861
  33     6.613        3.1407        0.0000        6.5271        6.5271       3.386457       0.02351
  32     8.786        3.1407        0.0001        6.5216        6.5216       3.380955       0.02137
  31     11.80        3.1407        0.0001        6.5135        6.5136       3.372862       0.02266
  30     15.07        3.1407        0.0001        6.5041        6.5042       3.363475       0.02424
  29     18.79        3.1407        0.0001        6.4925        6.4927       3.351933       0.02617
  28     23.16        3.1407        0.0002        6.4779        6.4780       3.337305       0.02829
  27     28.12        3.1408        0.0002        6.4599        6.4601       3.319279       0.03064
  26     33.73        3.1408        0.0002        6.4384        6.4386       3.297782       0.03232
  25     40.54        3.1409        0.0003        6.4112        6.4115       3.270564       0.03377
  24     48.69        3.1411        0.0003        6.3775        6.3778       3.236795       0.03495
  23     57.69        3.1412        0.0004        6.3404        6.3408       3.199535       0.03493
  22     68.43        3.1415        0.0004        6.2971        6.2976       3.156114       0.03413
  21     81.20        3.1418        0.0005        6.2483        6.2488       3.106980       0.03247
  20     96.49        3.1423        0.0006        6.1948        6.1954       3.053171       0.02970
  19     114.6        3.1429        0.0007        6.1381        6.1389       2.995934       0.02673
  18     136.5        3.1439        0.0009        6.0790        6.0799       2.935998       0.02305
  17     162.9        3.1452        0.0010        6.0160        6.0171       2.871888       0.02049
  16     196.4        3.1472        0.0012        5.9399        5.9411       2.793868       0.01964
  15     218.7        3.1488        0.0013        5.8896        5.8910       2.742132       0.01964
  14     243.0        3.1510        0.0015        5.8322        5.8337       2.682686       0.02062
  13     269.0        3.1540        0.0016        5.7624        5.7640       2.610017       0.02357
  12     297.5        3.1583        0.0018        5.6767        5.6785       2.520208       0.02664
  11     328.5        3.1642        0.0019        5.5726        5.5745       2.410390       0.02986
  10     361.9        3.1720        0.0021        5.4473        5.4494       2.277397       0.03365
   9     398.1        3.1826        0.0023        5.2995        5.3018       2.119140       0.03687
   8     437.6        3.1968        0.0025        5.1275        5.1299       1.933086       0.03978
   7     480.5        3.2163        0.0026        4.9290        4.9316       1.715337       0.04277
   6     533.0        3.2470        0.0028        4.6794        4.6822       1.435151       0.04507
   5     589.8        3.2902        0.0030        4.4188        4.4218       1.131527       0.04507
   4     651.6        3.3518        0.0032        4.1521        4.1553       0.803408       0.04487
   3     718.7        3.4364        0.0033        3.8929        3.8963       0.459907       0.04317
   2     792.3        3.5505        0.0035        3.6469        3.6504       0.099879       0.04129
   1     891.5        0.0088        0.0370        0.0000        0.0370       0.028195       0.00610
   0    1013.0        0.0090        0.0360        0.0000        0.0360       0.026983       0.00008



 Wavenumbers:  5150. -  6150. cm-1, ATM      1
 LEVEL PRESSURE   UPWARD FLUX   DIFDOWN FLUX  DIRDOWN FLUX  DOWNWARD FLUX   NET FLUX    HEATING RATE
          mb          W/m2          W/m2          W/m2        W/m2          W/m2       degree/day
  51    .06700        7.7198        0.0000       16.4735       16.4735       8.753701       0.00000
  50    .07753        7.7198        0.0000       16.4735       16.4735       8.753666       0.02765
  49    .09103        7.7198        0.0000       16.4734       16.4734       8.753621       0.02814
  48    0.1069        7.7198        0.0000       16.4734       16.4734       8.753568       0.02863
  47    0.1255        7.7198        0.0000       16.4733       16.4733       8.753504       0.02908
  46    0.1487        7.7198        0.0000       16.4732       16.4732       8.753420       0.03063
  45    0.1794        7.7198        0.0000       16.4731       16.4731       8.753300       0.03273
  44    0.2165        7.7198        0.0000       16.4730       16.4730       8.753154       0.03335
  43    0.2613        7.7198        0.0000       16.4728       16.4728       8.752974       0.03380
  42    0.3336        7.7198        0.0000       16.4725       16.4725       8.752668       0.03568
  41    0.4307        7.7198        0.0000       16.4720       16.4720       8.752249       0.03649
  40    0.5894        7.7198        0.0000       16.4713       16.4713       8.751547       0.03732
  39     1.339        7.7198        0.0000       16.4679       16.4679       8.748134       0.03842
  38     1.782        7.7198        0.0001       16.4659       16.4659       8.746131       0.03813
  37     2.292        7.7198        0.0001       16.4635       16.4636       8.743836       0.03802
  36     2.964        7.7198        0.0001       16.4605       16.4606       8.740859       0.03736
  35     3.853        7.7198        0.0001       16.4567       16.4568       8.736996       0.03666
  34     5.035        7.7198        0.0001       16.4516       16.4517       8.731985       0.03580
  33     6.613        7.7198        0.0002       16.4451       16.4453       8.725503       0.03465
  32     8.786        7.7198        0.0003       16.4367       16.4369       8.717160       0.03240
  31     11.80        7.7198        0.0004       16.4254       16.4257       8.705959       0.03136
  30     15.07        7.7198        0.0004       16.4141       16.4146       8.694814       0.02877
  29     18.79        7.7198        0.0006       16.4024       16.4030       8.683222       0.02628
  28     23.16        7.7198        0.0007       16.3900       16.3907       8.670872       0.02388
  27     28.12        7.7198        0.0008       16.3771       16.3779       8.658101       0.02171
  26     33.73        7.7199        0.0010       16.3641       16.3651       8.645241       0.01934
  25     40.54        7.7200        0.0012       16.3502       16.3514       8.631417       0.01715
  24     48.69        7.7201        0.0014       16.3354       16.3368       8.616698       0.01523
  23     57.69        7.7203        0.0017       16.3211       16.3228       8.602503       0.01331
  22     68.43        7.7205        0.0020       16.3062       16.3083       8.587741       0.01160
  21     81.20        7.7209        0.0024       16.2903       16.2927       8.571882       0.01048
  20     96.49        7.7213        0.0029       16.2726       16.2755       8.554232       0.00974
  19     114.6        7.7218        0.0034       16.2521       16.2555       8.533711       0.00958
  18     136.5        7.7224        0.0040       16.2245       16.2286       8.506182       0.01059
  17     162.9        7.7232        0.0048       16.1747       16.1795       8.456316       0.01594
  16     196.4        7.7244        0.0058       16.0518       16.0576       8.333215       0.03099
  15     218.7        7.7252        0.0064       15.8984       15.9047       8.179521       0.05835
  14     243.0        7.7263        0.0070       15.6153       15.6222       7.895968       0.09835
  13     269.0        7.7277        0.0076       15.1390       15.1466       7.418837       0.15478
  12     297.5        7.7298        0.0082       14.5779       14.5861       6.856224       0.16686
  11     328.5        7.7329        0.0087       13.8780       13.8868       6.153836       0.19098
  10     361.9        7.7375        0.0093       13.0814       13.0907       5.353241       0.20256
   9     398.1        7.7440        0.0097       12.2728       12.2826       4.538559       0.18980
   8     437.6        7.7537        0.0102       11.4776       11.4878       3.734033       0.17201
   7     480.5        7.7687        0.0106       10.7300       10.7406       2.971911       0.14968
   6     533.0        7.7954        0.0111       10.0326       10.0437       2.248301       0.11641
   5     589.8        7.8383        0.0118        9.5050        9.5168       1.678552       0.08457
   4     651.6        7.9076        0.0125        9.0814        9.0939       1.186337       0.06731
   3     718.7        8.0146        0.0134        8.7024        8.7158       0.701263       0.06096
   2     792.3        8.1737        0.0143        8.3379        8.3523       0.178582       0.05995
   1     891.5        0.0270        0.1100        0.0000        0.1100       0.082996       0.00813
   0    1013.0        0.0273        0.1087        0.0000        0.1087       0.081449       0.00011



 Wavenumbers:  6150. -  7700. cm-1, ATM      1
 LEVEL PRESSURE   UPWARD FLUX   DIFDOWN FLUX  DIRDOWN FLUX  DOWNWARD FLUX   NET FLUX    HEATING RATE
          mb          W/m2          W/m2          W/m2        W/m2          W/m2       degree/day
  51    .06700       12.0932        0.0000       30.4684       30.4684      18.375216       0.00000
  50    .07753       12.0932        0.0000       30.4683       30.4683      18.375164       0.04144
  49    .09103       12.0932        0.0000       30.4683       30.4683      18.375097       0.04174
  48    0.1069       12.0932        0.0000       30.4682       30.4682      18.375018       0.04202
  47    0.1255       12.0932        0.0000       30.4681       30.4681      18.374925       0.04227
  46    0.1487       12.0932        0.0000       30.4680       30.4680      18.374804       0.04411
  45    0.1794       12.0932        0.0000       30.4678       30.4678      18.374634       0.04669
  44    0.2165       12.0932        0.0000       30.4676       30.4676      18.374427       0.04715
  43    0.2613       12.0932        0.0000       30.4673       30.4673      18.374175       0.04744
  42    0.3336       12.0931        0.0000       30.4669       30.4669      18.373748       0.04974
  41    0.4307       12.0931        0.0000       30.4663       30.4663      18.373167       0.05052
  40    0.5894       12.0931        0.0001       30.4653       30.4653      18.372200       0.05146
  39     1.339       12.0931        0.0002       30.4604       30.4606      18.367516       0.05273
  38     1.782       12.0930        0.0002       30.4576       30.4578      18.364766       0.05235
  37     2.292       12.0930        0.0003       30.4543       30.4546      18.361608       0.05231
  36     2.964       12.0929        0.0004       30.4501       30.4504      18.357500       0.05156
  35     3.853       12.0928        0.0005       30.4445       30.4450      18.352143       0.05084
  34     5.035       12.0927        0.0006       30.4373       30.4379      18.345143       0.05000
  33     6.613       12.0926        0.0008       30.4278       30.4286      18.335996       0.04890
  32     8.786       12.0924        0.0011       30.4154       30.4165      18.324043       0.04642
  31     11.80       12.0922        0.0014       30.3984       30.3998      18.307657       0.04588
  30     15.07       12.0919        0.0019       30.3810       30.3828      18.290942       0.04315
  29     18.79       12.0916        0.0023       30.3623       30.3646      18.273041       0.04059
  28     23.16       12.0912        0.0028       30.3417       30.3445      18.253356       0.03806
  27     28.12       12.0908        0.0035       30.3196       30.3230      18.232254       0.03587
  26     33.73       12.0903        0.0041       30.2965       30.3006      18.210333       0.03296
  25     40.54       12.0897        0.0050       30.2708       30.2757      18.185992       0.03020
  24     48.69       12.0890        0.0060       30.2423       30.2482      18.159210       0.02771
  23     57.69       12.0883        0.0071       30.2139       30.2209      18.132638       0.02491
  22     68.43       12.0874        0.0084       30.1834       30.1917      18.104354       0.02223
  21     81.20       12.0863        0.0099       30.1500       30.1599      18.073613       0.02031
  20     96.49       12.0850        0.0118       30.1126       30.1244      18.039379       0.01889
  19     114.6       12.0835        0.0140       30.0695       30.0835      17.999969       0.01840
  18     136.5       12.0817        0.0166       30.0139       30.0305      17.948774       0.01969
  17     162.9       12.0796        0.0197       29.9225       29.9422      17.862512       0.02757
  16     196.4       12.0771        0.0237       29.7333       29.7570      17.679934       0.04596
  15     218.7       12.0755        0.0262       29.5259       29.5521      17.476598       0.07720
  14     243.0       12.0740        0.0289       29.1375       29.1664      17.092377       0.13326
  13     269.0       12.0730        0.0315       28.3800       28.4115      16.338474       0.24456
  12     297.5       12.0731        0.0340       27.3895       27.4236      15.350416       0.29305
  11     328.5       12.0751        0.0364       26.2257       26.2621      14.186992       0.31633
  10     361.9       12.0803        0.0387       24.8453       24.8840      12.803729       0.34998
   9     398.1       12.0903        0.0407       23.3471       23.3878      11.297518       0.35091
   8     437.6       12.1081        0.0426       21.7966       21.8392       9.731058       0.33492
   7     480.5       12.1399        0.0441       20.1977       20.2419       8.101986       0.31994
   6     533.0       12.2015        0.0458       18.4969       18.5427       6.341258       0.28325
   5     589.8       12.3043        0.0475       16.9754       17.0229       4.718658       0.24085
   4     651.6       12.4747        0.0493       15.6022       15.6514       3.176770       0.21086
   3     718.7       12.7400        0.0512       14.4232       14.4744       1.734401       0.18127
   2     792.3       13.1393        0.0534       13.4386       13.4920       0.352693       0.15847
   1     891.5        0.0373        0.1540        0.0000        0.1540       0.116684       0.02008
   0    1013.0        0.0379        0.1512        0.0000        0.1512       0.113275       0.00024



 Wavenumbers:  7700. -  8050. cm-1, ATM      1
 LEVEL PRESSURE   UPWARD FLUX   DIFDOWN FLUX  DIRDOWN FLUX  DOWNWARD FLUX   NET FLUX    HEATING RATE
          mb          W/m2          W/m2          W/m2        W/m2          W/m2       degree/day
  51    .06700        5.7051        0.0000        7.2006        7.2006       1.495440       0.00000
  50    .07753        5.7051        0.0000        7.2006        7.2006       1.495419       0.01727
  49    .09103        5.7052        0.0000        7.2005        7.2005       1.495392       0.01692
  48    0.1069        5.7052        0.0000        7.2005        7.2005       1.495360       0.01657
  47    0.1255        5.7052        0.0000        7.2005        7.2005       1.495325       0.01621
  46    0.1487        5.7052        0.0000        7.2004        7.2005       1.495280       0.01645
  45    0.1794        5.7052        0.0000        7.2004        7.2004       1.495218       0.01693
  44    0.2165        5.7052        0.0000        7.2003        7.2003       1.495145       0.01660
  43    0.2613        5.7052        0.0000        7.2003        7.2003       1.495059       0.01629
  42    0.3336        5.7052        0.0000        7.2001        7.2001       1.494916       0.01667
  41    0.4307        5.7053        0.0000        7.2000        7.2000       1.494726       0.01649
  40    0.5894        5.7053        0.0000        7.1997        7.1997       1.494416       0.01647
  39     1.339        5.7056        0.0001        7.1984        7.1985       1.492951       0.01649
  38     1.782        5.7057        0.0001        7.1977        7.1978       1.492091       0.01638
  37     2.292        5.7059        0.0001        7.1968        7.1970       1.491096       0.01649
  36     2.964        5.7061        0.0002        7.1957        7.1959       1.489789       0.01640
  35     3.853        5.7064        0.0002        7.1942        7.1944       1.488063       0.01638
  34     5.035        5.7067        0.0003        7.1922        7.1925       1.485772       0.01637
  33     6.613        5.7072        0.0004        7.1896        7.1900       1.482713       0.01635
  32     8.786        5.7079        0.0005        7.1860        7.1865       1.478596       0.01599
  31     11.80        5.7089        0.0006        7.1810        7.1816       1.472717       0.01646
  30     15.07        5.7100        0.0008        7.1755        7.1764       1.466418       0.01626
  29     18.79        5.7111        0.0010        7.1694        7.1705       1.459320       0.01609
  28     23.16        5.7125        0.0013        7.1623        7.1636       1.451053       0.01599
  27     28.12        5.7141        0.0015        7.1542        7.1558       1.441632       0.01601
  26     33.73        5.7159        0.0018        7.1452        7.1471       1.431132       0.01579
  25     40.54        5.7181        0.0022        7.1344        7.1366       1.418505       0.01566
  24     48.69        5.7208        0.0026        7.1215        7.1242       1.403371       0.01566
  23     57.69        5.7237        0.0031        7.1074        7.1106       1.386857       0.01548
  22     68.43        5.7272        0.0037        7.0909        7.0946       1.367339       0.01534
  21     81.20        5.7314        0.0044        7.0713        7.0757       1.344294       0.01523
  20     96.49        5.7365        0.0052        7.0484        7.0536       1.317124       0.01500
  19     114.6        5.7426        0.0062        7.0217        7.0278       1.285258       0.01488
  18     136.5        5.7499        0.0073        6.9906        6.9979       1.248019       0.01432
  17     162.9        5.7587        0.0087        6.9544        6.9631       1.204372       0.01395
  16     196.4        5.7703        0.0104        6.9087        6.9192       1.148835       0.01398
  15     218.7        5.7781        0.0116        6.8794        6.8910       1.112899       0.01364
  14     243.0        5.7867        0.0128        6.8481        6.8609       1.074255       0.01340
  13     269.0        5.7962        0.0142        6.8147        6.8289       1.032718       0.01347
  12     297.5        5.8067        0.0156        6.7791        6.7947       0.988016       0.01326
  11     328.5        5.8184        0.0172        6.7409        6.7581       0.939732       0.01313
  10     361.9        5.8316        0.0189        6.7002        6.7190       0.887491       0.01322
   9     398.1        5.8464        0.0207        6.6563        6.6770       0.830618       0.01325
   8     437.6        5.8631        0.0226        6.6089        6.6315       0.768375       0.01331
   7     480.5        5.8824        0.0247        6.5570        6.5817       0.699280       0.01357
   6     533.0        5.9082        0.0273        6.4915        6.5187       0.610482       0.01428
   5     589.8        5.9390        0.0300        6.4182        6.4482       0.509237       0.01503
   4     651.6        5.9759        0.0329        6.3359        6.3687       0.392888       0.01591
   3     718.7        6.0199        0.0359        6.2441        6.2801       0.260236       0.01667
   2     792.3        6.0715        0.0392        6.1437        6.1829       0.111427       0.01707
   1     891.5        0.0199        0.0817        0.0000        0.0817       0.061824       0.00422
   0    1013.0        0.0202        0.0804        0.0000        0.0804       0.060233       0.00011



 Wavenumbers:  8050. - 12850. cm-1, ATM      1
 LEVEL PRESSURE   UPWARD FLUX   DIFDOWN FLUX  DIRDOWN FLUX  DOWNWARD FLUX   NET FLUX    HEATING RATE
          mb          W/m2          W/m2          W/m2        W/m2          W/m2       degree/day
  51    .06700       74.2895        0.0000      100.8135      100.8135      26.524007       0.00000
  50    .07753       74.2895        0.0000      100.8135      100.8135      26.524007       0.00000
  49    .09103       74.2895        0.0001      100.8134      100.8135      26.524007      -0.00000
  48    0.1069       74.2895        0.0001      100.8134      100.8135      26.524007      -0.00000
  47    0.1255       74.2894        0.0002      100.8133      100.8134      26.524007       0.00000
  46    0.1487       74.2894        0.0002      100.8132      100.8134      26.524007       0.00000
  45    0.1794       74.2894        0.0003      100.8131      100.8134      26.524007       0.00000
  44    0.2165       74.2893        0.0004      100.8129      100.8133      26.524007      -0.00000
  43    0.2613       74.2893        0.0005      100.8127      100.8133      26.524007      -0.00000
  42    0.3336       74.2892        0.0007      100.8125      100.8132      26.524007       0.00000
  41    0.4307       74.2890        0.0010      100.8121      100.8130      26.524007       0.00000
  40    0.5894       74.2888        0.0014      100.8115      100.8128      26.524007      -0.00000
  39     1.339       74.2879        0.0034      100.8085      100.8119      26.524007       0.00000
  38     1.782       74.2873        0.0045      100.8068      100.8113      26.524007      -0.00000
  37     2.292       74.2866        0.0059      100.8047      100.8106      26.524007       0.00000
  36     2.964       74.2858        0.0077      100.8021      100.8098      26.524007       0.00000
  35     3.853       74.2846        0.0100      100.7986      100.8086      26.524007      -0.00000
  34     5.035       74.2831        0.0131      100.7940      100.8071      26.524007      -0.00000
  33     6.613       74.2811        0.0173      100.7878      100.8051      26.524007       0.00000
  32     8.786       74.2783        0.0229      100.7794      100.8023      26.524007       0.00000
  31     11.80       74.2744        0.0310      100.7674      100.7984      26.524007       0.00000
  30     15.07       74.2702        0.0396      100.7546      100.7942      26.524007      -0.00000
  29     18.79       74.2654        0.0494      100.7400      100.7894      26.524007      -0.00000
  28     23.16       74.2598        0.0608      100.7230      100.7838      26.524007       0.00000
  27     28.12       74.2534        0.0739      100.7035      100.7774      26.524007      -0.00000
  26     33.73       74.2463        0.0886      100.6817      100.7703      26.524007       0.00000
  25     40.54       74.2376        0.1064      100.6552      100.7616      26.524007       0.00000
  24     48.69       74.2271        0.1278      100.6234      100.7511      26.524007       0.00000
  23     57.69       74.2156        0.1514      100.5883      100.7396      26.524007      -0.00000
  22     68.43       74.2019        0.1795      100.5464      100.7259      26.524007       0.00000
  21     81.20       74.1855        0.2130      100.4965      100.7095      26.524007       0.00000
  20     96.49       74.1660        0.2530      100.4370      100.6900      26.524007      -0.00000
  19     114.6       74.1430        0.3006      100.3585      100.6591      26.516170       0.00366
  18     136.5       74.1156        0.3572      100.2634      100.6205      26.504906       0.00433
  17     162.9       74.0832        0.4246      100.1407      100.5653      26.482108       0.00729
  16     196.4       74.0412        0.5122       99.9505      100.4627      26.421471       0.01526
  15     218.7       74.0138        0.5698       99.7889      100.3587      26.344900       0.02907
  14     243.0       73.9847        0.6323       99.5472      100.1795      26.194835       0.05205
  13     269.0       73.9553        0.6998       99.1452       99.8450      25.889695       0.09899
  12     297.5       73.9277        0.7722       98.5975       99.3697      25.442054       0.13277
  11     328.5       73.9049        0.8500       97.8659       98.7158      24.810894       0.17161
  10     361.9       73.8920        0.9328       96.8848       97.8175      23.925519       0.22401
   9     398.1       73.8954        1.0204       95.6330       96.6534      22.757996       0.27201
   8     437.6       73.9270        1.1125       94.0655       95.1780      21.250968       0.32221
   7     480.5       74.0104        1.2081       92.0807       93.2889      19.278436       0.38740
   6     533.0       74.1984        1.3217       89.4449       90.7665      16.568134       0.43600
   5     589.8       74.5321        1.4396       86.5544       87.9940      13.461879       0.46107
   4     651.6       75.0961        1.5614       83.4174       84.9788       9.882660       0.48947
   3     718.7       75.9643        1.6878       80.2037       81.8915       5.927218       0.49709
   2     792.3       77.2299        1.8197       77.0811       78.9008       1.670844       0.48816
   1     891.5        0.2515        1.0272        0.0000        1.0272       0.775719       0.07617
   0    1013.0        0.2538        1.0125        0.0000        1.0125       0.758632       0.00119



 Wavenumbers: 12850. - 16000. cm-1, ATM      1
 LEVEL PRESSURE   UPWARD FLUX   DIFDOWN FLUX  DIRDOWN FLUX  DOWNWARD FLUX   NET FLUX    HEATING RATE
          mb          W/m2          W/m2          W/m2        W/m2          W/m2       degree/day
  51    .06700       53.0468        0.0000       63.1686       63.1686      10.121764       0.00000
  50    .07753       53.0468        0.0001       63.1677       63.1678      10.120979       0.62842
  49    .09103       53.0468        0.0001       63.1666       63.1668      10.120001       0.61131
  48    0.1069       53.0468        0.0002       63.1654       63.1656      10.118886       0.59349
  47    0.1255       53.0467        0.0003       63.1640       63.1644      10.117617       0.57567
  46    0.1487       53.0467        0.0005       63.1623       63.1628      10.116030       0.57822
  45    0.1794       53.0467        0.0006       63.1600       63.1606      10.113899       0.58500
  44    0.2165       53.0467        0.0009       63.1573       63.1582      10.111430       0.56179
  43    0.2613       53.0467        0.0011       63.1542       63.1553      10.108574       0.53833
  42    0.3336       53.0468        0.0015       63.1493       63.1508      10.104009       0.53227
  41    0.4307       53.0469        0.0021       63.1431       63.1452      10.098275       0.49851
  40    0.5894       53.0473        0.0030       63.1338       63.1368      10.089536       0.46476
  39     1.339       53.0508        0.0072       63.0956       63.1028      10.051986       0.42274
  38     1.782       53.0544        0.0097       63.0740       63.0838      10.029375       0.43047
  37     2.292       53.0599        0.0126       63.0477       63.0603      10.000405       0.47982
  36     2.964       53.0692        0.0164       63.0095       63.0260       9.956733       0.54822
  35     3.853       53.0845        0.0214       62.9533       62.9747       9.890181       0.63159
  34     5.035       53.1078        0.0281       62.8725       62.9006       9.792841       0.69536
  33     6.613       53.1403        0.0370       62.7621       62.7990       9.658740       0.71691
  32     8.786       53.1826        0.0489       62.6182       62.6672       9.484583       0.67636
  31     11.80       53.2373        0.0660       62.4284       62.4943       9.257030       0.63707
  30     15.07       53.2893        0.0842       62.2426       62.3269       9.037531       0.56671
  29     18.79       53.3420        0.1048       62.0493       62.1541       8.812106       0.51111
  28     23.16       53.3966        0.1289       61.8424       61.9713       8.574673       0.45912
  27     28.12       53.4509        0.1563       61.6278       61.7841       8.333159       0.41056
  26     33.73       53.5000        0.1869       61.4177       61.6046       8.104540       0.34374
  25     40.54       53.5459        0.2239       61.1983       61.4222       7.876289       0.28317
  24     48.69       53.5880        0.2684       60.9680       61.2364       7.648317       0.23592
  23     57.69       53.6217        0.3172       60.7478       61.0650       7.443338       0.19214
  22     68.43       53.6480        0.3753       60.5202       60.8955       7.247521       0.15394
  21     81.20       53.6606        0.4446       60.2938       60.7384       7.077844       0.11212
  20     96.49       53.6582        0.5271       60.0643       60.5914       6.933208       0.07983
  19     114.6       53.6546        0.6258       59.8078       60.4336       6.778965       0.07202
  18     136.5       53.6429        0.7426       59.5157       60.2583       6.615420       0.06289
  17     162.9       53.6221        0.8814       59.1770       60.0584       6.436309       0.05725
  16     196.4       53.5807        1.0610       58.7604       59.8215       6.240817       0.04921
  15     218.7       53.5483        1.1788       58.4948       59.6736       6.125282       0.04386
  14     243.0       53.5111        1.3066       58.2089       59.5155       6.004410       0.04192
  13     269.0       53.4691        1.4448       57.9006       59.3454       5.876328       0.04155
  12     297.5       53.4229        1.5940       57.5668       59.1608       5.737933       0.04105
  11     328.5       53.3743        1.7549       57.2005       58.9554       5.581014       0.04267
  10     361.9       53.3250        1.9276       56.7963       58.7240       5.398933       0.04607
   9     398.1       53.2769        2.1130       56.3475       58.4606       5.183702       0.05014
   8     437.6       53.2336        2.3114       55.8422       58.1536       4.919972       0.05639
   7     480.5       53.2024        2.5229       55.2625       57.7854       4.583029       0.06617
   6     533.0       53.1892        2.7812       54.4972       57.2784       4.089195       0.07944
   5     589.8       53.2073        3.0565       53.6307       56.6871       3.479888       0.09044
   4     651.6       53.2722        3.3478       52.6606       56.0084       2.736220       0.10170
   3     718.7       53.3946        3.6558       51.6100       55.2659       1.871269       0.10870
   2     792.3       53.5884        3.9804       50.5019       54.4822       0.893794       0.11211
   1     891.5        0.7459        1.3541        0.0000        1.3541       0.608252       0.02430
   0    1013.0        0.7487        1.3425        0.0000        1.3425       0.593807       0.00100



 Wavenumbers: 16000. - 22650. cm-1, ATM      1
 LEVEL PRESSURE   UPWARD FLUX   DIFDOWN FLUX  DIRDOWN FLUX  DOWNWARD FLUX   NET FLUX    HEATING RATE
          mb          W/m2          W/m2          W/m2        W/m2          W/m2       degree/day
  51    .06700       88.6569        0.0000      100.7153      100.7153      12.058357       0.00000
  50    .07753       88.6568        0.0003      100.7147      100.7151      12.058234       0.09883
  49    .09103       88.6567        0.0008      100.7140      100.7148      12.058055       0.11210
  48    0.1069       88.6566        0.0013      100.7131      100.7144      12.057815       0.12783
  47    0.1255       88.6564        0.0018      100.7121      100.7139      12.057493       0.14571
  46    0.1487       88.6563        0.0025      100.7108      100.7133      12.057020       0.17266
  45    0.1794       88.6561        0.0035      100.7089      100.7124      12.056279       0.20329
  44    0.2165       88.6559        0.0047      100.7066      100.7112      12.055275       0.22847
  43    0.2613       88.6558        0.0060      100.7037      100.7097      12.053912       0.25686
  42    0.3336       88.6557        0.0083      100.6987      100.7070      12.051321       0.30206
  41    0.4307       88.6556        0.0113      100.6918      100.7031      12.047416       0.33954
  40    0.5894       88.6559        0.0162      100.6797      100.6959      12.039969       0.39604
  39     1.339       88.6639        0.0393      100.6095      100.6488      11.984957       0.61934
  38     1.782       88.6733        0.0529      100.5585      100.6114      11.938106       0.89197
  37     2.292       88.6886        0.0686      100.4903      100.5589      11.870307       1.12293
  36     2.964       88.7155        0.0893      100.3868      100.4760      11.760517       1.37819
  35     3.853       88.7607        0.1165      100.2306      100.3471      11.586418       1.65223
  34     5.035       88.8301        0.1526      100.0045      100.1571      11.326924       1.85372
  33     6.613       88.9278        0.2007       99.6939       99.8946      10.966787       1.92529
  32     8.786       89.0545        0.2654       99.2881       99.5535      10.499011       1.81667
  31     11.80       89.2172        0.3578       98.7496       99.1074       9.890123       1.70469
  30     15.07       89.3704        0.4565       98.2198       98.6764       9.305942       1.50824
  29     18.79       89.5241        0.5678       97.6651       98.2329       8.708803       1.35390
  28     23.16       89.6812        0.6972       97.0671       97.7644       8.083120       1.20987
  27     28.12       89.8349        0.8447       96.4406       97.2853       7.450436       1.07552
  26     33.73       89.9693        1.0093       95.8179       96.8272       6.857905       0.89089
  25     40.54       90.0883        1.2075       95.1548       96.3623       6.273999       0.72440
  24     48.69       90.1899        1.4456       94.4420       95.8876       5.697697       0.59638
  23     57.69       90.2609        1.7062       93.7416       95.4478       5.186871       0.47882
  22     68.43       90.3019        2.0153       92.9954       95.0107       4.708786       0.37584
  21     81.20       90.2910        2.3823       92.2231       94.6055       4.314488       0.26055
  20     96.49       90.2228        2.8178       91.4110       94.2288       4.005976       0.17028
  19     114.6       90.1145        3.3316       90.5070       93.8386       3.724125       0.13160
  18     136.5       89.9682        3.9357       89.4803       93.4160       3.447760       0.10627
  17     162.9       89.7786        4.6484       88.3022       92.9506       3.171924       0.08817
  16     196.4       89.4984        5.5626       86.8606       92.4232       2.924836       0.06219
  15     218.7       89.3025        6.1569       85.9492       92.1060       2.803545       0.04605
  14     243.0       89.0851        6.7973       84.9789       91.7763       2.691189       0.03897
  13     269.0       88.8450        7.4851       83.9493       91.4344       2.589340       0.03304
  12     297.5       88.5819        8.2210       82.8589       91.0800       2.498117       0.02706
  11     328.5       88.2977        9.0079       81.6982       90.7061       2.408424       0.02439
  10     361.9       87.9928        9.8455       80.4669       90.3125       2.319668       0.02246
   9     398.1       87.6667       10.7361       79.1611       89.8972       2.230518       0.02077
   8     437.6       87.3203       11.6800       77.7777       89.4577       2.137378       0.01991
   7     480.5       86.9546       12.6778       76.3136       88.9914       2.036753       0.01976
   6     533.0       86.5136       13.8864       74.5359       88.4223       1.908686       0.02060
   5     589.8       86.0511       15.1654       72.6469       87.8123       1.761217       0.02189
   4     651.6       85.5707       16.5130       70.6456       87.1586       1.587856       0.02371
   3     718.7       85.0736       17.9275       68.5367       86.4642       1.390600       0.02479
   2     792.3       84.5629       19.4037       66.3287       85.7324       1.169486       0.02536
   1     891.5        3.8702        4.9420        0.0000        4.9420       1.071763       0.00832
   0    1013.0        3.8628        4.9226        0.0000        4.9226       1.059839       0.00083



 Wavenumbers: 22650. - 29000. cm-1, ATM      1
 LEVEL PRESSURE   UPWARD FLUX   DIFDOWN FLUX  DIRDOWN FLUX  DOWNWARD FLUX   NET FLUX    HEATING RATE
          mb          W/m2          W/m2          W/m2        W/m2          W/m2       degree/day
  51    .06700       37.5571        0.0000       38.0063       38.0063       0.449225       0.00000
  50    .07753       37.5569        0.0004       38.0057       38.0061       0.449225       0.00000
  49    .09103       37.5567        0.0009       38.0050       38.0059       0.449225      -0.00000
  48    0.1069       37.5565        0.0015       38.0042       38.0057       0.449225       0.00000
  47    0.1255       37.5562        0.0021       38.0033       38.0055       0.449225       0.00000
  46    0.1487       37.5559        0.0029       38.0022       38.0051       0.449225       0.00000
  45    0.1794       37.5555        0.0041       38.0006       38.0047       0.449225      -0.00000
  44    0.2165       37.5549        0.0054       37.9987       38.0041       0.449225       0.00000
  43    0.2613       37.5543        0.0070       37.9965       38.0035       0.449225      -0.00000
  42    0.3336       37.5533        0.0096       37.9928       38.0025       0.449225       0.00000
  41    0.4307       37.5519        0.0131       37.9880       38.0011       0.449225       0.00000
  40    0.5894       37.5496        0.0188       37.9800       37.9989       0.449225       0.00000
  39     1.339       37.5390        0.0457       37.9425       37.9882       0.449225      -0.00000
  38     1.782       37.5327        0.0615       37.9204       37.9820       0.449225      -0.00000
  37     2.292       37.5255        0.0798       37.8949       37.9747       0.449225       0.00000
  36     2.964       37.5160        0.1038       37.8614       37.9652       0.449225       0.00000
  35     3.853       37.5035        0.1355       37.8172       37.9527       0.449225       0.00000
  34     5.035       37.4869        0.1775       37.7586       37.9361       0.449225      -0.00000
  33     6.613       37.4647        0.2336       37.6803       37.9139       0.449225       0.00000
  32     8.786       37.4349        0.3091       37.5750       37.8841       0.449225       0.00000
  31     11.80       37.3923        0.4167       37.4249       37.8416       0.449225       0.00000
  30     15.07       37.3468        0.5319       37.2642       37.7960       0.449225      -0.00000
  29     18.79       37.2955        0.6615       37.0833       37.7448       0.449225       0.00000
  28     23.16       37.2359        0.8122       36.8730       37.6852       0.449225       0.00000
  27     28.12       37.1681        0.9836       36.6338       37.6174       0.449225       0.00000
  26     33.73       37.0927        1.1743       36.3677       37.5420       0.449225      -0.00000
  25     40.54       37.0023        1.4029       36.0486       37.4515       0.449225       0.00000
  24     48.69       36.8942        1.6762       35.6672       37.3434       0.449225       0.00000
  23     57.69       36.7766        1.9732       35.2527       37.2259       0.449225       0.00000
  22     68.43       36.6383        2.3226       34.7649       37.0876       0.449225       0.00000
  21     81.20       36.4759        2.7329       34.1922       36.9251       0.449225      -0.00000
  20     96.49       36.2857        3.2132       33.5217       36.7350       0.449225       0.00000
  19     114.6       36.0646        3.7715       32.7424       36.5138       0.449225       0.00000
  18     136.5       35.8089        4.4166       31.8416       36.2582       0.449225      -0.00000
  17     162.9       35.5134        5.1619       30.8008       35.9627       0.449225       0.00000
  16     196.4       35.1441        6.0927       29.5007       35.5934       0.449225       0.00000
  15     218.7       34.9100        6.6825       28.6767       35.3592       0.449225      -0.00000
  14     243.0       34.6627        7.3051       27.8068       35.1119       0.449225       0.00000
  13     269.0       34.4028        7.9587       26.8933       34.8521       0.449225      -0.00000
  12     297.5       34.1314        8.6413       25.9393       34.5806       0.449225       0.00000
  11     328.5       33.8483        9.3524       24.9451       34.2975       0.449225       0.00000
  10     361.9       33.5551       10.0883       23.9160       34.0043       0.449225       0.00000
   9     398.1       33.2523       10.8474       22.8541       33.7015       0.449225       0.00000
   8     437.6       32.9414       11.6262       21.7645       33.3906       0.449225      -0.00000
   7     480.5       32.6237       12.4208       20.6521       33.0729       0.449225       0.00000
   6     533.0       32.2534       13.3457       19.3569       32.7026       0.449225      -0.00000
   5     589.8       31.8782       14.2807       18.0467       32.3275       0.449225      -0.00000
   4     651.6       31.5011       15.2187       16.7316       31.9503       0.449225       0.00000
   3     718.7       31.1246       16.1525       15.4214       31.5739       0.449225       0.00000
   2     792.3       30.7521       17.0737       14.1276       31.2013       0.449225      -0.00000
   1     891.5        1.6369        2.0818        0.0000        2.0818       0.444886       0.00037
   0    1013.0        1.6215        2.0664        0.0000        2.0664       0.444886       0.00000



 Wavenumbers: 29000. - 38000. cm-1, ATM      1
 LEVEL PRESSURE   UPWARD FLUX   DIFDOWN FLUX  DIRDOWN FLUX  DOWNWARD FLUX   NET FLUX    HEATING RATE
          mb          W/m2          W/m2          W/m2        W/m2          W/m2       degree/day
  51    .06700        5.3758        0.0000       13.4026       13.4026       8.026805       0.00000
  50    .07753        5.3756        0.0003       13.3983       13.3986       8.023006       3.04486
  49    .09103        5.3753        0.0007       13.3921       13.3928       8.017486       3.45022
  48    0.1069        5.3750        0.0011       13.3840       13.3851       8.010108       3.92740
  47    0.1255        5.3747        0.0016       13.3733       13.3749       8.000261       4.46391
  46    0.1487        5.3743        0.0022       13.3579       13.3601       7.985817       5.26526
  45    0.1794        5.3737        0.0031       13.3340       13.3371       7.963413       6.15032
  44    0.2165        5.3730        0.0040       13.3024       13.3064       7.933389       6.82998
  43    0.2613        5.3723        0.0052       13.2604       13.2656       7.893327       7.55149
  42    0.3336        5.3711        0.0071       13.1833       13.1904       7.819306       8.63008
  41    0.4307        5.3696        0.0096       13.0729       13.0825       7.712912       9.25071
  40    0.5894        5.3673        0.0135       12.8796       12.8931       7.525827       9.94899
  39     1.339        5.3594        0.0300       11.9165       11.9465       6.587164      10.56763
  38     1.782        5.3565        0.0384       11.4399       11.4784       6.121910       8.85769
  37     2.292        5.3545        0.0475       10.9796       11.0271       5.672589       7.44192
  36     2.964        5.3539        0.0586       10.4786       10.5372       5.183339       6.14157
  35     3.853        5.3557        0.0723        9.9429       10.0152       4.659509       4.97124
  34     5.035        5.3608        0.0895        9.4007        9.4901       4.129339       3.78732
  33     6.613        5.3695        0.1112        8.8752        8.9865       3.616957       2.73919
  32     8.786        5.3813        0.1393        8.3786        8.5179       3.136633       1.86541
  31     11.80        5.3961        0.1780        7.8897        8.0676       2.671574       1.30202
  30     15.07        5.4093        0.2179        7.5108        7.7287       2.319338       0.90940
  29     18.79        5.4222        0.2614        7.1776        7.4390       2.016797       0.68595
  28     23.16        5.4347        0.3104        6.8664        7.1768       1.742113       0.53115
  27     28.12        5.4461        0.3647        6.5780        6.9427       1.496615       0.41733
  26     33.73        5.4536        0.4239        6.3195        6.7434       1.289772       0.31099
  25     40.54        5.4564        0.4938        6.0663        6.5601       1.103678       0.23087
  24     48.69        5.4540        0.5758        5.8128        6.3886       0.934623       0.17494
  23     57.69        5.4458        0.6634        5.5777        6.2411       0.795229       0.13066
  22     68.43        5.4301        0.7649        5.3379        6.1027       0.672617       0.09639
  21     81.20        5.4024        0.8828        5.0965        5.9793       0.576902       0.06325
  20     96.49        5.3614        1.0191        4.8476        5.8668       0.505422       0.03945
  19     114.6        5.3108        1.1740        4.5799        5.7538       0.443016       0.02914
  18     136.5        5.2521        1.3474        4.2891        5.6364       0.384324       0.02257
  17     162.9        5.1852        1.5402        3.9732        5.5134       0.328150       0.01796
  16     196.4        5.1001        1.7720        3.6080        5.3800       0.279903       0.01214
  15     218.7        5.0466        1.9136        3.3898        5.3034       0.256833       0.00876
  14     243.0        4.9912        2.0584        3.1686        5.2270       0.235833       0.00728
  13     269.0        4.9342        2.2054        2.9461        5.1515       0.217240       0.00603
  12     297.5        4.8762        2.3533        2.7239        5.0773       0.201088       0.00479
  11     328.5        4.8180        2.5009        2.5029        5.0038       0.185848       0.00414
  10     361.9        4.7601        2.6470        2.2846        4.9316       0.171548       0.00362
   9     398.1        4.7030        2.7904        2.0708        4.8612       0.158183       0.00311
   8     437.6        4.6472        2.9301        1.8626        4.7927       0.145472       0.00272
   7     480.5        4.5932        3.0647        1.6621        4.7268       0.133555       0.00234
   6     533.0        4.5342        3.2113        1.4437        4.6549       0.120726       0.00206
   5     589.8        4.4789        3.3484        1.2390        4.5873       0.108456       0.00182
   4     651.6        4.4279        3.4745        1.0500        4.5245       0.096579       0.00162
   3     718.7        4.3817        3.5889        0.8778        4.4667       0.085055       0.00145
   2     792.3        4.3406        3.6907        0.7237        4.4145       0.073860       0.00128
   1     891.5        0.2444        0.3111        0.0000        0.3111       0.066718       0.00061
   0    1013.0        0.2400        0.3059        0.0000        0.3059       0.065859       0.00006



 Wavenumbers: 38000. - 50000. cm-1, ATM      1
 LEVEL PRESSURE   UPWARD FLUX   DIFDOWN FLUX  DIRDOWN FLUX  DOWNWARD FLUX   NET FLUX    HEATING RATE
          mb          W/m2          W/m2          W/m2        W/m2          W/m2       degree/day
  51    .06700        0.0051        0.0000        0.8267        0.8267       0.821528       0.00000
  50    .07753        0.0051        0.0001        0.8242        0.8243       0.819196       1.86936
  49    .09103        0.0050        0.0002        0.8207        0.8209       0.815872       2.07705
  48    0.1069        0.0049        0.0002        0.8162        0.8164       0.811514       2.31984
  47    0.1255        0.0048        0.0004        0.8103        0.8106       0.805801       2.59006
  46    0.1487        0.0047        0.0005        0.8018        0.8023       0.797567       3.00143
  45    0.1794        0.0045        0.0007        0.7889        0.7896       0.785013       3.44648
  44    0.2165        0.0044        0.0009        0.7720        0.7729       0.768507       3.75474
  43    0.2613        0.0042        0.0011        0.7500        0.7511       0.746955       4.06246
  42    0.3336        0.0039        0.0015        0.7106        0.7121       0.708267       4.51071
  41    0.4307        0.0035        0.0019        0.6566        0.6584       0.654972       4.63387
  40    0.5894        0.0029        0.0024        0.5680        0.5704       0.567464       4.65357
  39     1.339        0.0015        0.0030        0.2422        0.2452       0.243720       3.64476
  38     1.782        0.0010        0.0026        0.1493        0.1519       0.150889       1.76735
  37     2.292        0.0007        0.0022        0.0924        0.0946       0.093932       0.94336
  36     2.964        0.0005        0.0018        0.0539        0.0557       0.055224       0.48589
  35     3.853        0.0003        0.0013        0.0295        0.0308       0.030502       0.23462
  34     5.035        0.0002        0.0010        0.0154        0.0164       0.016181       0.10230
  33     6.613        0.0001        0.0007        0.0073        0.0080       0.007912       0.04420
  32     8.786        0.0000        0.0004        0.0030        0.0034       0.003390       0.01756
  31     11.80        0.0000        0.0003        0.0010        0.0012       0.001199       0.00613
  30     15.07        0.0000        0.0001        0.0003        0.0005       0.000463       0.00190
  29     18.79        0.0000        0.0001        0.0001        0.0002       0.000182       0.00064
  28     23.16        0.0000        0.0000        0.0000        0.0001       0.000071       0.00022
  27     28.12        0.0000        0.0000        0.0000        0.0000       0.000028       0.00007
  26     33.73        0.0000        0.0000        0.0000        0.0000       0.000011       0.00002
  25     40.54        0.0000        0.0000        0.0000        0.0000       0.000005       0.00001
  24     48.69        0.0000        0.0000        0.0000        0.0000       0.000002       0.00000
  23     57.69        0.0000        0.0000        0.0000        0.0000       0.000001       0.00000
  22     68.43        0.0000        0.0000        0.0000        0.0000       0.000000       0.00000
  21     81.20        0.0000        0.0000        0.0000        0.0000       0.000000       0.00000
  20     96.49        0.0000        0.0000        0.0000        0.0000       0.000000       0.00000
  19     114.6        0.0000        0.0000        0.0000        0.0000       0.000000       0.00000
  18     136.5        0.0000        0.0000        0.0000        0.0000       0.000000       0.00000
  17     162.9        0.0000        0.0000        0.0000        0.0000       0.000000       0.00000
  16     196.4        0.0000        0.0000        0.0000        0.0000       0.000000       0.00000
  15     218.7        0.0000        0.0000        0.0000        0.0000       0.000000       0.00000
  14     243.0        0.0000        0.0000        0.0000        0.0000       0.000000       0.00000
  13     269.0        0.0000        0.0000        0.0000        0.0000       0.000000       0.00000
  12     297.5        0.0000        0.0000        0.0000        0.0000       0.000000       0.00000
  11     328.5        0.0000        0.0000        0.0000        0.0000       0.000000       0.00000
  10     361.9        0.0000        0.0000        0.0000        0.0000       0.000000       0.00000
   9     398.1        0.0000        0.0000        0.0000        0.0000       0.000000       0.00000
   8     437.6        0.0000        0.0000        0.0000        0.0000       0.000000       0.00000
   7     480.5        0.0000        0.0000        0.0000        0.0000       0.000000       0.00000
   6     533.0        0.0000        0.0000        0.0000        0.0000       0.000000       0.00000
   5     589.8        0.0000        0.0000        0.0000        0.0000       0.000000       0.00000
   4     651.6        0.0000        0.0000        0.0000        0.0000       0.000000       0.00000
   3     718.7        0.0000        0.0000        0.0000        0.0000       0.000000       0.00000
   2     792.3        0.0000        0.0000        0.0000        0.0000       0.000000       0.00000
   1     891.5        0.0000        0.0000        0.0000        0.0000       0.000000       0.00000
   0    1013.0        0.0000        0.0000        0.0000        0.0000       0.000000       0.00000



 Wavenumbers:   820. -  2600. cm-1, ATM      1
 LEVEL PRESSURE   UPWARD FLUX   DIFDOWN FLUX  DIRDOWN FLUX  DOWNWARD FLUX   NET FLUX    HEATING RATE
          mb          W/m2          W/m2          W/m2        W/m2          W/m2       degree/day
  51    .06700        0.9467        0.0000        3.8670        3.8670       2.920355       0.00000
  50    .07753        0.9467        0.0000        3.8643        3.8643       2.917638       2.17771
  49    .09103        0.9467        0.0000        3.8635        3.8635       2.916828       0.50640
  48    0.1069        0.9467        0.0000        3.8626        3.8626       2.915937       0.47417
  47    0.1255        0.9467        0.0000        3.8616        3.8616       2.914976       0.43561
  46    0.1487        0.9467        0.0000        3.8605        3.8605       2.913866       0.40439
  45    0.1794        0.9467        0.0000        3.8592        3.8592       2.912531       0.36650
  44    0.2165        0.9467        0.0000        3.8578        3.8578       2.911153       0.31348
  43    0.2613        0.9467        0.0000        3.8564        3.8564       2.909693       0.27524
  42    0.3336        0.9467        0.0000        3.8541        3.8541       2.907462       0.26015
  41    0.4307        0.9467        0.0000        3.8512        3.8512       2.904579       0.25065
  40    0.5894        0.9467        0.0000        3.8465        3.8465       2.899852       0.25136
  39     1.339        0.9467        0.0000        3.8251        3.8251       2.878475       0.24067
  38     1.782        0.9467        0.0000        3.8133        3.8133       2.866660       0.22492
  37     2.292        0.9467        0.0000        3.8003        3.8003       2.853597       0.21636
  36     2.964        0.9467        0.0000        3.7841        3.7841       2.837466       0.20250
  35     3.853        0.9467        0.0000        3.7642        3.7642       2.817548       0.18902
  34     5.035        0.9467        0.0000        3.7395        3.7395       2.792853       0.17641
  33     6.613        0.9467        0.0000        3.7090        3.7090       2.762312       0.16327
  32     8.786        0.9467        0.0000        3.6726        3.6726       2.725911       0.14137
  31     11.80        0.9467        0.0000        3.6320        3.6320       2.685306       0.11368
  30     15.07        0.9467        0.0000        3.6016        3.6016       2.654909       0.07848
  29     18.79        0.9467        0.0000        3.5777        3.5777       2.630998       0.05422
  28     23.16        0.9468        0.0000        3.5564        3.5564       2.609627       0.04132
  27     28.12        0.9468        0.0000        3.5348        3.5348       2.588061       0.03666
  26     33.73        0.9468        0.0000        3.5118        3.5118       2.565006       0.03466
  25     40.54        0.9468        0.0000        3.4849        3.4849       2.538091       0.03339
  24     48.69        0.9469        0.0000        3.4537        3.4537       2.506805       0.03238
  23     57.69        0.9469        0.0000        3.4210        3.4210       2.474094       0.03066
  22     68.43        0.9470        0.0000        3.3844        3.3844       2.437463       0.02880
  21     81.20        0.9470        0.0000        3.3441        3.3441       2.397111       0.02666
  20     96.49        0.9471        0.0000        3.2998        3.2998       2.352679       0.02452
  19     114.6        0.9472        0.0000        3.2506        3.2507       2.303449       0.02299
  18     136.5        0.9473        0.0000        3.1936        3.1936       2.246284       0.02198
  17     162.9        0.9475        0.0000        3.1181        3.1181       2.170583       0.02420
  16     196.4        0.9480        0.0000        3.0090        3.0090       2.061014       0.02758
  15     218.7        0.9483        0.0000        2.9420        2.9420       1.993728       0.02555
  14     243.0        0.9487        0.0000        2.8605        2.8605       1.911752       0.02843
  13     269.0        0.9495        0.0000        2.7419        2.7420       1.792479       0.03869
  12     297.5        0.9508        0.0000        2.5729        2.5729       1.622133       0.05052
  11     328.5        0.9528        0.0000        2.3602        2.3602       1.407457       0.05837
  10     361.9        0.9558        0.0000        2.1524        2.1524       1.196665       0.05333
   9     398.1        0.9601        0.0000        1.9974        1.9974       1.037382       0.03711
   8     437.6        0.9660        0.0000        1.8835        1.8835       0.917524       0.02563
   7     480.5        0.9745        0.0000        1.7734        1.7735       0.798974       0.02328
   6     533.0        0.9883        0.0000        1.6397        1.6398       0.651440       0.02373
   5     589.8        1.0082        0.0000        1.5068        1.5069       0.498696       0.02267
   4     651.6        1.0375        0.0000        1.3807        1.3807       0.343274       0.02125
   3     718.7        1.0767        0.0000        1.2680        1.2681       0.191383       0.01909
   2     792.3        1.1261        0.0000        1.1659        1.1660       0.039928       0.01737
   1     891.5        0.0016        0.0073        0.0000        0.0073       0.005734       0.00291
   0    1013.0        0.0017        0.0067        0.0000        0.0067       0.005027       0.00005

  Modules and versions used in this calculation:

       rrtmg_sw.1col.f90:  $Revision$                    rrtmg_sw_init.f90:  $Revision$        
     rrtmgsw_cldprop.f90:  $Revision$                  rrtmgsw_cldprmc.f90:  NOT USED          
     rrtmg_sw_reftra.f90:  $Revision$                  rrtmg_sw_spcvrt.f90:  NOT USED          
     rrtmg_sw_spcvmc.f90:  NOT USED                    rrtmgsw_setcoef.f90:  NOT USED          
     rrtmg_sw_taumol.f90:  $Revision$                  rrtmg_sw_vrtqdr.f90:  NOT USED          
                rrtatm.f:  NOT USED                             util_xxx.f:  NOT USED          
                 extra.f:  NOT USED                       rrtmg_sw_k_g.f90:  $Revision$        

