

 Wavenumbers:   820. - 50000. cm-1, ATM      1
 LEVEL PRESSURE   UPWARD FLUX   DIFDOWN FLUX  DIRDOWN FLUX  DOWNWARD FLUX   NET FLUX    HEATING RATE
          mb          W/m2          W/m2          W/m2        W/m2          W/m2       degree/day
  51    .06700      253.5519        0.0000      397.8738      397.8738     144.321864       0.00000
  50    .07753      253.5513        0.0012      397.8577      397.8589     144.307574      11.45428
  49    .09103      253.5506        0.0026      397.8418      397.8445     144.293886       8.55527
  48    0.1069      253.5498        0.0043      397.8230      397.8273     144.277539       8.70156
  47    0.1255      253.5488        0.0063      397.7997      397.8059     144.257098       9.26706
  46    0.1487      253.5477        0.0087      397.7676      397.7764     144.228643      10.37218
  45    0.1794      253.5462        0.0121      397.7205      397.7326     144.186355      11.60904
  44    0.2165      253.5445        0.0160      397.6602      397.6762     144.131712      12.43016
  43    0.2613      253.5426        0.0206      397.5829      397.6035     144.060924      13.34330
  42    0.3336      253.5397        0.0283      397.4449      397.4732     143.933503      14.85610
  41    0.4307      253.5360        0.0383      397.2524      397.2907     143.754660      15.54991
  40    0.5894      253.5307        0.0544      396.9253      396.9797     143.448996      16.25483
  39     1.339      253.5171        0.1264      395.4254      395.5518     142.034674      15.92270
  38     1.782      253.5168        0.1668      394.7288      394.8956     141.378785      12.48708
  37     2.292      253.5232        0.2128      394.0572      394.2699     140.746733      10.46843
  36     2.964      253.5417        0.2724      393.3007      393.5731     140.031479       8.97859
  35     3.853      253.5800        0.3505      392.4318      392.7823     139.202282       7.86923
  34     5.035      253.6447        0.4531      391.4441      391.8972     138.252480       6.78500
  33     6.613      253.7388        0.5891      390.3268      390.9159     137.177078       5.74910
  32     8.786      253.8600        0.7710      389.0624      389.8334     135.973371       4.67476
  31     11.80      254.0100        1.0291      387.5500      388.5791     134.569129       3.93143
  30     15.07      254.1436        1.3041      386.1556      387.4597     133.316115       3.23504
  29     18.79      254.2700        1.6122      384.7502      386.3624     132.092433       2.77446
  28     23.16      254.3894        1.9693      383.2686      385.2379     130.848460       2.40544
  27     28.12      254.4931        2.3743      381.7329      384.1071     129.614083       2.09836
  26     33.73      254.5607        2.8242      380.1982      383.0224     128.461637       1.73273
  25     40.54      254.5866        3.3639      378.5384      381.9022     127.315668       1.42170
  24     48.69      254.5642        4.0087      376.7214      380.7302     126.166022       1.18970
  23     57.69      254.4882        4.7105      374.8959      379.6064     125.118163       0.98221
  22     68.43      254.3428        5.5379      372.8999      378.4378     124.095024       0.80432
  21     81.20      254.0935        6.5132      370.7496      377.2628     123.169310       0.61170
  20     96.49      253.7280        7.6608      368.4056      376.0664     122.338357       0.45863
  19     114.6      253.2723        9.0014      365.7513      374.7527     121.480438       0.40059
  18     136.5      252.7178       10.5587      362.7231      373.2819     120.564105       0.35235
  17     162.9      252.0505       12.3695      359.1748      371.5443     119.493838       0.34210
  16     196.4      251.1588       14.6532      354.5718      369.2251     118.066276       0.35933
  15     218.7      250.5700       16.1143      351.4437      367.5580     116.988056       0.40936
  14     243.0      249.9358       17.6688      347.7111      365.3799     115.444078       0.53550
  13     269.0      249.2588       19.3148      342.9441      362.2589     113.000168       0.79279
  12     297.5      248.5425       21.0504      337.4137      358.4641     109.921543       0.91309
  11     328.5      247.7953       22.8771      331.1302      354.0074     106.212114       1.00858
  10     361.9      247.0262       24.7897      324.1219      348.9116     101.885395       1.09470
   9     398.1      246.2450       26.7875      316.6066      343.3941      97.149121       1.10345
   8     437.6      245.4715       28.8660      308.5895      337.4555      91.984043       1.10433
   7     480.5      244.7419       31.0195      299.9349      330.9544      86.212470       1.13351
   6     533.0      244.0057       33.5714      289.7021      323.2735      79.267859       1.11717
   5     589.8      243.4439       36.2066      279.3388      315.5454      72.101407       1.06374
   4     651.6      243.1813       38.9130      268.7786      307.6916      64.510338       1.03810
   3     718.7      243.3223       41.6819      258.2837      299.9655      56.643231       0.98868
   2     792.3      244.0034       44.4991      248.0774      292.5765      48.573086       0.92556
   1     891.5       72.0438      116.7664        0.0082      116.7747      44.730835       0.32696
   0    1013.0       72.0771      115.1246        0.0077      115.1323      43.055273       0.11634



 Wavenumbers:  2600. -  3250. cm-1, ATM      1
 LEVEL PRESSURE   UPWARD FLUX   DIFDOWN FLUX  DIRDOWN FLUX  DOWNWARD FLUX   NET FLUX    HEATING RATE
          mb          W/m2          W/m2          W/m2        W/m2          W/m2       degree/day
  51    .06700        0.9885        0.0000        3.5066        3.5066       2.518103       0.00000
  50    .07753        0.9885        0.0000        3.5066        3.5066       2.518095       0.00640
  49    .09103        0.9885        0.0000        3.5066        3.5066       2.518085       0.00627
  48    0.1069        0.9885        0.0000        3.5066        3.5066       2.518073       0.00613
  47    0.1255        0.9885        0.0000        3.5066        3.5066       2.518060       0.00599
  46    0.1487        0.9885        0.0000        3.5066        3.5066       2.518043       0.00607
  45    0.1794        0.9885        0.0000        3.5065        3.5065       2.518021       0.00624
  44    0.2165        0.9885        0.0000        3.5065        3.5065       2.517994       0.00611
  43    0.2613        0.9885        0.0000        3.5065        3.5065       2.517962       0.00598
  42    0.3336        0.9885        0.0000        3.5064        3.5064       2.517909       0.00615
  41    0.4307        0.9885        0.0000        3.5064        3.5064       2.517838       0.00618
  40    0.5894        0.9885        0.0000        3.5062        3.5062       2.517719       0.00633
  39     1.339        0.9885        0.0000        3.5055        3.5055       2.517020       0.00787
  38     1.782        0.9885        0.0000        3.5050        3.5050       2.516490       0.01011
  37     2.292        0.9885        0.0000        3.5043        3.5043       2.515797       0.01147
  36     2.964        0.9885        0.0000        3.5033        3.5033       2.514806       0.01245
  35     3.853        0.9885        0.0000        3.5019        3.5019       2.513429       0.01307
  34     5.035        0.9885        0.0000        3.5001        3.5001       2.511568       0.01329
  33     6.613        0.9885        0.0000        3.4977        3.4977       2.509158       0.01288
  32     8.786        0.9885        0.0000        3.4947        3.4947       2.506187       0.01154
  31     11.80        0.9885        0.0000        3.4911        3.4911       2.502551       0.01018
  30     15.07        0.9885        0.0000        3.4878        3.4878       2.499329       0.00832
  29     18.79        0.9885        0.0000        3.4848        3.4848       2.496264       0.00695
  28     23.16        0.9885        0.0000        3.4816        3.4816       2.493042       0.00623
  27     28.12        0.9885        0.0000        3.4779        3.4779       2.489421       0.00616
  26     33.73        0.9885        0.0000        3.4735        3.4735       2.484950       0.00672
  25     40.54        0.9885        0.0000        3.4671        3.4672       2.478618       0.00786
  24     48.69        0.9885        0.0000        3.4582        3.4583       2.469713       0.00922
  23     57.69        0.9886        0.0000        3.4472        3.4472       2.458651       0.01037
  22     68.43        0.9886        0.0000        3.4329        3.4330       2.444371       0.01123
  21     81.20        0.9886        0.0000        3.4152        3.4152       2.426613       0.01173
  20     96.49        0.9887        0.0000        3.3940        3.3941       2.405427       0.01169
  19     114.6        0.9887        0.0000        3.3692        3.3692       2.380478       0.01165
  18     136.5        0.9888        0.0001        3.3419        3.3420       2.353176       0.01050
  17     162.9        0.9890        0.0001        3.3129        3.3129       2.323972       0.00933
  16     196.4        0.9893        0.0001        3.2793        3.2794       2.290165       0.00851
  15     218.7        0.9895        0.0001        3.2578        3.2579       2.268321       0.00829
  14     243.0        0.9900        0.0001        3.2320        3.2321       2.242091       0.00910
  13     269.0        0.9907        0.0001        3.1968        3.1969       2.206261       0.01162
  12     297.5        0.9918        0.0001        3.1489        3.1491       2.157282       0.01453
  11     328.5        0.9934        0.0001        3.0821        3.0822       2.088736       0.01864
  10     361.9        0.9959        0.0001        2.9902        2.9904       1.994455       0.02385
   9     398.1        0.9995        0.0001        2.8715        2.8716       1.872146       0.02850
   8     437.6        1.0046        0.0002        2.7276        2.7278       1.723165       0.03185
   7     480.5        1.0124        0.0002        2.5595        2.5597       1.547286       0.03454
   6     533.0        1.0255        0.0002        2.3617        2.3619       1.336395       0.03393
   5     589.8        1.0448        0.0002        2.1649        2.1651       1.120251       0.03208
   4     651.6        1.0737        0.0002        1.9608        1.9609       0.887239       0.03186
   3     718.7        1.1151        0.0002        1.7593        1.7595       0.644382       0.03052
   2     792.3        1.1733        0.0002        1.5761        1.5762       0.402975       0.02769
   1     891.5        0.0204        0.3201        0.0000        0.3201       0.299718       0.00879
   0    1013.0        0.0223        0.2883        0.0000        0.2883       0.266013       0.00234



 Wavenumbers:  3250. -  4000. cm-1, ATM      1
 LEVEL PRESSURE   UPWARD FLUX   DIFDOWN FLUX  DIRDOWN FLUX  DOWNWARD FLUX   NET FLUX    HEATING RATE
          mb          W/m2          W/m2          W/m2        W/m2          W/m2       degree/day
  51    .06700        0.0081        0.0000        5.9117        5.9117       5.903551       0.00000
  50    .07753        0.0081        0.0000        5.9075        5.9075       5.899361       3.35808
  49    .09103        0.0081        0.0000        5.9050        5.9050       5.896919       1.52677
  48    0.1069        0.0081        0.0000        5.9032        5.9032       5.895052       0.99346
  47    0.1255        0.0081        0.0000        5.9014        5.9014       5.893294       0.79708
  46    0.1487        0.0081        0.0000        5.8995        5.8995       5.891405       0.68848
  45    0.1794        0.0081        0.0000        5.8974        5.8974       5.889257       0.58983
  44    0.2165        0.0081        0.0000        5.8952        5.8952       5.887140       0.48155
  43    0.2613        0.0081        0.0000        5.8931        5.8931       5.884981       0.40696
  42    0.3336        0.0081        0.0000        5.8899        5.8899       5.881823       0.36820
  41    0.4307        0.0081        0.0000        5.8861        5.8861       5.877986       0.33365
  40    0.5894        0.0081        0.0000        5.8803        5.8803       5.872183       0.30857
  39     1.339        0.0081        0.0000        5.8597        5.8597       5.851586       0.23189
  38     1.782        0.0081        0.0000        5.8513        5.8513       5.843161       0.16039
  37     2.292        0.0081        0.0000        5.8431        5.8431       5.834990       0.13533
  36     2.964        0.0081        0.0000        5.8334        5.8334       5.825350       0.12100
  35     3.853        0.0081        0.0000        5.8213        5.8213       5.813175       0.11555
  34     5.035        0.0081        0.0000        5.8052        5.8052       5.797080       0.11498
  33     6.613        0.0081        0.0000        5.7833        5.7834       5.775258       0.11666
  32     8.786        0.0081        0.0000        5.7531        5.7531       5.745057       0.11729
  31     11.80        0.0081        0.0000        5.7090        5.7090       5.700888       0.12366
  30     15.07        0.0081        0.0000        5.6615        5.6615       5.653423       0.12254
  29     18.79        0.0081        0.0000        5.6093        5.6094       5.601288       0.11821
  28     23.16        0.0081        0.0000        5.5524        5.5524       5.544362       0.11008
  27     28.12        0.0081        0.0000        5.4935        5.4935       5.485483       0.10009
  26     33.73        0.0081        0.0000        5.4348        5.4349       5.426794       0.08824
  25     40.54        0.0080        0.0001        5.3707        5.3708       5.362733       0.07948
  24     48.69        0.0080        0.0001        5.2985        5.2985       5.290500       0.07475
  23     57.69        0.0080        0.0001        5.2215        5.2216       5.213561       0.07212
  22     68.43        0.0080        0.0001        5.1318        5.1319       5.123900       0.07048
  21     81.20        0.0080        0.0001        5.0284        5.0285       5.020471       0.06834
  20     96.49        0.0080        0.0001        4.9122        4.9123       4.904337       0.06410
  19     114.6        0.0080        0.0001        4.7780        4.7782       4.770226       0.06262
  18     136.5        0.0079        0.0002        4.6285        4.6287       4.620747       0.05748
  17     162.9        0.0079        0.0002        4.4406        4.4407       4.432835       0.06006
  16     196.4        0.0079        0.0002        4.1548        4.1550       4.147160       0.07191
  15     218.7        0.0079        0.0002        3.9564        3.9566       3.948777       0.07532
  14     243.0        0.0078        0.0002        3.7055        3.7058       3.697939       0.08700
  13     269.0        0.0078        0.0002        3.3399        3.3401       3.332290       0.11861
  12     297.5        0.0078        0.0002        2.8954        2.8956       2.887778       0.13184
  11     328.5        0.0079        0.0002        2.4388        2.4390       2.431193       0.12414
  10     361.9        0.0079        0.0002        2.0269        2.0271       2.019173       0.10425
   9     398.1        0.0081        0.0002        1.6753        1.6755       1.667441       0.08195
   8     437.6        0.0083        0.0002        1.3592        1.3594       1.351074       0.06764
   7     480.5        0.0087        0.0002        1.0616        1.0618       1.053039       0.05853
   6     533.0        0.0097        0.0001        0.7543        0.7544       0.744775       0.04959
   5     589.8        0.0114        0.0001        0.4951        0.4952       0.483868       0.03873
   4     651.6        0.0147        0.0001        0.2943        0.2943       0.279630       0.02793
   3     718.7        0.0213        0.0001        0.1528        0.1529       0.131560       0.01861
   2     792.3        0.0348        0.0000        0.0658        0.0658       0.031051       0.01153
   1     891.5        0.0000        0.0043        0.0000        0.0043       0.004262       0.00228
   0    1013.0        0.0001        0.0010        0.0000        0.0010       0.000961       0.00023



 Wavenumbers:  4000. -  4650. cm-1, ATM      1
 LEVEL PRESSURE   UPWARD FLUX   DIFDOWN FLUX  DIRDOWN FLUX  DOWNWARD FLUX   NET FLUX    HEATING RATE
          mb          W/m2          W/m2          W/m2        W/m2          W/m2       degree/day
  51    .06700        3.5117        0.0000        6.9421        6.9421       3.430365       0.00000
  50    .07753        3.5117        0.0000        6.9421        6.9421       3.430364       0.00079
  49    .09103        3.5117        0.0000        6.9421        6.9421       3.430362       0.00078
  48    0.1069        3.5117        0.0000        6.9421        6.9421       3.430361       0.00076
  47    0.1255        3.5117        0.0000        6.9421        6.9421       3.430359       0.00074
  46    0.1487        3.5117        0.0000        6.9421        6.9421       3.430357       0.00075
  45    0.1794        3.5117        0.0000        6.9421        6.9421       3.430354       0.00077
  44    0.2165        3.5117        0.0000        6.9421        6.9421       3.430351       0.00076
  43    0.2613        3.5117        0.0000        6.9420        6.9420       3.430347       0.00074
  42    0.3336        3.5117        0.0000        6.9420        6.9420       3.430341       0.00076
  41    0.4307        3.5117        0.0000        6.9420        6.9420       3.430332       0.00077
  40    0.5894        3.5117        0.0000        6.9420        6.9420       3.430317       0.00079
  39     1.339        3.5117        0.0000        6.9419        6.9419       3.430228       0.00100
  38     1.782        3.5117        0.0000        6.9418        6.9419       3.430159       0.00132
  37     2.292        3.5117        0.0000        6.9418        6.9418       3.430065       0.00155
  36     2.964        3.5117        0.0000        6.9416        6.9416       3.429926       0.00175
  35     3.853        3.5117        0.0000        6.9414        6.9414       3.429719       0.00196
  34     5.035        3.5117        0.0000        6.9411        6.9411       3.429414       0.00218
  33     6.613        3.5117        0.0000        6.9406        6.9407       3.428966       0.00240
  32     8.786        3.5117        0.0000        6.9399        6.9400       3.428305       0.00257
  31     11.80        3.5117        0.0001        6.9389        6.9389       3.427269       0.00290
  30     15.07        3.5117        0.0001        6.9377        6.9377       3.426057       0.00313
  29     18.79        3.5117        0.0001        6.9362        6.9363       3.424596       0.00331
  28     23.16        3.5117        0.0001        6.9343        6.9344       3.422788       0.00350
  27     28.12        3.5117        0.0001        6.9321        6.9323       3.420609       0.00371
  26     33.73        3.5117        0.0001        6.9294        6.9296       3.417933       0.00402
  25     40.54        3.5117        0.0002        6.9258        6.9260       3.414323       0.00448
  24     48.69        3.5117        0.0002        6.9210        6.9212       3.409541       0.00495
  23     57.69        3.5117        0.0002        6.9154        6.9156       3.403910       0.00528
  22     68.43        3.5117        0.0003        6.9083        6.9086       3.396904       0.00551
  21     81.20        3.5118        0.0003        6.8998        6.9001       3.388327       0.00567
  20     96.49        3.5119        0.0004        6.8894        6.8899       3.377953       0.00573
  19     114.6        3.5121        0.0005        6.8765        6.8770       3.364941       0.00608
  18     136.5        3.5123        0.0006        6.8610        6.8616       3.349213       0.00605
  17     162.9        3.5128        0.0007        6.8417        6.8424       3.329589       0.00627
  16     196.4        3.5135        0.0008        6.8147        6.8155       3.301965       0.00695
  15     218.7        3.5142        0.0009        6.7948        6.7958       3.281552       0.00775
  14     243.0        3.5152        0.0010        6.7698        6.7708       3.255587       0.00901
  13     269.0        3.5168        0.0011        6.7349        6.7360       3.219152       0.01182
  12     297.5        3.5193        0.0012        6.6869        6.6881       3.168846       0.01492
  11     328.5        3.5227        0.0014        6.6194        6.6207       3.098035       0.01925
  10     361.9        3.5273        0.0015        6.5295        6.5310       3.003688       0.02387
   9     398.1        3.5333        0.0016        6.4202        6.4218       2.888540       0.02683
   8     437.6        3.5414        0.0018        6.2962        6.2979       2.756537       0.02822
   7     480.5        3.5527        0.0019        6.1555        6.1574       2.604707       0.02982
   6     533.0        3.5712        0.0021        5.9675        5.9696       2.398361       0.03319
   5     589.8        3.5986        0.0022        5.7368        5.7390       2.140359       0.03830
   4     651.6        3.6396        0.0024        5.4662        5.4686       1.829036       0.04257
   3     718.7        3.6982        0.0025        5.1912        5.1937       1.495535       0.04191
   2     792.3        3.7795        0.0027        4.9395        4.9422       1.162723       0.03817
   1     891.5        0.0539        1.0700        0.0002        1.0701       1.016219       0.01247
   0    1013.0        0.0560        1.0220        0.0002        1.0222       0.966130       0.00348



 Wavenumbers:  4650. -  5150. cm-1, ATM      1
 LEVEL PRESSURE   UPWARD FLUX   DIFDOWN FLUX  DIRDOWN FLUX  DOWNWARD FLUX   NET FLUX    HEATING RATE
          mb          W/m2          W/m2          W/m2        W/m2          W/m2       degree/day
  51    .06700        2.4621        0.0000        6.5710        6.5710       4.108937       0.00000
  50    .07753        2.4621        0.0000        6.5708        6.5708       4.108701       0.18887
  49    .09103        2.4621        0.0000        6.5705        6.5705       4.108407       0.18362
  48    0.1069        2.4621        0.0000        6.5701        6.5701       4.108073       0.17806
  47    0.1255        2.4621        0.0000        6.5697        6.5697       4.107692       0.17238
  46    0.1487        2.4621        0.0000        6.5693        6.5693       4.107219       0.17268
  45    0.1794        2.4621        0.0000        6.5686        6.5686       4.106582       0.17474
  44    0.2165        2.4621        0.0000        6.5679        6.5679       4.105844       0.16788
  43    0.2613        2.4621        0.0000        6.5670        6.5670       4.104991       0.16078
  42    0.3336        2.4621        0.0000        6.5657        6.5657       4.103628       0.15894
  41    0.4307        2.4621        0.0000        6.5640        6.5640       4.101906       0.14971
  40    0.5894        2.4621        0.0000        6.5613        6.5613       4.099290       0.13913
  39     1.339        2.4621        0.0000        6.5516        6.5516       4.089512       0.11008
  38     1.782        2.4621        0.0000        6.5473        6.5473       4.085296       0.08027
  37     2.292        2.4620        0.0000        6.5434        6.5435       4.081409       0.06438
  36     2.964        2.4620        0.0000        6.5395        6.5395       4.077454       0.04965
  35     3.853        2.4620        0.0000        6.5355        6.5356       4.073510       0.03743
  34     5.035        2.4620        0.0000        6.5315        6.5315       4.069506       0.02860
  33     6.613        2.4620        0.0000        6.5271        6.5271       4.065109       0.02351
  32     8.786        2.4620        0.0001        6.5216        6.5216       4.059608       0.02136
  31     11.80        2.4620        0.0001        6.5135        6.5136       4.051520       0.02264
  30     15.07        2.4620        0.0001        6.5041        6.5042       4.042138       0.02422
  29     18.79        2.4620        0.0001        6.4925        6.4926       4.030604       0.02615
  28     23.16        2.4621        0.0001        6.4779        6.4780       4.015987       0.02827
  27     28.12        2.4621        0.0002        6.4599        6.4601       3.997977       0.03062
  26     33.73        2.4621        0.0002        6.4384        6.4386       3.976499       0.03229
  25     40.54        2.4622        0.0003        6.4112        6.4115       3.949309       0.03373
  24     48.69        2.4623        0.0003        6.3775        6.3778       3.915580       0.03490
  23     57.69        2.4624        0.0004        6.3404        6.3407       3.878371       0.03488
  22     68.43        2.4625        0.0004        6.2971        6.2976       3.835020       0.03408
  21     81.20        2.4628        0.0005        6.2483        6.2488       3.785983       0.03240
  20     96.49        2.4631        0.0006        6.1948        6.1954       3.732307       0.02963
  19     114.6        2.4636        0.0007        6.1381        6.1388       3.675253       0.02664
  18     136.5        2.4643        0.0008        6.0790        6.0798       3.615569       0.02295
  17     162.9        2.4652        0.0010        6.0160        6.0170       3.551808       0.02038
  16     196.4        2.4667        0.0012        5.9399        5.9410       3.474327       0.01950
  15     218.7        2.4679        0.0013        5.8896        5.8909       3.423015       0.01948
  14     243.0        2.4695        0.0014        5.8322        5.8336       3.364118       0.02043
  13     269.0        2.4717        0.0016        5.7624        5.7640       3.292217       0.02332
  12     297.5        2.4750        0.0017        5.6767        5.6784       3.203484       0.02632
  11     328.5        2.4793        0.0019        5.5726        5.5745       3.095121       0.02946
  10     361.9        2.4853        0.0020        5.4473        5.4494       2.964086       0.03315
   9     398.1        2.4932        0.0022        5.2995        5.3017       2.808448       0.03626
   8     437.6        2.5039        0.0024        5.1275        5.1298       2.625908       0.03903
   7     480.5        2.5185        0.0025        4.9290        4.9315       2.412965       0.04182
   6     533.0        2.5417        0.0027        4.6794        4.6821       2.140407       0.04385
   5     589.8        2.5741        0.0029        4.4188        4.4216       1.847517       0.04347
   4     651.6        2.6203        0.0030        4.1521        4.1551       1.534771       0.04277
   3     718.7        2.6836        0.0032        3.8929        3.8961       1.212520       0.04050
   2     792.3        2.7687        0.0033        3.6469        3.6502       0.881511       0.03796
   1     891.5        0.0391        0.7737        0.0001        0.7738       0.734676       0.01250
   0    1013.0        0.0412        0.7280        0.0001        0.7281       0.686855       0.00332



 Wavenumbers:  5150. -  6150. cm-1, ATM      1
 LEVEL PRESSURE   UPWARD FLUX   DIFDOWN FLUX  DIRDOWN FLUX  DOWNWARD FLUX   NET FLUX    HEATING RATE
          mb          W/m2          W/m2          W/m2        W/m2          W/m2       degree/day
  51    .06700        6.0785        0.0000       16.4735       16.4735      10.395055       0.00000
  50    .07753        6.0785        0.0000       16.4735       16.4735      10.395020       0.02764
  49    .09103        6.0785        0.0000       16.4734       16.4734      10.394975       0.02813
  48    0.1069        6.0785        0.0000       16.4734       16.4734      10.394922       0.02862
  47    0.1255        6.0785        0.0000       16.4733       16.4733      10.394858       0.02907
  46    0.1487        6.0785        0.0000       16.4732       16.4732      10.394774       0.03062
  45    0.1794        6.0785        0.0000       16.4731       16.4731      10.394654       0.03272
  44    0.2165        6.0784        0.0000       16.4730       16.4730      10.394508       0.03334
  43    0.2613        6.0784        0.0000       16.4728       16.4728      10.394329       0.03379
  42    0.3336        6.0784        0.0000       16.4725       16.4725      10.394023       0.03567
  41    0.4307        6.0784        0.0000       16.4720       16.4720      10.393603       0.03648
  40    0.5894        6.0784        0.0000       16.4713       16.4713      10.392901       0.03731
  39     1.339        6.0784        0.0000       16.4679       16.4679      10.389490       0.03841
  38     1.782        6.0784        0.0000       16.4659       16.4659      10.387488       0.03811
  37     2.292        6.0784        0.0001       16.4635       16.4636      10.385193       0.03800
  36     2.964        6.0784        0.0001       16.4605       16.4606      10.382219       0.03734
  35     3.853        6.0784        0.0001       16.4567       16.4568      10.378359       0.03664
  34     5.035        6.0784        0.0001       16.4516       16.4517      10.373351       0.03577
  33     6.613        6.0784        0.0002       16.4451       16.4453      10.366875       0.03462
  32     8.786        6.0784        0.0003       16.4367       16.4369      10.358541       0.03237
  31     11.80        6.0783        0.0003       16.4254       16.4257      10.347354       0.03132
  30     15.07        6.0783        0.0004       16.4141       16.4146      10.336225       0.02873
  29     18.79        6.0783        0.0005       16.4024       16.4030      10.324653       0.02624
  28     23.16        6.0783        0.0007       16.3900       16.3906      10.312327       0.02383
  27     28.12        6.0783        0.0008       16.3771       16.3779      10.299586       0.02166
  26     33.73        6.0783        0.0010       16.3641       16.3651      10.286762       0.01928
  25     40.54        6.0784        0.0012       16.3502       16.3513      10.272990       0.01709
  24     48.69        6.0784        0.0014       16.3354       16.3368      10.258339       0.01516
  23     57.69        6.0785        0.0016       16.3211       16.3227      10.244226       0.01323
  22     68.43        6.0786        0.0020       16.3062       16.3082      10.229569       0.01152
  21     81.20        6.0788        0.0023       16.2903       16.2926      10.213839       0.01039
  20     96.49        6.0790        0.0028       16.2726       16.2754      10.196350       0.00965
  19     114.6        6.0793        0.0033       16.2521       16.2553      10.176027       0.00949
  18     136.5        6.0797        0.0039       16.2245       16.2284      10.148740       0.01049
  17     162.9        6.0802        0.0046       16.1747       16.1793      10.099176       0.01584
  16     196.4        6.0809        0.0055       16.0518       16.0574       9.976494       0.03088
  15     218.7        6.0814        0.0061       15.8984       15.9045       9.823092       0.05824
  14     243.0        6.0821        0.0067       15.6153       15.6220       9.539890       0.09822
  13     269.0        6.0831        0.0073       15.1390       15.1463       9.063215       0.15463
  12     297.5        6.0845        0.0079       14.5779       14.5857       8.501221       0.16668
  11     328.5        6.0867        0.0084       13.8780       13.8864       7.799704       0.19074
  10     361.9        6.0900        0.0089       13.0814       13.0903       7.000355       0.20224
   9     398.1        6.0947        0.0093       12.2728       12.2822       6.187450       0.18939
   8     437.6        6.1018        0.0097       11.4776       11.4873       5.385528       0.17146
   7     480.5        6.1127        0.0101       10.7300       10.7401       4.627406       0.14889
   6     533.0        6.1322        0.0106       10.0326       10.0432       3.910972       0.11525
   5     589.8        6.1634        0.0112        9.5050        9.5162       3.352745       0.08286
   4     651.6        6.2139        0.0118        9.0814        9.0932       2.879306       0.06474
   3     718.7        6.2916        0.0126        8.7024        8.7151       2.423465       0.05729
   2     792.3        6.4067        0.0135        8.3379        8.3515       1.944725       0.05491
   1     891.5        0.1033        1.8316        0.0003        1.8319       1.728610       0.01839
   0    1013.0        0.1060        1.7655        0.0003        1.7657       1.659741       0.00478



 Wavenumbers:  6150. -  7700. cm-1, ATM      1
 LEVEL PRESSURE   UPWARD FLUX   DIFDOWN FLUX  DIRDOWN FLUX  DOWNWARD FLUX   NET FLUX    HEATING RATE
          mb          W/m2          W/m2          W/m2        W/m2          W/m2       degree/day
  51    .06700        9.4905        0.0000       30.4684       30.4684      20.977906       0.00000
  50    .07753        9.4905        0.0000       30.4683       30.4683      20.977854       0.04144
  49    .09103        9.4905        0.0000       30.4683       30.4683      20.977788       0.04174
  48    0.1069        9.4905        0.0000       30.4682       30.4682      20.977709       0.04202
  47    0.1255        9.4905        0.0000       30.4681       30.4681      20.977616       0.04227
  46    0.1487        9.4905        0.0000       30.4680       30.4680      20.977495       0.04411
  45    0.1794        9.4905        0.0000       30.4678       30.4678      20.977324       0.04669
  44    0.2165        9.4905        0.0000       30.4676       30.4676      20.977117       0.04715
  43    0.2613        9.4905        0.0000       30.4673       30.4673      20.976866       0.04744
  42    0.3336        9.4905        0.0000       30.4669       30.4669      20.976439       0.04974
  41    0.4307        9.4904        0.0000       30.4663       30.4663      20.975858       0.05052
  40    0.5894        9.4904        0.0001       30.4653       30.4653      20.974890       0.05146
  39     1.339        9.4904        0.0002       30.4604       30.4606      20.970206       0.05273
  38     1.782        9.4903        0.0002       30.4576       30.4578      20.967457       0.05235
  37     2.292        9.4903        0.0003       30.4543       30.4546      20.964298       0.05231
  36     2.964        9.4902        0.0003       30.4501       30.4504      20.960191       0.05156
  35     3.853        9.4901        0.0005       30.4445       30.4450      20.954834       0.05084
  34     5.035        9.4900        0.0006       30.4373       30.4379      20.947834       0.05000
  33     6.613        9.4899        0.0008       30.4278       30.4286      20.938686       0.04890
  32     8.786        9.4897        0.0010       30.4154       30.4164      20.926733       0.04642
  31     11.80        9.4894        0.0014       30.3984       30.3998      20.910347       0.04588
  30     15.07        9.4891        0.0018       30.3810       30.3828      20.893633       0.04315
  29     18.79        9.4888        0.0022       30.3623       30.3645      20.875732       0.04059
  28     23.16        9.4884        0.0027       30.3417       30.3445      20.856048       0.03806
  27     28.12        9.4880        0.0033       30.3196       30.3229      20.834947       0.03587
  26     33.73        9.4875        0.0040       30.2965       30.3005      20.813026       0.03296
  25     40.54        9.4869        0.0048       30.2708       30.2756      20.788687       0.03020
  24     48.69        9.4861        0.0058       30.2423       30.2480      20.761906       0.02771
  23     57.69        9.4853        0.0068       30.2139       30.2207      20.735336       0.02491
  22     68.43        9.4844        0.0081       30.1834       30.1915      20.707055       0.02223
  21     81.20        9.4833        0.0096       30.1500       30.1596      20.676318       0.02031
  20     96.49        9.4819        0.0114       30.1126       30.1240      20.642088       0.01889
  19     114.6        9.4803        0.0135       30.0695       30.0830      20.602686       0.01840
  18     136.5        9.4785        0.0160       30.0139       30.0300      20.551503       0.01968
  17     162.9        9.4763        0.0190       29.9225       29.9415      20.465267       0.02756
  16     196.4        9.4735        0.0229       29.7333       29.7562      20.282746       0.04594
  15     218.7        9.4718        0.0254       29.5259       29.5512      20.079472       0.07718
  14     243.0        9.4701        0.0280       29.1375       29.1654      19.695370       0.13322
  13     269.0        9.4687        0.0305       28.3800       28.4105      18.941745       0.24447
  12     297.5        9.4681        0.0328       27.3895       27.4224      17.954251       0.29288
  11     328.5        9.4690        0.0351       26.2257       26.2608      16.791897       0.31604
  10     361.9        9.4721        0.0373       24.8453       24.8826      15.410530       0.34950
   9     398.1        9.4788        0.0392       23.3471       23.3862      13.907479       0.35018
   8     437.6        9.4912        0.0409       21.7966       21.8375      12.346248       0.33380
   7     480.5        9.5139        0.0423       20.1977       20.2400      10.726062       0.31820
   6     533.0        9.5585        0.0437       18.4969       18.5407       8.982224       0.28053
   5     589.8        9.6331        0.0453       16.9754       17.0206       7.387545       0.23670
   4     651.6        9.7569        0.0468       15.6022       15.6489       5.892033       0.20452
   3     718.7        9.9489        0.0485       14.4232       14.4717       4.522780       0.17208
   2     792.3       10.2352        0.0505       13.4386       13.4891       3.253880       0.14553
   1     891.5        0.1660        2.8831        0.0004        2.8835       2.717508       0.04564
   0    1013.0        0.1733        2.7192        0.0004        2.7195       2.546268       0.01189



 Wavenumbers:  7700. -  8050. cm-1, ATM      1
 LEVEL PRESSURE   UPWARD FLUX   DIFDOWN FLUX  DIRDOWN FLUX  DOWNWARD FLUX   NET FLUX    HEATING RATE
          mb          W/m2          W/m2          W/m2        W/m2          W/m2       degree/day
  51    .06700        4.5198        0.0000        7.2006        7.2006       2.680811       0.00000
  50    .07753        4.5198        0.0000        7.2006        7.2006       2.680790       0.01662
  49    .09103        4.5198        0.0000        7.2005        7.2005       2.680764       0.01629
  48    0.1069        4.5198        0.0000        7.2005        7.2005       2.680734       0.01595
  47    0.1255        4.5198        0.0000        7.2005        7.2005       2.680700       0.01561
  46    0.1487        4.5198        0.0000        7.2004        7.2005       2.680656       0.01583
  45    0.1794        4.5198        0.0000        7.2004        7.2004       2.680597       0.01629
  44    0.2165        4.5198        0.0000        7.2003        7.2003       2.680527       0.01598
  43    0.2613        4.5198        0.0000        7.2003        7.2003       2.680443       0.01568
  42    0.3336        4.5198        0.0000        7.2001        7.2001       2.680306       0.01605
  41    0.4307        4.5199        0.0000        7.2000        7.2000       2.680123       0.01587
  40    0.5894        4.5199        0.0000        7.1997        7.1997       2.679825       0.01585
  39     1.339        4.5201        0.0001        7.1984        7.1985       2.678415       0.01587
  38     1.782        4.5202        0.0001        7.1977        7.1978       2.677587       0.01576
  37     2.292        4.5203        0.0001        7.1968        7.1969       2.676629       0.01587
  36     2.964        4.5205        0.0002        7.1957        7.1959       2.675371       0.01579
  35     3.853        4.5207        0.0002        7.1942        7.1944       2.673710       0.01576
  34     5.035        4.5210        0.0003        7.1922        7.1925       2.671505       0.01575
  33     6.613        4.5214        0.0003        7.1896        7.1899       2.668562       0.01573
  32     8.786        4.5219        0.0005        7.1860        7.1865       2.664600       0.01538
  31     11.80        4.5226        0.0006        7.1810        7.1816       2.658944       0.01584
  30     15.07        4.5234        0.0008        7.1755        7.1763       2.652885       0.01564
  29     18.79        4.5244        0.0010        7.1694        7.1704       2.646059       0.01548
  28     23.16        4.5254        0.0012        7.1623        7.1635       2.638111       0.01537
  27     28.12        4.5266        0.0014        7.1542        7.1557       2.629055       0.01539
  26     33.73        4.5280        0.0017        7.1452        7.1470       2.618966       0.01517
  25     40.54        4.5297        0.0021        7.1344        7.1365       2.606838       0.01505
  24     48.69        4.5317        0.0025        7.1215        7.1240       2.592307       0.01504
  23     57.69        4.5339        0.0030        7.1074        7.1104       2.576461       0.01485
  22     68.43        4.5366        0.0035        7.0909        7.0944       2.557741       0.01472
  21     81.20        4.5398        0.0041        7.0713        7.0755       2.535656       0.01459
  20     96.49        4.5437        0.0049        7.0484        7.0534       2.509638       0.01436
  19     114.6        4.5484        0.0058        7.0217        7.0275       2.479155       0.01423
  18     136.5        4.5539        0.0069        6.9906        6.9975       2.443572       0.01368
  17     162.9        4.5607        0.0082        6.9544        6.9626       2.401926       0.01331
  16     196.4        4.5696        0.0099        6.9087        6.9186       2.349028       0.01332
  15     218.7        4.5755        0.0109        6.8794        6.8904       2.314853       0.01297
  14     243.0        4.5821        0.0121        6.8481        6.8602       2.278154       0.01273
  13     269.0        4.5893        0.0134        6.8147        6.8281       2.238762       0.01278
  12     297.5        4.5974        0.0148        6.7791        6.7938       2.196436       0.01255
  11     328.5        4.6064        0.0162        6.7409        6.7572       2.150796       0.01241
  10     361.9        4.6165        0.0178        6.7002        6.7180       2.101513       0.01247
   9     398.1        4.6279        0.0195        6.6563        6.6758       2.047963       0.01248
   8     437.6        4.6407        0.0214        6.6089        6.6302       1.989475       0.01251
   7     480.5        4.6556        0.0233        6.5570        6.5803       1.924692       0.01272
   6     533.0        4.6755        0.0257        6.4915        6.5172       1.841641       0.01336
   5     589.8        4.6993        0.0283        6.4182        6.4465       1.747214       0.01402
   4     651.6        4.7278        0.0310        6.3359        6.3669       1.639027       0.01479
   3     718.7        4.7619        0.0339        6.2441        6.2780       1.516089       0.01545
   2     792.3        4.8020        0.0369        6.1437        6.1806       1.378673       0.01576
   1     891.5        0.0982        1.4094        0.0002        1.4096       1.311409       0.00572
   0    1013.0        0.0995        1.3852        0.0002        1.3854       1.285938       0.00177



 Wavenumbers:  8050. - 12850. cm-1, ATM      1
 LEVEL PRESSURE   UPWARD FLUX   DIFDOWN FLUX  DIRDOWN FLUX  DOWNWARD FLUX   NET FLUX    HEATING RATE
          mb          W/m2          W/m2          W/m2        W/m2          W/m2       degree/day
  51    .06700       59.4862        0.0000      100.8135      100.8135      41.327272       0.00000
  50    .07753       59.4862        0.0000      100.8135      100.8135      41.327272       0.00000
  49    .09103       59.4862        0.0001      100.8134      100.8135      41.327272       0.00000
  48    0.1069       59.4862        0.0001      100.8134      100.8135      41.327272      -0.00000
  47    0.1255       59.4862        0.0001      100.8133      100.8134      41.327272       0.00000
  46    0.1487       59.4861        0.0002      100.8132      100.8134      41.327272      -0.00000
  45    0.1794       59.4861        0.0003      100.8131      100.8134      41.327272       0.00000
  44    0.2165       59.4860        0.0004      100.8129      100.8133      41.327272       0.00000
  43    0.2613       59.4860        0.0005      100.8127      100.8132      41.327272       0.00000
  42    0.3336       59.4859        0.0007      100.8125      100.8131      41.327272      -0.00000
  41    0.4307       59.4857        0.0009      100.8121      100.8130      41.327272       0.00000
  40    0.5894       59.4855        0.0013      100.8115      100.8128      41.327272       0.00000
  39     1.339       59.4844        0.0032      100.8085      100.8117      41.327272       0.00000
  38     1.782       59.4838        0.0043      100.8068      100.8111      41.327272      -0.00000
  37     2.292       59.4831        0.0056      100.8047      100.8103      41.327272       0.00000
  36     2.964       59.4821        0.0073      100.8021      100.8094      41.327272       0.00000
  35     3.853       59.4808        0.0095      100.7986      100.8081      41.327272       0.00000
  34     5.035       59.4792        0.0125      100.7940      100.8064      41.327272      -0.00000
  33     6.613       59.4769        0.0164      100.7878      100.8042      41.327272      -0.00000
  32     8.786       59.4739        0.0218      100.7794      100.8012      41.327272       0.00000
  31     11.80       59.4696        0.0294      100.7674      100.7968      41.327272      -0.00000
  30     15.07       59.4649        0.0376      100.7546      100.7922      41.327272       0.00000
  29     18.79       59.4596        0.0469      100.7400      100.7869      41.327272       0.00000
  28     23.16       59.4535        0.0578      100.7230      100.7807      41.327272       0.00000
  27     28.12       59.4464        0.0702      100.7035      100.7737      41.327272       0.00000
  26     33.73       59.4385        0.0841      100.6817      100.7658      41.327272       0.00000
  25     40.54       59.4289        0.1010      100.6552      100.7562      41.327272      -0.00000
  24     48.69       59.4174        0.1213      100.6234      100.7447      41.327272      -0.00000
  23     57.69       59.4047        0.1437      100.5883      100.7319      41.327272       0.00000
  22     68.43       59.3895        0.1703      100.5464      100.7168      41.327272      -0.00000
  21     81.20       59.3714        0.2022      100.4965      100.6987      41.327272      -0.00000
  20     96.49       59.3498        0.2402      100.4370      100.6771      41.327272       0.00000
  19     114.6       59.3243        0.2853      100.3585      100.6438      41.319479       0.00364
  18     136.5       59.2941        0.3390      100.2634      100.6023      41.308272       0.00431
  17     162.9       59.2581        0.4030      100.1407      100.5436      41.285574       0.00726
  16     196.4       59.2115        0.4861       99.9505      100.4366      41.225121       0.01522
  15     218.7       59.1809        0.5407       99.7889      100.3296      41.148713       0.02901
  14     243.0       59.1482        0.6000       99.5472      100.1472      40.998984       0.05193
  13     269.0       59.1145        0.6640       99.1452       99.8092      40.694733       0.09870
  12     297.5       59.0811        0.7326       98.5975       99.3301      40.249003       0.13220
  11     328.5       59.0505        0.8063       97.8659       98.6721      39.621588       0.17059
  10     361.9       59.0264        0.8846       96.8848       97.7693      38.742957       0.22230
   9     398.1       59.0136        0.9674       95.6330       96.6004      37.586790       0.26936
   8     437.6       59.0212        1.0543       94.0655       95.1198      36.098641       0.31818
   7     480.5       59.0669        1.1444       92.0807       93.2252      34.158278       0.38108
   6     533.0       59.1877        1.2512       89.4449       90.6960      31.508310       0.42630
   5     589.8       59.4168        1.3618       86.5544       87.9162      28.499422       0.44662
   4     651.6       59.8166        1.4757       83.4174       84.8931      25.076518       0.46809
   3     718.7       60.4403        1.5938       80.2037       81.7975      21.357218       0.46741
   2     792.3       61.3528        1.7167       77.0811       78.7978      17.444998       0.44869
   1     891.5        3.9302       19.5206        0.0026       19.5231      15.592879       0.15761
   0    1013.0        4.0252       18.8589        0.0024       18.8613      14.836100       0.05255



 Wavenumbers: 12850. - 16000. cm-1, ATM      1
 LEVEL PRESSURE   UPWARD FLUX   DIFDOWN FLUX  DIRDOWN FLUX  DOWNWARD FLUX   NET FLUX    HEATING RATE
          mb          W/m2          W/m2          W/m2        W/m2          W/m2       degree/day
  51    .06700       44.9180        0.0000       63.1686       63.1686      18.250559       0.00000
  50    .07753       44.9180        0.0001       63.1677       63.1678      18.249777       0.62685
  49    .09103       44.9180        0.0001       63.1666       63.1668      18.248802       0.60953
  48    0.1069       44.9179        0.0002       63.1654       63.1656      18.247690       0.59145
  47    0.1255       44.9179        0.0003       63.1640       63.1643      18.246426       0.57335
  46    0.1487       44.9179        0.0004       63.1623       63.1627      18.244847       0.57547
  45    0.1794       44.9179        0.0006       63.1600       63.1606      18.242728       0.58177
  44    0.2165       44.9178        0.0008       63.1573       63.1581      18.240274       0.55815
  43    0.2613       44.9178        0.0011       63.1542       63.1553      18.237440       0.53424
  42    0.3336       44.9178        0.0015       63.1493       63.1508      18.232916       0.52746
  41    0.4307       44.9179        0.0020       63.1431       63.1451      18.227245       0.49310
  40    0.5894       44.9181        0.0029       63.1338       63.1367      18.218624       0.45844
  39     1.339       44.9206        0.0069       63.0956       63.1025      18.181952       0.41286
  38     1.782       44.9233        0.0093       63.0740       63.0834      18.160090       0.41623
  37     2.292       44.9276        0.0121       63.0477       63.0598      18.132203       0.46188
  36     2.964       44.9350        0.0158       63.0095       63.0253      18.090286       0.52618
  35     3.853       44.9473        0.0206       62.9533       62.9738      18.026521       0.60514
  34     5.035       44.9661        0.0269       62.8725       62.8995      17.933345       0.66561
  33     6.613       44.9925        0.0355       62.7621       62.7975      17.805041       0.68591
  32     8.786       45.0267        0.0469       62.6182       62.6652      17.638449       0.64698
  31     11.80       45.0708        0.0633       62.4284       62.4916      17.420805       0.60933
  30     15.07       45.1125        0.0808       62.2426       62.3234      17.210879       0.54199
  29     18.79       45.1545        0.1005       62.0493       62.1498      16.995310       0.48876
  28     23.16       45.1977        0.1235       61.8424       61.9660      16.768285       0.43899
  27     28.12       45.2402        0.1498       61.6278       61.7776      16.537380       0.39252
  26     33.73       45.2780        0.1791       61.4177       61.5968      16.318784       0.32867
  25     40.54       45.3123        0.2145       61.1983       61.4128      16.100501       0.27080
  24     48.69       45.3427        0.2571       60.9680       61.2251      15.882463       0.22564
  23     57.69       45.3653        0.3039       60.7478       61.0517      15.686382       0.18380
  22     68.43       45.3808        0.3595       60.5202       60.8797      15.498981       0.14732
  21     81.20       45.3833        0.4258       60.2938       60.7197      15.336333       0.10748
  20     96.49       45.3718        0.5048       60.0643       60.5691      15.197302       0.07674
  19     114.6       45.3576        0.5991       59.8078       60.4069      15.049284       0.06911
  18     136.5       45.3345        0.7108       59.5157       60.2265      14.891970       0.06049
  17     162.9       45.3012        0.8434       59.1770       60.0205      14.719235       0.05521
  16     196.4       45.2457        1.0150       58.7604       59.7755      14.529784       0.04769
  15     218.7       45.2049        1.1275       58.4948       59.6223      14.417434       0.04265
  14     243.0       45.1587        1.2495       58.2089       59.4584      14.299723       0.04083
  13     269.0       45.1072        1.3815       57.9006       59.2821      14.174852       0.04051
  12     297.5       45.0508        1.5238       57.5668       59.0906      14.039852       0.04004
  11     328.5       44.9909        1.6773       57.2005       58.8778      13.886929       0.04158
  10     361.9       44.9286        1.8421       56.7963       58.6384      13.709767       0.04482
   9     398.1       44.8655        2.0188       56.3475       58.3663      13.500816       0.04868
   8     437.6       44.8045        2.2078       55.8422       58.0500      13.245526       0.05458
   7     480.5       44.7511        2.4091       55.2625       57.6717      12.920601       0.06381
   6     533.0       44.7055        2.6550       54.4972       57.1521      12.446581       0.07625
   5     589.8       44.6822        2.9166       53.6307       56.5473      11.865134       0.08631
   4     651.6       44.6932        3.1934       52.6606       55.8540      11.160749       0.09633
   3     718.7       44.7465        3.4856       51.6100       55.0956      10.349077       0.10200
   2     792.3       44.8527        3.7931       50.5019       54.2950       9.442268       0.10400
   1     891.5       10.3526       19.2747        0.0017       19.2764       8.923774       0.04412
   0    1013.0       10.4344       19.0182        0.0016       19.0199       8.585495       0.02349



 Wavenumbers: 16000. - 22650. cm-1, ATM      1
 LEVEL PRESSURE   UPWARD FLUX   DIFDOWN FLUX  DIRDOWN FLUX  DOWNWARD FLUX   NET FLUX    HEATING RATE
          mb          W/m2          W/m2          W/m2        W/m2          W/m2       degree/day
  51    .06700       80.9879        0.0000      100.7153      100.7153      19.727408       0.00000
  50    .07753       80.9878        0.0003      100.7147      100.7151      19.727288       0.09600
  49    .09103       80.9876        0.0007      100.7140      100.7147      19.727114       0.10888
  48    0.1069       80.9875        0.0012      100.7131      100.7144      19.726881       0.12416
  47    0.1255       80.9873        0.0018      100.7121      100.7139      19.726568       0.14152
  46    0.1487       80.9871        0.0025      100.7108      100.7132      19.726108       0.16770
  45    0.1794       80.9869        0.0034      100.7089      100.7123      19.725389       0.19746
  44    0.2165       80.9867        0.0045      100.7066      100.7111      19.724414       0.22191
  43    0.2613       80.9865        0.0059      100.7037      100.7096      19.723090       0.24948
  42    0.3336       80.9862        0.0081      100.6987      100.7068      19.720574       0.29338
  41    0.4307       80.9860        0.0110      100.6918      100.7028      19.716781       0.32979
  40    0.5894       80.9860        0.0158      100.6797      100.6955      19.709547       0.38467
  39     1.339       80.9917        0.0384      100.6095      100.6479      19.656116       0.60154
  38     1.782       80.9995        0.0516      100.5585      100.6101      19.610612       0.86632
  37     2.292       81.0124        0.0670      100.4903      100.5572      19.544764       1.09061
  36     2.964       81.0357        0.0871      100.3868      100.4738      19.438137       1.33849
  35     3.853       81.0752        0.1136      100.2306      100.3442      19.269063       1.60455
  34     5.035       81.1362        0.1489      100.0045      100.1533      19.017077       1.80008
  33     6.613       81.2223        0.1958       99.6939       99.8897      18.667402       1.86937
  32     8.786       81.3337        0.2589       99.2881       99.5470      18.213282       1.76364
  31     11.80       81.4763        0.3489       98.7496       99.0986      17.622290       1.65459
  30     15.07       81.6097        0.4453       98.2198       98.6651      17.055407       1.46358
  29     18.79       81.7427        0.5537       97.6651       98.2188      16.476083       1.31351
  28     23.16       81.8778        0.6799       97.0671       97.7470      15.869213       1.17349
  27     28.12       82.0085        0.8237       96.4406       97.2642      15.255711       1.04291
  26     33.73       82.1206        0.9840       95.8179       96.8019      14.681294       0.86365
  25     40.54       82.2166        1.1772       95.1548       96.3320      14.115388       0.70207
  24     48.69       82.2941        1.4091       94.4420       95.8511      13.557004       0.57784
  23     57.69       82.3423        1.6629       93.7416       95.4045      13.062197       0.46381
  22     68.43       82.3600        1.9639       92.9954       94.9593      12.599230       0.36395
  21     81.20       82.3268        2.3212       92.2231       94.5443      12.217506       0.25224
  20     96.49       82.2371        2.7450       91.4110       94.1560      11.918913       0.16480
  19     114.6       82.1058        3.2449       90.5070       93.7519      11.646173       0.12735
  18     136.5       81.9340        3.8326       89.4803       93.3128      11.378823       0.10280
  17     162.9       81.7156        4.5255       88.3022       92.8277      11.112076       0.08526
  16     196.4       81.4014        5.4140       86.8606       92.2746      10.873227       0.06012
  15     218.7       81.1844        5.9913       85.9492       91.9405      10.756023       0.04450
  14     243.0       80.9447        6.6132       84.9789       91.5922      10.647487       0.03764
  13     269.0       80.6810        7.2808       83.9493       91.2301      10.549135       0.03190
  12     297.5       80.3928        7.9949       82.8589       90.8539      10.461082       0.02612
  11     328.5       80.0818        8.7581       81.6982       90.4563      10.374549       0.02353
  10     361.9       79.7480        9.5700       80.4669       90.0370      10.288973       0.02165
   9     398.1       79.3908       10.4328       79.1611       89.5939      10.203080       0.02001
   8     437.6       79.0110       11.3466       77.7777       89.1244      10.113423       0.01917
   7     480.5       78.6090       12.3120       76.3136       88.6257      10.016673       0.01900
   6     533.0       78.1227       13.4805       74.5359       88.0164       9.893717       0.01978
   5     589.8       77.6103       14.7158       72.6469       87.3627       9.752384       0.02098
   4     651.6       77.0749       16.0160       70.6456       86.6615       9.586595       0.02267
   3     718.7       76.5172       17.3790       68.5367       85.9156       9.398406       0.02365
   2     792.3       75.9402       18.7995       66.3287       85.1282       9.187967       0.02413
   1     891.5       36.8283       45.8603        0.0022       45.8625       9.034243       0.01308
   0    1013.0       36.7871       45.6734        0.0021       45.6755       8.888407       0.01013



 Wavenumbers: 22650. - 29000. cm-1, ATM      1
 LEVEL PRESSURE   UPWARD FLUX   DIFDOWN FLUX  DIRDOWN FLUX  DOWNWARD FLUX   NET FLUX    HEATING RATE
          mb          W/m2          W/m2          W/m2        W/m2          W/m2       degree/day
  51    .06700       35.3279        0.0000       38.0063       38.0063       2.678349       0.00000
  50    .07753       35.3278        0.0004       38.0057       38.0061       2.678349       0.00000
  49    .09103       35.3276        0.0009       38.0050       38.0059       2.678349      -0.00000
  48    0.1069       35.3273        0.0014       38.0042       38.0057       2.678349       0.00000
  47    0.1255       35.3271        0.0021       38.0033       38.0054       2.678349       0.00000
  46    0.1487       35.3267        0.0029       38.0022       38.0051       2.678349       0.00000
  45    0.1794       35.3263        0.0040       38.0006       38.0046       2.678349       0.00000
  44    0.2165       35.3257        0.0053       37.9987       38.0040       2.678349      -0.00000
  43    0.2613       35.3250        0.0069       37.9965       38.0034       2.678349       0.00000
  42    0.3336       35.3240        0.0095       37.9928       38.0023       2.678349       0.00000
  41    0.4307       35.3225        0.0129       37.9880       38.0009       2.678349       0.00000
  40    0.5894       35.3202        0.0185       37.9800       37.9985       2.678349      -0.00000
  39     1.339       35.3090        0.0449       37.9425       37.9874       2.678349       0.00000
  38     1.782       35.3025        0.0604       37.9204       37.9809       2.678349       0.00000
  37     2.292       35.2950        0.0784       37.8949       37.9733       2.678349       0.00000
  36     2.964       35.2850        0.1020       37.8614       37.9634       2.678349       0.00000
  35     3.853       35.2719        0.1331       37.8172       37.9503       2.678349      -0.00000
  34     5.035       35.2546        0.1743       37.7586       37.9329       2.678349       0.00000
  33     6.613       35.2314        0.2294       37.6803       37.9097       2.678349       0.00000
  32     8.786       35.2002        0.3035       37.5750       37.8785       2.678349       0.00000
  31     11.80       35.1557        0.4092       37.4249       37.8340       2.678349       0.00000
  30     15.07       35.1080        0.5222       37.2642       37.7864       2.678349      -0.00000
  29     18.79       35.0544        0.6495       37.0833       37.7328       2.678349       0.00000
  28     23.16       34.9920        0.7974       36.8730       37.6704       2.678349      -0.00000
  27     28.12       34.9211        0.9656       36.6338       37.5994       2.678349       0.00000
  26     33.73       34.8421        1.1527       36.3677       37.5204       2.678349      -0.00000
  25     40.54       34.7473        1.3771       36.0486       37.4257       2.678349       0.00000
  24     48.69       34.6340        1.6451       35.6672       37.3123       2.678349      -0.00000
  23     57.69       34.5107        1.9364       35.2527       37.1891       2.678349       0.00000
  22     68.43       34.3656        2.2790       34.7649       37.0439       2.678349      -0.00000
  21     81.20       34.1950        2.6811       34.1922       36.8734       2.678349       0.00000
  20     96.49       33.9951        3.1517       33.5217       36.6734       2.678349       0.00000
  19     114.6       33.7623        3.6983       32.7424       36.4407       2.678349       0.00000
  18     136.5       33.4929        4.3296       31.8416       36.1712       2.678349      -0.00000
  17     162.9       33.1809        5.0585       30.8008       35.8593       2.678349       0.00000
  16     196.4       32.7901        5.9678       29.5007       35.4685       2.678349      -0.00000
  15     218.7       32.5419        6.5435       28.6767       35.2202       2.678349       0.00000
  14     243.0       32.2791        7.1507       27.8068       34.9575       2.678349       0.00000
  13     269.0       32.0026        7.7876       26.8933       34.6809       2.678349       0.00000
  12     297.5       31.7129        8.4519       25.9393       34.3912       2.678349       0.00000
  11     328.5       31.4101        9.1433       24.9451       34.0884       2.678349      -0.00000
  10     361.9       31.0956        9.8579       23.9160       33.7739       2.678349       0.00000
   9     398.1       30.7697       10.5939       22.8541       33.4481       2.678349       0.00000
   8     437.6       30.4339       11.3477       21.7645       33.1122       2.678349      -0.00000
   7     480.5       30.0893       12.1155       20.6521       32.7676       2.678349       0.00000
   6     533.0       29.6856       13.0070       19.3569       32.3639       2.678349       0.00000
   5     589.8       29.2741       13.9057       18.0467       31.9525       2.678349       0.00000
   4     651.6       28.8575       14.8043       16.7316       31.5359       2.678349      -0.00000
   3     718.7       28.4383       15.6953       15.4214       31.1167       2.678349       0.00000
   2     792.3       28.0195       16.5703       14.1276       30.6979       2.678349       0.00000
   1     891.5       17.9520       20.6296        0.0004       20.6301       2.678070       0.00002
   0    1013.0       17.8593       20.5370        0.0004       20.5374       2.678070      -0.00000



 Wavenumbers: 29000. - 38000. cm-1, ATM      1
 LEVEL PRESSURE   UPWARD FLUX   DIFDOWN FLUX  DIRDOWN FLUX  DOWNWARD FLUX   NET FLUX    HEATING RATE
          mb          W/m2          W/m2          W/m2        W/m2          W/m2       degree/day
  51    .06700        5.0297        0.0000       13.4026       13.4026       8.372945       0.00000
  50    .07753        5.0294        0.0003       13.3983       13.3986       8.369146       3.04452
  49    .09103        5.0292        0.0007       13.3921       13.3928       8.363627       3.44982
  48    0.1069        5.0289        0.0011       13.3840       13.3851       8.356250       3.92695
  47    0.1255        5.0285        0.0016       13.3733       13.3749       8.346404       4.46339
  46    0.1487        5.0281        0.0022       13.3579       13.3601       8.331961       5.26463
  45    0.1794        5.0275        0.0030       13.3340       13.3371       8.309560       6.14957
  44    0.2165        5.0269        0.0040       13.3024       13.3064       8.279540       6.82911
  43    0.2613        5.0261        0.0052       13.2604       13.2656       8.239483       7.55050
  42    0.3336        5.0249        0.0071       13.1833       13.1904       8.165473       8.62890
  41    0.4307        5.0233        0.0095       13.0729       13.0824       8.059095       9.24934
  40    0.5894        5.0210        0.0134       12.8796       12.8930       7.872040       9.94736
  39     1.339        5.0127        0.0297       11.9165       11.9463       6.933610      10.56501
  38     1.782        5.0095        0.0381       11.4399       11.4780       6.468552       8.85395
  37     2.292        5.0071        0.0470       10.9796       11.0266       6.019510       7.43731
  36     2.964        5.0059        0.0580       10.4786       10.5366       5.530703       6.13601
  35     3.853        5.0069        0.0715        9.9429       10.0144       5.007567       4.96466
  34     5.035        5.0107        0.0885        9.4007        9.4891       4.478418       3.78002
  33     6.613        5.0177        0.1099        8.8752        8.9851       3.967447       2.73165
  32     8.786        5.0272        0.1376        8.3786        8.5162       3.488956       1.85829
  31     11.80        5.0390        0.1756        7.8897        8.0653       3.026300       1.29529
  30     15.07        5.0492        0.2148        7.5108        7.7256       2.676406       0.90336
  29     18.79        5.0589        0.2576        7.1776        7.4352       2.376302       0.68043
  28     23.16        5.0679        0.3058        6.8664        7.1722       2.104232       0.52610
  27     28.12        5.0756        0.3590        6.5780        6.9370       1.861452       0.41271
  26     33.73        5.0793        0.4171        6.3195        6.7365       1.657231       0.30705
  25     40.54        5.0780        0.4855        6.0663        6.5518       1.473801       0.22756
  24     48.69        5.0712        0.5658        5.8128        6.3787       1.307466       0.17213
  23     57.69        5.0586        0.6515        5.5777        6.2292       1.170567       0.12832
  22     68.43        5.0382        0.7507        5.3379        6.0886       1.050370       0.09449
  21     81.20        5.0056        0.8659        5.0965        5.9623       0.956718       0.06188
  20     96.49        4.9596        0.9989        4.8476        5.8465       0.886909       0.03853
  19     114.6        4.9035        1.1497        4.5799        5.7296       0.826080       0.02840
  18     136.5        4.8384        1.3183        4.2891        5.6074       0.768998       0.02195
  17     162.9        4.7641        1.5054        3.9732        5.4786       0.714506       0.01742
  16     196.4        4.6699        1.7297        3.6080        5.3377       0.667850       0.01174
  15     218.7        4.6105        1.8664        3.3898        5.2561       0.645604       0.00845
  14     243.0        4.5489        2.0057        3.1686        5.1743       0.625401       0.00701
  13     269.0        4.4853        2.1467        2.9461        5.0928       0.607558       0.00579
  12     297.5        4.4200        2.2882        2.7239        5.0121       0.592099       0.00458
  11     328.5        4.3541        2.4288        2.5029        4.9317       0.577556       0.00395
  10     361.9        4.2879        2.5673        2.2846        4.8518       0.563953       0.00344
   9     398.1        4.2219        2.7024        2.0708        4.7731       0.551284       0.00295
   8     437.6        4.1564        2.8331        1.8626        4.6957       0.539279       0.00257
   7     480.5        4.0921        2.9580        1.6621        4.6201       0.528070       0.00220
   6     533.0        4.0202        3.0926        1.4437        4.5363       0.516059       0.00193
   5     589.8        3.9509        3.2166        1.2390        4.4555       0.504634       0.00170
   4     651.6        3.8848        3.3284        1.0500        4.3784       0.493640       0.00150
   3     718.7        3.8221        3.4273        0.8778        4.3051       0.483038       0.00133
   2     792.3        3.7632        3.5123        0.7237        4.2360       0.472809       0.00117
   1     891.5        2.4858        2.9486        0.0000        2.9486       0.462857       0.00085
   0    1013.0        2.4573        2.9111        0.0000        2.9111       0.453848       0.00063



 Wavenumbers: 38000. - 50000. cm-1, ATM      1
 LEVEL PRESSURE   UPWARD FLUX   DIFDOWN FLUX  DIRDOWN FLUX  DOWNWARD FLUX   NET FLUX    HEATING RATE
          mb          W/m2          W/m2          W/m2        W/m2          W/m2       degree/day
  51    .06700        0.0051        0.0000        0.8267        0.8267       0.821528       0.00000
  50    .07753        0.0051        0.0001        0.8242        0.8243       0.819196       1.86936
  49    .09103        0.0050        0.0002        0.8207        0.8209       0.815872       2.07705
  48    0.1069        0.0049        0.0002        0.8162        0.8164       0.811514       2.31984
  47    0.1255        0.0048        0.0004        0.8103        0.8106       0.805801       2.59006
  46    0.1487        0.0047        0.0005        0.8018        0.8023       0.797567       3.00143
  45    0.1794        0.0045        0.0007        0.7889        0.7896       0.785013       3.44648
  44    0.2165        0.0044        0.0009        0.7720        0.7729       0.768507       3.75474
  43    0.2613        0.0042        0.0011        0.7500        0.7511       0.746955       4.06246
  42    0.3336        0.0039        0.0015        0.7106        0.7121       0.708267       4.51071
  41    0.4307        0.0035        0.0019        0.6566        0.6584       0.654972       4.63387
  40    0.5894        0.0029        0.0024        0.5680        0.5704       0.567464       4.65357
  39     1.339        0.0015        0.0030        0.2422        0.2452       0.243720       3.64476
  38     1.782        0.0010        0.0026        0.1493        0.1519       0.150889       1.76735
  37     2.292        0.0007        0.0022        0.0924        0.0946       0.093932       0.94336
  36     2.964        0.0005        0.0018        0.0539        0.0557       0.055224       0.48589
  35     3.853        0.0003        0.0013        0.0295        0.0308       0.030502       0.23462
  34     5.035        0.0002        0.0010        0.0154        0.0164       0.016181       0.10230
  33     6.613        0.0001        0.0007        0.0073        0.0080       0.007912       0.04420
  32     8.786        0.0000        0.0004        0.0030        0.0034       0.003390       0.01756
  31     11.80        0.0000        0.0003        0.0010        0.0012       0.001199       0.00613
  30     15.07        0.0000        0.0001        0.0003        0.0005       0.000463       0.00190
  29     18.79        0.0000        0.0001        0.0001        0.0002       0.000182       0.00064
  28     23.16        0.0000        0.0000        0.0000        0.0001       0.000071       0.00022
  27     28.12        0.0000        0.0000        0.0000        0.0000       0.000028       0.00007
  26     33.73        0.0000        0.0000        0.0000        0.0000       0.000011       0.00002
  25     40.54        0.0000        0.0000        0.0000        0.0000       0.000005       0.00001
  24     48.69        0.0000        0.0000        0.0000        0.0000       0.000002       0.00000
  23     57.69        0.0000        0.0000        0.0000        0.0000       0.000001       0.00000
  22     68.43        0.0000        0.0000        0.0000        0.0000       0.000000       0.00000
  21     81.20        0.0000        0.0000        0.0000        0.0000       0.000000       0.00000
  20     96.49        0.0000        0.0000        0.0000        0.0000       0.000000       0.00000
  19     114.6        0.0000        0.0000        0.0000        0.0000       0.000000       0.00000
  18     136.5        0.0000        0.0000        0.0000        0.0000       0.000000       0.00000
  17     162.9        0.0000        0.0000        0.0000        0.0000       0.000000       0.00000
  16     196.4        0.0000        0.0000        0.0000        0.0000       0.000000       0.00000
  15     218.7        0.0000        0.0000        0.0000        0.0000       0.000000       0.00000
  14     243.0        0.0000        0.0000        0.0000        0.0000       0.000000       0.00000
  13     269.0        0.0000        0.0000        0.0000        0.0000       0.000000       0.00000
  12     297.5        0.0000        0.0000        0.0000        0.0000       0.000000       0.00000
  11     328.5        0.0000        0.0000        0.0000        0.0000       0.000000       0.00000
  10     361.9        0.0000        0.0000        0.0000        0.0000       0.000000       0.00000
   9     398.1        0.0000        0.0000        0.0000        0.0000       0.000000       0.00000
   8     437.6        0.0000        0.0000        0.0000        0.0000       0.000000       0.00000
   7     480.5        0.0000        0.0000        0.0000        0.0000       0.000000       0.00000
   6     533.0        0.0000        0.0000        0.0000        0.0000       0.000000       0.00000
   5     589.8        0.0000        0.0000        0.0000        0.0000       0.000000       0.00000
   4     651.6        0.0000        0.0000        0.0000        0.0000       0.000000       0.00000
   3     718.7        0.0000        0.0000        0.0000        0.0000       0.000000       0.00000
   2     792.3        0.0000        0.0000        0.0000        0.0000       0.000000       0.00000
   1     891.5        0.0000        0.0000        0.0000        0.0000       0.000000       0.00000
   0    1013.0        0.0000        0.0000        0.0000        0.0000       0.000000       0.00000



 Wavenumbers:   820. -  2600. cm-1, ATM      1
 LEVEL PRESSURE   UPWARD FLUX   DIFDOWN FLUX  DIRDOWN FLUX  DOWNWARD FLUX   NET FLUX    HEATING RATE
          mb          W/m2          W/m2          W/m2        W/m2          W/m2       degree/day
  51    .06700        0.7379        0.0000        3.8670        3.8670       3.129077       0.00000
  50    .07753        0.7379        0.0000        3.8643        3.8643       3.126360       2.17771
  49    .09103        0.7379        0.0000        3.8635        3.8635       3.125550       0.50639
  48    0.1069        0.7379        0.0000        3.8626        3.8626       3.124659       0.47416
  47    0.1255        0.7379        0.0000        3.8616        3.8616       3.123698       0.43561
  46    0.1487        0.7379        0.0000        3.8605        3.8605       3.122589       0.40439
  45    0.1794        0.7379        0.0000        3.8592        3.8592       3.121254       0.36649
  44    0.2165        0.7379        0.0000        3.8578        3.8578       3.119876       0.31348
  43    0.2613        0.7379        0.0000        3.8564        3.8564       3.118415       0.27524
  42    0.3336        0.7379        0.0000        3.8541        3.8541       3.116184       0.26014
  41    0.4307        0.7379        0.0000        3.8512        3.8512       3.113301       0.25065
  40    0.5894        0.7379        0.0000        3.8465        3.8465       3.108575       0.25136
  39     1.339        0.7379        0.0000        3.8251        3.8251       3.087198       0.24067
  38     1.782        0.7379        0.0000        3.8133        3.8133       3.075384       0.22492
  37     2.292        0.7379        0.0000        3.8003        3.8003       3.062321       0.21635
  36     2.964        0.7380        0.0000        3.7841        3.7841       3.046191       0.20249
  35     3.853        0.7380        0.0000        3.7642        3.7642       3.026274       0.18901
  34     5.035        0.7380        0.0000        3.7395        3.7395       3.001580       0.17640
  33     6.613        0.7380        0.0000        3.7090        3.7090       2.971041       0.16327
  32     8.786        0.7380        0.0000        3.6726        3.6726       2.934642       0.14136
  31     11.80        0.7380        0.0000        3.6320        3.6320       2.894040       0.11367
  30     15.07        0.7380        0.0000        3.6016        3.6016       2.863647       0.07847
  29     18.79        0.7380        0.0000        3.5777        3.5777       2.839739       0.05421
  28     23.16        0.7380        0.0000        3.5564        3.5564       2.818374       0.04131
  27     28.12        0.7380        0.0000        3.5348        3.5348       2.796813       0.03665
  26     33.73        0.7381        0.0000        3.5118        3.5118       2.773764       0.03465
  25     40.54        0.7381        0.0000        3.4849        3.4849       2.746857       0.03338
  24     48.69        0.7381        0.0000        3.4537        3.4537       2.715581       0.03237
  23     57.69        0.7381        0.0000        3.4210        3.4210       2.682881       0.03065
  22     68.43        0.7382        0.0000        3.3844        3.3844       2.646263       0.02879
  21     81.20        0.7382        0.0000        3.3441        3.3441       2.605925       0.02665
  20     96.49        0.7383        0.0000        3.2998        3.2998       2.561513       0.02451
  19     114.6        0.7383        0.0000        3.2506        3.2507       2.512305       0.02298
  18     136.5        0.7384        0.0000        3.1936        3.1936       2.455172       0.02197
  17     162.9        0.7386        0.0000        3.1181        3.1181       2.379525       0.02418
  16     196.4        0.7389        0.0000        3.0090        3.0090       2.270059       0.02755
  15     218.7        0.7392        0.0000        2.9420        2.9420       2.202850       0.02552
  14     243.0        0.7395        0.0000        2.8605        2.8605       2.120986       0.02839
  13     269.0        0.7401        0.0000        2.7419        2.7420       2.001899       0.03863
  12     297.5        0.7410        0.0000        2.5729        2.5729       1.831860       0.05043
  11     328.5        0.7425        0.0000        2.3602        2.3602       1.617663       0.05824
  10     361.9        0.7448        0.0000        2.1524        2.1524       1.407596       0.05315
   9     398.1        0.7481        0.0000        1.9974        1.9974       1.249334       0.03687
   8     437.6        0.7526        0.0000        1.8835        1.8835       1.130890       0.02532
   7     480.5        0.7591        0.0000        1.7734        1.7734       1.014343       0.02289
   6     533.0        0.7697        0.0000        1.6397        1.6398       0.870068       0.02321
   5     589.8        0.7849        0.0000        1.5068        1.5069       0.721986       0.02198
   4     651.6        0.8073        0.0000        1.3807        1.3807       0.573445       0.02031
   3     718.7        0.8372        0.0000        1.2680        1.2681       0.430812       0.01793
   2     792.3        0.8748        0.0000        1.1659        1.1660       0.291156       0.01602
   1     891.5        0.0139        0.2405        0.0000        0.2405       0.226610       0.00549
   0    1013.0        0.0154        0.2168        0.0000        0.2168       0.201447       0.00175

  Modules and versions used in this calculation:

       rrtmg_sw.1col.f90:  $Revision$                    rrtmg_sw_init.f90:  $Revision$        
     rrtmgsw_cldprop.f90:  $Revision$                  rrtmgsw_cldprmc.f90:  NOT USED          
     rrtmg_sw_reftra.f90:  $Revision$                  rrtmg_sw_spcvrt.f90:  NOT USED          
     rrtmg_sw_spcvmc.f90:  NOT USED                    rrtmgsw_setcoef.f90:  NOT USED          
     rrtmg_sw_taumol.f90:  $Revision$                  rrtmg_sw_vrtqdr.f90:  NOT USED          
                rrtatm.f:  NOT USED                             util_xxx.f:  NOT USED          
                 extra.f:  NOT USED                       rrtmg_sw_k_g.f90:  $Revision$        

