

 Wavenumbers:   820. - 50000. cm-1, ATM      1
 LEVEL PRESSURE   UPWARD FLUX   DIFDOWN FLUX  DIRDOWN FLUX  DOWNWARD FLUX   NET FLUX    HEATING RATE
          mb          W/m2          W/m2          W/m2        W/m2          W/m2       degree/day
  51    .06700      287.9471        0.0000      397.8738      397.8738     109.926705       0.00000
  50    .07753      287.9465        0.0012      397.8577      397.8589     109.912409      11.45869
  49    .09103      287.9458        0.0027      397.8418      397.8445     109.898713       8.56019
  48    0.1069      287.9450        0.0044      397.8230      397.8274     109.882356       8.70708
  47    0.1255      287.9441        0.0064      397.7997      397.8060     109.861901       9.27327
  46    0.1487      287.9431        0.0089      397.7676      397.7765     109.833426      10.37945
  45    0.1794      287.9416        0.0122      397.7205      397.7328     109.791107      11.61753
  44    0.2165      287.9401        0.0162      397.6602      397.6765     109.736423      12.43964
  43    0.2613      287.9383        0.0209      397.5829      397.6039     109.665579      13.35389
  42    0.3336      287.9355        0.0287      397.4449      397.4736     109.538051      14.86849
  41    0.4307      287.9322        0.0389      397.2524      397.2912     109.359049      15.56379
  40    0.5894      287.9274        0.0552      396.9253      396.9805     109.053082      16.27096
  39     1.339      287.9172        0.1284      395.4254      395.5537     107.636541      15.94767
  38     1.782      287.9194        0.1695      394.7288      394.8982     106.978775      12.52281
  37     2.292      287.9293        0.2162      394.0572      394.2734     106.344019      10.51322
  36     2.964      287.9532        0.2769      393.3007      393.5776     105.624398       9.03341
  35     3.853      287.9998        0.3563      392.4318      392.7881     104.788285       7.93486
  34     5.035      288.0767        0.4608      391.4441      391.9048     103.828168       6.85868
  33     6.613      288.1875        0.5992      390.3268      390.9259     102.738412       5.82584
  32     8.786      288.3308        0.7843      389.0624      389.8467     101.515970       4.74752
  31     11.80      288.5100        1.0472      387.5500      388.5972     100.087160       4.00022
  30     15.07      288.6724        1.3272      386.1556      387.4828      98.810362       3.29644
  29     18.79      288.8291        1.6410      384.7502      386.3912      97.562141       2.83010
  28     23.16      288.9812        2.0048      383.2686      385.2734      96.292190       2.45568
  27     28.12      289.1191        2.4174      381.7329      384.1503      95.031241       2.14353
  26     33.73      289.2206        2.8760      380.1982      383.0741      93.853585       1.77064
  25     40.54      289.2820        3.4260      378.5384      381.9644      92.682410       1.45297
  24     48.69      289.2975        4.0836      376.7214      380.8050      91.507484       1.21586
  23     57.69      289.2583        4.7992      374.8959      379.6951      90.436812       1.00359
  22     68.43      289.1513        5.6433      372.8999      378.5432      89.391879       0.82146
  21     81.20      288.9405        6.6385      370.7496      377.3881      88.447624       0.62395
  20     96.49      288.6140        7.8099      368.4056      376.2155      87.601488       0.46701
  19     114.6      288.2020        9.1790      365.7513      374.9303      86.728220       0.40775
  18     136.5      287.6971       10.7702      362.7231      373.4933      85.796193       0.35839
  17     162.9      287.0868       12.6214      359.1748      371.7962      84.709440       0.34737
  16     196.4      286.2644       14.9580      354.5718      369.5298      83.265339       0.36350
  15     218.7      285.7197       16.4539      351.4437      367.8976      82.177904       0.41286
  14     243.0      285.1331       18.0463      347.7111      365.7575      80.624306       0.53884
  13     269.0      284.5082       19.7337      342.9441      362.6778      78.169681       0.79627
  12     297.5      283.8495       21.5141      337.4137      358.9278      75.078378       0.91685
  11     328.5      283.1674       23.3896      331.1302      354.5199      71.352472       1.01306
  10     361.9      282.4733       25.3549      324.1219      349.4768      67.003531       1.10033
   9     398.1      281.7797       27.4097      316.6066      344.0163      62.236619       1.11058
   8     437.6      281.1117       29.5499      308.5895      338.1394      57.027677       1.11370
   7     480.5      280.5149       31.7698      299.9349      331.7047      51.189812       1.14653
   6     533.0      279.9762       34.4041      289.7021      324.1063      44.130005       1.13570
   5     589.8      279.6799       37.1289      279.3388      316.4676      36.787714       1.08984
   4     651.6      279.7857       39.9324      268.7786      308.7110      28.925258       1.07521
   3     718.7      280.4320       42.8063      258.2837      301.0900      20.657999       1.03897
   2     792.3      281.8024       45.7371      248.0774      293.8145      12.012119       0.99159
   1     891.5       21.9274       31.4030        0.0000       31.4030       9.475598       0.21585
   0    1013.0       21.8907       31.1469        0.0000       31.1469       9.256172       0.01524



 Wavenumbers:  2600. -  3250. cm-1, ATM      1
 LEVEL PRESSURE   UPWARD FLUX   DIFDOWN FLUX  DIRDOWN FLUX  DOWNWARD FLUX   NET FLUX    HEATING RATE
          mb          W/m2          W/m2          W/m2        W/m2          W/m2       degree/day
  51    .06700        1.2325        0.0000        3.5066        3.5066       2.274136       0.00000
  50    .07753        1.2325        0.0000        3.5066        3.5066       2.274128       0.00640
  49    .09103        1.2325        0.0000        3.5066        3.5066       2.274118       0.00627
  48    0.1069        1.2325        0.0000        3.5066        3.5066       2.274107       0.00613
  47    0.1255        1.2325        0.0000        3.5066        3.5066       2.274093       0.00599
  46    0.1487        1.2325        0.0000        3.5066        3.5066       2.274077       0.00607
  45    0.1794        1.2325        0.0000        3.5065        3.5065       2.274054       0.00624
  44    0.2165        1.2325        0.0000        3.5065        3.5065       2.274027       0.00611
  43    0.2613        1.2325        0.0000        3.5065        3.5065       2.273995       0.00598
  42    0.3336        1.2325        0.0000        3.5064        3.5064       2.273943       0.00615
  41    0.4307        1.2325        0.0000        3.5064        3.5064       2.273872       0.00618
  40    0.5894        1.2325        0.0000        3.5062        3.5062       2.273753       0.00633
  39     1.339        1.2325        0.0000        3.5055        3.5055       2.273054       0.00787
  38     1.782        1.2325        0.0000        3.5050        3.5050       2.272523       0.01011
  37     2.292        1.2325        0.0000        3.5043        3.5043       2.271830       0.01147
  36     2.964        1.2325        0.0000        3.5033        3.5033       2.270839       0.01245
  35     3.853        1.2325        0.0000        3.5019        3.5019       2.269462       0.01307
  34     5.035        1.2325        0.0000        3.5001        3.5001       2.267601       0.01329
  33     6.613        1.2325        0.0000        3.4977        3.4977       2.265191       0.01288
  32     8.786        1.2325        0.0000        3.4947        3.4947       2.262220       0.01154
  31     11.80        1.2325        0.0000        3.4911        3.4911       2.258583       0.01018
  30     15.07        1.2325        0.0000        3.4878        3.4878       2.255361       0.00832
  29     18.79        1.2325        0.0000        3.4848        3.4848       2.252296       0.00695
  28     23.16        1.2325        0.0000        3.4816        3.4816       2.249073       0.00623
  27     28.12        1.2325        0.0000        3.4779        3.4779       2.245451       0.00616
  26     33.73        1.2325        0.0000        3.4735        3.4735       2.240979       0.00672
  25     40.54        1.2325        0.0000        3.4671        3.4672       2.234644       0.00786
  24     48.69        1.2325        0.0000        3.4582        3.4583       2.225736       0.00922
  23     57.69        1.2325        0.0000        3.4472        3.4472       2.214669       0.01037
  22     68.43        1.2326        0.0000        3.4329        3.4330       2.200382       0.01123
  21     81.20        1.2326        0.0000        3.4152        3.4152       2.182614       0.01174
  20     96.49        1.2327        0.0000        3.3940        3.3941       2.161413       0.01170
  19     114.6        1.2328        0.0000        3.3692        3.3692       2.136445       0.01166
  18     136.5        1.2329        0.0001        3.3419        3.3420       2.109113       0.01051
  17     162.9        1.2331        0.0001        3.3129        3.3129       2.079866       0.00935
  16     196.4        1.2334        0.0001        3.2793        3.2794       2.045980       0.00853
  15     218.7        1.2338        0.0001        3.2578        3.2579       2.024059       0.00832
  14     243.0        1.2343        0.0001        3.2320        3.2321       1.997711       0.00914
  13     269.0        1.2353        0.0001        3.1968        3.1969       1.961687       0.01169
  12     297.5        1.2367        0.0001        3.1489        3.1491       1.912408       0.01462
  11     328.5        1.2388        0.0001        3.0821        3.0822       1.843407       0.01876
  10     361.9        1.2419        0.0001        2.9902        2.9904       1.748451       0.02402
   9     398.1        1.2465        0.0001        2.8715        2.8716       1.625160       0.02872
   8     437.6        1.2531        0.0002        2.7276        2.7278       1.474753       0.03216
   7     480.5        1.2630        0.0002        2.5595        2.5597       1.296711       0.03497
   6     533.0        1.2798        0.0002        2.3617        2.3619       1.082131       0.03452
   5     589.8        1.3046        0.0002        2.1649        2.1651       0.860492       0.03290
   4     651.6        1.3418        0.0002        1.9608        1.9609       0.619154       0.03300
   3     718.7        1.3954        0.0002        1.7593        1.7595       0.364070       0.03206
   2     792.3        1.4713        0.0002        1.5761        1.5762       0.104969       0.02972
   1     891.5        0.0027        0.0409        0.0000        0.0409       0.038136       0.00569
   0    1013.0        0.0029        0.0378        0.0000        0.0378       0.034890       0.00023



 Wavenumbers:  3250. -  4000. cm-1, ATM      1
 LEVEL PRESSURE   UPWARD FLUX   DIFDOWN FLUX  DIRDOWN FLUX  DOWNWARD FLUX   NET FLUX    HEATING RATE
          mb          W/m2          W/m2          W/m2        W/m2          W/m2       degree/day
  51    .06700        0.0121        0.0000        5.9117        5.9117       5.899537       0.00000
  50    .07753        0.0121        0.0000        5.9075        5.9075       5.895347       3.35808
  49    .09103        0.0121        0.0000        5.9050        5.9050       5.892904       1.52677
  48    0.1069        0.0121        0.0000        5.9032        5.9032       5.891038       0.99346
  47    0.1255        0.0121        0.0000        5.9014        5.9014       5.889280       0.79708
  46    0.1487        0.0121        0.0000        5.8995        5.8995       5.887391       0.68848
  45    0.1794        0.0121        0.0000        5.8974        5.8974       5.885242       0.58983
  44    0.2165        0.0121        0.0000        5.8952        5.8952       5.883125       0.48155
  43    0.2613        0.0121        0.0000        5.8931        5.8931       5.880966       0.40696
  42    0.3336        0.0121        0.0000        5.8899        5.8899       5.877808       0.36820
  41    0.4307        0.0121        0.0000        5.8861        5.8861       5.873971       0.33365
  40    0.5894        0.0121        0.0000        5.8803        5.8803       5.868169       0.30857
  39     1.339        0.0121        0.0000        5.8597        5.8597       5.847571       0.23189
  38     1.782        0.0121        0.0000        5.8513        5.8513       5.839146       0.16039
  37     2.292        0.0121        0.0000        5.8431        5.8431       5.830975       0.13533
  36     2.964        0.0121        0.0000        5.8334        5.8334       5.821336       0.12100
  35     3.853        0.0121        0.0000        5.8213        5.8213       5.809160       0.11555
  34     5.035        0.0121        0.0000        5.8052        5.8052       5.793065       0.11498
  33     6.613        0.0121        0.0000        5.7833        5.7834       5.771244       0.11666
  32     8.786        0.0121        0.0000        5.7531        5.7531       5.741042       0.11729
  31     11.80        0.0121        0.0000        5.7090        5.7090       5.696873       0.12366
  30     15.07        0.0121        0.0000        5.6615        5.6615       5.649409       0.12254
  29     18.79        0.0121        0.0000        5.6093        5.6094       5.597273       0.11821
  28     23.16        0.0121        0.0000        5.5524        5.5524       5.540347       0.11008
  27     28.12        0.0121        0.0000        5.4935        5.4935       5.481468       0.10009
  26     33.73        0.0121        0.0000        5.4348        5.4349       5.422780       0.08824
  25     40.54        0.0121        0.0001        5.3707        5.3708       5.358718       0.07948
  24     48.69        0.0121        0.0001        5.2985        5.2985       5.286485       0.07475
  23     57.69        0.0120        0.0001        5.2215        5.2216       5.209546       0.07212
  22     68.43        0.0120        0.0001        5.1318        5.1319       5.119886       0.07048
  21     81.20        0.0120        0.0001        5.0284        5.0285       5.016457       0.06834
  20     96.49        0.0120        0.0001        4.9122        4.9123       4.900322       0.06410
  19     114.6        0.0120        0.0001        4.7780        4.7782       4.766211       0.06262
  18     136.5        0.0119        0.0002        4.6285        4.6287       4.616733       0.05748
  17     162.9        0.0119        0.0002        4.4406        4.4407       4.428820       0.06006
  16     196.4        0.0119        0.0002        4.1548        4.1550       4.143144       0.07191
  15     218.7        0.0119        0.0002        3.9564        3.9566       3.944761       0.07532
  14     243.0        0.0119        0.0002        3.7055        3.7058       3.693920       0.08700
  13     269.0        0.0119        0.0002        3.3399        3.3401       3.328266       0.11862
  12     297.5        0.0119        0.0002        2.8954        2.8956       2.883743       0.13184
  11     328.5        0.0119        0.0002        2.4388        2.4390       2.427134       0.12415
  10     361.9        0.0120        0.0002        2.0269        2.0271       2.015071       0.10426
   9     398.1        0.0122        0.0002        1.6753        1.6755       1.663265       0.08196
   8     437.6        0.0126        0.0002        1.3592        1.3594       1.346767       0.06767
   7     480.5        0.0133        0.0002        1.0616        1.0618       1.048497       0.05858
   6     533.0        0.0147        0.0001        0.7543        0.7544       0.739746       0.04967
   5     589.8        0.0173        0.0001        0.4951        0.4952       0.477942       0.03886
   4     651.6        0.0224        0.0001        0.2943        0.2943       0.271958       0.02817
   3     718.7        0.0324        0.0001        0.1528        0.1529       0.120451       0.01904
   2     792.3        0.0529        0.0000        0.0658        0.0658       0.012896       0.01234
   1     891.5        0.0000        0.0001        0.0000        0.0001       0.000072       0.00109
   0    1013.0        0.0000        0.0000        0.0000        0.0000       0.000016       0.00000



 Wavenumbers:  4000. -  4650. cm-1, ATM      1
 LEVEL PRESSURE   UPWARD FLUX   DIFDOWN FLUX  DIRDOWN FLUX  DOWNWARD FLUX   NET FLUX    HEATING RATE
          mb          W/m2          W/m2          W/m2        W/m2          W/m2       degree/day
  51    .06700        4.3493        0.0000        6.9421        6.9421       2.592769       0.00000
  50    .07753        4.3493        0.0000        6.9421        6.9421       2.592768       0.00079
  49    .09103        4.3493        0.0000        6.9421        6.9421       2.592767       0.00078
  48    0.1069        4.3493        0.0000        6.9421        6.9421       2.592766       0.00076
  47    0.1255        4.3493        0.0000        6.9421        6.9421       2.592764       0.00074
  46    0.1487        4.3493        0.0000        6.9421        6.9421       2.592762       0.00075
  45    0.1794        4.3493        0.0000        6.9421        6.9421       2.592759       0.00077
  44    0.2165        4.3493        0.0000        6.9421        6.9421       2.592756       0.00076
  43    0.2613        4.3493        0.0000        6.9420        6.9420       2.592752       0.00074
  42    0.3336        4.3493        0.0000        6.9420        6.9420       2.592745       0.00076
  41    0.4307        4.3493        0.0000        6.9420        6.9420       2.592737       0.00077
  40    0.5894        4.3493        0.0000        6.9420        6.9420       2.592722       0.00079
  39     1.339        4.3493        0.0000        6.9419        6.9419       2.592633       0.00100
  38     1.782        4.3493        0.0000        6.9418        6.9419       2.592563       0.00132
  37     2.292        4.3493        0.0000        6.9418        6.9418       2.592470       0.00155
  36     2.964        4.3493        0.0000        6.9416        6.9416       2.592330       0.00175
  35     3.853        4.3493        0.0000        6.9414        6.9414       2.592124       0.00196
  34     5.035        4.3493        0.0000        6.9411        6.9411       2.591819       0.00218
  33     6.613        4.3493        0.0000        6.9406        6.9407       2.591370       0.00240
  32     8.786        4.3493        0.0000        6.9399        6.9400       2.590709       0.00257
  31     11.80        4.3493        0.0001        6.9389        6.9389       2.589673       0.00290
  30     15.07        4.3493        0.0001        6.9377        6.9377       2.588460       0.00313
  29     18.79        4.3493        0.0001        6.9362        6.9363       2.586998       0.00332
  28     23.16        4.3493        0.0001        6.9343        6.9345       2.585188       0.00350
  27     28.12        4.3493        0.0001        6.9321        6.9323       2.583005       0.00371
  26     33.73        4.3493        0.0002        6.9294        6.9296       2.580326       0.00403
  25     40.54        4.3493        0.0002        6.9258        6.9260       2.576710       0.00449
  24     48.69        4.3493        0.0002        6.9210        6.9212       2.571918       0.00496
  23     57.69        4.3493        0.0003        6.9154        6.9156       2.566275       0.00529
  22     68.43        4.3494        0.0003        6.9083        6.9086       2.559249       0.00552
  21     81.20        4.3495        0.0004        6.8998        6.9001       2.550644       0.00569
  20     96.49        4.3496        0.0004        6.8894        6.8899       2.540230       0.00575
  19     114.6        4.3499        0.0005        6.8765        6.8770       2.527159       0.00610
  18     136.5        4.3502        0.0006        6.8610        6.8616       2.511343       0.00608
  17     162.9        4.3508        0.0007        6.8417        6.8424       2.491588       0.00631
  16     196.4        4.3518        0.0009        6.8147        6.8155       2.463740       0.00701
  15     218.7        4.3527        0.0010        6.7948        6.7958       2.443133       0.00782
  14     243.0        4.3540        0.0011        6.7698        6.7709       2.416892       0.00910
  13     269.0        4.3560        0.0012        6.7349        6.7360       2.380024       0.01196
  12     297.5        4.3591        0.0013        6.6869        6.6882       2.329074       0.01511
  11     328.5        4.3634        0.0014        6.6194        6.6208       2.257356       0.01950
  10     361.9        4.3692        0.0016        6.5295        6.5310       2.161809       0.02417
   9     398.1        4.3768        0.0017        6.4202        6.4219       2.045073       0.02720
   8     437.6        4.3871        0.0018        6.2962        6.2980       1.910925       0.02868
   7     480.5        4.4014        0.0020        6.1555        6.1575       1.756079       0.03041
   6     533.0        4.4250        0.0022        5.9675        5.9697       1.544734       0.03400
   5     589.8        4.4598        0.0023        5.7368        5.7391       1.279270       0.03940
   4     651.6        4.5121        0.0025        5.4662        5.4687       0.956595       0.04413
   3     718.7        4.5875        0.0027        5.1912        5.1939       0.606403       0.04401
   2     792.3        4.6929        0.0028        4.9395        4.9423       0.249433       0.04094
   1     891.5        0.0082        0.1586        0.0000        0.1586       0.150381       0.00843
   0    1013.0        0.0084        0.1535        0.0000        0.1535       0.145097       0.00037



 Wavenumbers:  4650. -  5150. cm-1, ATM      1
 LEVEL PRESSURE   UPWARD FLUX   DIFDOWN FLUX  DIRDOWN FLUX  DOWNWARD FLUX   NET FLUX    HEATING RATE
          mb          W/m2          W/m2          W/m2        W/m2          W/m2       degree/day
  51    .06700        3.0551        0.0000        6.5710        6.5710       3.515885       0.00000
  50    .07753        3.0551        0.0000        6.5708        6.5708       3.515650       0.18887
  49    .09103        3.0551        0.0000        6.5705        6.5705       3.515356       0.18362
  48    0.1069        3.0551        0.0000        6.5701        6.5701       3.515021       0.17806
  47    0.1255        3.0551        0.0000        6.5697        6.5697       3.514641       0.17238
  46    0.1487        3.0551        0.0000        6.5693        6.5693       3.514167       0.17268
  45    0.1794        3.0551        0.0000        6.5686        6.5686       3.513531       0.17474
  44    0.2165        3.0551        0.0000        6.5679        6.5679       3.512793       0.16788
  43    0.2613        3.0551        0.0000        6.5670        6.5670       3.511940       0.16078
  42    0.3336        3.0551        0.0000        6.5657        6.5657       3.510577       0.15894
  41    0.4307        3.0551        0.0000        6.5640        6.5640       3.508855       0.14971
  40    0.5894        3.0551        0.0000        6.5613        6.5613       3.506239       0.13913
  39     1.339        3.0551        0.0000        6.5516        6.5516       3.496461       0.11008
  38     1.782        3.0551        0.0000        6.5473        6.5473       3.492244       0.08027
  37     2.292        3.0551        0.0000        6.5434        6.5435       3.488357       0.06439
  36     2.964        3.0551        0.0000        6.5395        6.5395       3.484402       0.04965
  35     3.853        3.0551        0.0000        6.5355        6.5356       3.480457       0.03743
  34     5.035        3.0551        0.0000        6.5315        6.5315       3.476453       0.02861
  33     6.613        3.0551        0.0000        6.5271        6.5271       3.472055       0.02351
  32     8.786        3.0551        0.0001        6.5216        6.5216       3.466552       0.02137
  31     11.80        3.0551        0.0001        6.5135        6.5136       3.458461       0.02265
  30     15.07        3.0551        0.0001        6.5041        6.5042       3.449074       0.02423
  29     18.79        3.0551        0.0001        6.4925        6.4927       3.437534       0.02617
  28     23.16        3.0551        0.0002        6.4779        6.4780       3.422907       0.02828
  27     28.12        3.0552        0.0002        6.4599        6.4601       3.404884       0.03064
  26     33.73        3.0552        0.0002        6.4384        6.4386       3.383390       0.03232
  25     40.54        3.0553        0.0003        6.4112        6.4115       3.356176       0.03376
  24     48.69        3.0554        0.0003        6.3775        6.3778       3.322414       0.03494
  23     57.69        3.0556        0.0004        6.3404        6.3408       3.285162       0.03492
  22     68.43        3.0558        0.0004        6.2971        6.2976       3.241752       0.03413
  21     81.20        3.0561        0.0005        6.2483        6.2488       3.192634       0.03246
  20     96.49        3.0566        0.0006        6.1948        6.1954       3.138846       0.02969
  19     114.6        3.0572        0.0007        6.1381        6.1389       3.081638       0.02671
  18     136.5        3.0581        0.0009        6.0790        6.0799       3.021743       0.02303
  17     162.9        3.0594        0.0010        6.0160        6.0171       2.957688       0.02047
  16     196.4        3.0613        0.0012        5.9399        5.9411       2.879754       0.01962
  15     218.7        3.0629        0.0013        5.8896        5.8910       2.828086       0.01962
  14     243.0        3.0649        0.0015        5.8322        5.8337       2.768726       0.02059
  13     269.0        3.0678        0.0016        5.7624        5.7640       2.696177       0.02353
  12     297.5        3.0720        0.0018        5.6767        5.6785       2.606536       0.02659
  11     328.5        3.0776        0.0019        5.5726        5.5745       2.496944       0.02980
  10     361.9        3.0852        0.0021        5.4473        5.4494       2.364256       0.03357
   9     398.1        3.0953        0.0023        5.2995        5.3018       2.206407       0.03678
   8     437.6        3.1090        0.0024        5.1275        5.1299       2.020902       0.03966
   7     480.5        3.1277        0.0026        4.9290        4.9316       1.803906       0.04262
   6     533.0        3.1573        0.0028        4.6794        4.6822       1.524920       0.04488
   5     589.8        3.1988        0.0030        4.4188        4.4218       1.222993       0.04482
   4     651.6        3.2579        0.0031        4.1521        4.1552       0.897322       0.04454
   3     718.7        3.3390        0.0033        3.8929        3.8963       0.557238       0.04274
   2     792.3        3.4484        0.0035        3.6469        3.6504       0.201940       0.04075
   1     891.5        0.0057        0.1094        0.0000        0.1094       0.103731       0.00836
   0    1013.0        0.0059        0.1049        0.0000        0.1049       0.098957       0.00033



 Wavenumbers:  5150. -  6150. cm-1, ATM      1
 LEVEL PRESSURE   UPWARD FLUX   DIFDOWN FLUX  DIRDOWN FLUX  DOWNWARD FLUX   NET FLUX    HEATING RATE
          mb          W/m2          W/m2          W/m2        W/m2          W/m2       degree/day
  51    .06700        7.5192        0.0000       16.4735       16.4735       8.954275       0.00000
  50    .07753        7.5192        0.0000       16.4735       16.4735       8.954240       0.02764
  49    .09103        7.5192        0.0000       16.4734       16.4734       8.954195       0.02814
  48    0.1069        7.5192        0.0000       16.4734       16.4734       8.954141       0.02863
  47    0.1255        7.5192        0.0000       16.4733       16.4733       8.954077       0.02908
  46    0.1487        7.5192        0.0000       16.4732       16.4732       8.953993       0.03063
  45    0.1794        7.5192        0.0000       16.4731       16.4731       8.953874       0.03272
  44    0.2165        7.5192        0.0000       16.4730       16.4730       8.953727       0.03334
  43    0.2613        7.5192        0.0000       16.4728       16.4728       8.953548       0.03379
  42    0.3336        7.5192        0.0000       16.4725       16.4725       8.953242       0.03568
  41    0.4307        7.5192        0.0000       16.4720       16.4720       8.952823       0.03649
  40    0.5894        7.5192        0.0000       16.4713       16.4713       8.952121       0.03732
  39     1.339        7.5192        0.0000       16.4679       16.4679       8.948708       0.03842
  38     1.782        7.5192        0.0001       16.4659       16.4659       8.946705       0.03813
  37     2.292        7.5192        0.0001       16.4635       16.4636       8.944410       0.03802
  36     2.964        7.5192        0.0001       16.4605       16.4606       8.941434       0.03736
  35     3.853        7.5192        0.0001       16.4567       16.4568       8.937571       0.03666
  34     5.035        7.5192        0.0001       16.4516       16.4517       8.932561       0.03579
  33     6.613        7.5192        0.0002       16.4451       16.4453       8.926079       0.03465
  32     8.786        7.5192        0.0003       16.4367       16.4369       8.917737       0.03240
  31     11.80        7.5192        0.0004       16.4254       16.4257       8.906539       0.03135
  30     15.07        7.5192        0.0004       16.4141       16.4146       8.895396       0.02877
  29     18.79        7.5192        0.0006       16.4024       16.4030       8.883807       0.02628
  28     23.16        7.5192        0.0007       16.3900       16.3907       8.871460       0.02387
  27     28.12        7.5192        0.0008       16.3771       16.3779       8.858693       0.02170
  26     33.73        7.5193        0.0010       16.3641       16.3651       8.845838       0.01933
  25     40.54        7.5194        0.0012       16.3502       16.3514       8.832022       0.01714
  24     48.69        7.5195        0.0014       16.3354       16.3368       8.817312       0.01522
  23     57.69        7.5197        0.0017       16.3211       16.3228       8.803129       0.01329
  22     68.43        7.5199        0.0020       16.3062       16.3083       8.788382       0.01159
  21     81.20        7.5202        0.0024       16.2903       16.2927       8.772540       0.01047
  20     96.49        7.5206        0.0028       16.2726       16.2755       8.754913       0.00973
  19     114.6        7.5210        0.0034       16.2521       16.2555       8.734421       0.00957
  18     136.5        7.5216        0.0040       16.2245       16.2286       8.706926       0.01057
  17     162.9        7.5224        0.0048       16.1747       16.1795       8.657102       0.01593
  16     196.4        7.5235        0.0057       16.0518       16.0576       8.534060       0.03097
  15     218.7        7.5243        0.0063       15.8984       15.9047       8.380408       0.05834
  14     243.0        7.5253        0.0070       15.6153       15.6222       8.096906       0.09833
  13     269.0        7.5267        0.0076       15.1390       15.1465       7.619842       0.15476
  12     297.5        7.5287        0.0081       14.5779       14.5860       7.057323       0.16684
  11     328.5        7.5317        0.0087       13.8780       13.8867       6.355069       0.19094
  10     361.9        7.5360        0.0092       13.0814       13.0907       5.554670       0.20251
   9     398.1        7.5423        0.0097       12.2728       12.2825       4.740274       0.18974
   8     437.6        7.5515        0.0101       11.4776       11.4877       3.936174       0.17192
   7     480.5        7.5658        0.0105       10.7300       10.7405       3.174718       0.14955
   6     533.0        7.5914        0.0111       10.0326       10.0437       2.452320       0.11621
   5     589.8        7.6322        0.0117        9.5050        9.5167       1.884542       0.08428
   4     651.6        7.6983        0.0125        9.0814        9.0938       1.395579       0.06687
   3     718.7        7.8001        0.0133        8.7024        8.7157       0.915631       0.06032
   2     792.3        7.9514        0.0142        8.3379        8.3522       0.400757       0.05905
   1     891.5        0.0164        0.2827        0.0000        0.2827       0.266301       0.01144
   0    1013.0        0.0166        0.2771        0.0000        0.2771       0.260498       0.00040



 Wavenumbers:  6150. -  7700. cm-1, ATM      1
 LEVEL PRESSURE   UPWARD FLUX   DIFDOWN FLUX  DIRDOWN FLUX  DOWNWARD FLUX   NET FLUX    HEATING RATE
          mb          W/m2          W/m2          W/m2        W/m2          W/m2       degree/day
  51    .06700       11.7636        0.0000       30.4684       30.4684      18.704819       0.00000
  50    .07753       11.7636        0.0000       30.4683       30.4683      18.704768       0.04144
  49    .09103       11.7636        0.0000       30.4683       30.4683      18.704701       0.04174
  48    0.1069       11.7636        0.0000       30.4682       30.4682      18.704622       0.04202
  47    0.1255       11.7636        0.0000       30.4681       30.4681      18.704529       0.04227
  46    0.1487       11.7636        0.0000       30.4680       30.4680      18.704408       0.04411
  45    0.1794       11.7636        0.0000       30.4678       30.4678      18.704238       0.04669
  44    0.2165       11.7636        0.0000       30.4676       30.4676      18.704030       0.04715
  43    0.2613       11.7635        0.0000       30.4673       30.4673      18.703779       0.04744
  42    0.3336       11.7635        0.0000       30.4669       30.4669      18.703352       0.04974
  41    0.4307       11.7635        0.0000       30.4663       30.4663      18.702771       0.05052
  40    0.5894       11.7635        0.0001       30.4653       30.4653      18.701803       0.05146
  39     1.339       11.7635        0.0002       30.4604       30.4606      18.697120       0.05273
  38     1.782       11.7634        0.0002       30.4576       30.4578      18.694370       0.05235
  37     2.292       11.7634        0.0003       30.4543       30.4546      18.691211       0.05231
  36     2.964       11.7633        0.0004       30.4501       30.4504      18.687104       0.05156
  35     3.853       11.7632        0.0005       30.4445       30.4450      18.681747       0.05084
  34     5.035       11.7631        0.0006       30.4373       30.4379      18.674747       0.05000
  33     6.613       11.7630        0.0008       30.4278       30.4286      18.665599       0.04890
  32     8.786       11.7628        0.0011       30.4154       30.4165      18.653646       0.04642
  31     11.80       11.7625        0.0014       30.3984       30.3998      18.637260       0.04588
  30     15.07       11.7623        0.0018       30.3810       30.3828      18.620546       0.04315
  29     18.79       11.7619        0.0023       30.3623       30.3646      18.602645       0.04059
  28     23.16       11.7616        0.0028       30.3417       30.3445      18.582960       0.03806
  27     28.12       11.7611        0.0034       30.3196       30.3230      18.561858       0.03587
  26     33.73       11.7607        0.0041       30.2965       30.3006      18.539937       0.03296
  25     40.54       11.7601        0.0049       30.2708       30.2757      18.515596       0.03020
  24     48.69       11.7594        0.0059       30.2423       30.2482      18.488815       0.02771
  23     57.69       11.7586        0.0070       30.2139       30.2209      18.462243       0.02491
  22     68.43       11.7577        0.0083       30.1834       30.1917      18.433960       0.02223
  21     81.20       11.7566        0.0099       30.1500       30.1599      18.403219       0.02031
  20     96.49       11.7554        0.0117       30.1126       30.1243      18.368986       0.01889
  19     114.6       11.7538        0.0139       30.0695       30.0834      18.329577       0.01840
  18     136.5       11.7520        0.0165       30.0139       30.0304      18.278384       0.01968
  17     162.9       11.7500        0.0196       29.9225       29.9421      18.192126       0.02757
  16     196.4       11.7473        0.0236       29.7333       29.7569      18.009557       0.04595
  15     218.7       11.7457        0.0261       29.5259       29.5520      17.806231       0.07720
  14     243.0       11.7442        0.0288       29.1375       29.1663      17.422029       0.13325
  13     269.0       11.7432        0.0314       28.3800       28.4114      16.668171       0.24455
  12     297.5       11.7432        0.0339       27.3895       27.4234      15.680206       0.29302
  11     328.5       11.7450        0.0363       26.2257       26.2620      14.516958       0.31628
  10     361.9       11.7498        0.0385       24.8453       24.8838      13.134010       0.34990
   9     398.1       11.7593        0.0405       23.3471       23.3876      11.628325       0.35079
   8     437.6       11.7762        0.0424       21.7966       21.8390      10.062741       0.33473
   7     480.5       11.8065        0.0439       20.1977       20.2416       8.435164       0.31965
   6     533.0       11.8652        0.0456       18.4969       18.5425       6.677293       0.28279
   5     589.8       11.9632        0.0472       16.9754       17.0226       5.059445       0.24014
   4     651.6       12.1256        0.0490       15.6022       15.6511       3.525533       0.20977
   3     718.7       12.3781        0.0509       14.4232       14.4741       2.095944       0.17966
   2     792.3       12.7572        0.0531       13.4386       13.4917       0.734441       0.15615
   1     891.5        0.0253        0.4228        0.0000        0.4228       0.397494       0.02867
   0    1013.0        0.0260        0.4082        0.0000        0.4082       0.382234       0.00106



 Wavenumbers:  7700. -  8050. cm-1, ATM      1
 LEVEL PRESSURE   UPWARD FLUX   DIFDOWN FLUX  DIRDOWN FLUX  DOWNWARD FLUX   NET FLUX    HEATING RATE
          mb          W/m2          W/m2          W/m2        W/m2          W/m2       degree/day
  51    .06700        5.5654        0.0000        7.2006        7.2006       1.635191       0.00000
  50    .07753        5.5654        0.0000        7.2006        7.2006       1.635170       0.01719
  49    .09103        5.5654        0.0000        7.2005        7.2005       1.635143       0.01684
  48    0.1069        5.5654        0.0000        7.2005        7.2005       1.635112       0.01649
  47    0.1255        5.5654        0.0000        7.2005        7.2005       1.635076       0.01614
  46    0.1487        5.5654        0.0000        7.2004        7.2005       1.635031       0.01637
  45    0.1794        5.5654        0.0000        7.2004        7.2004       1.634970       0.01685
  44    0.2165        5.5654        0.0000        7.2003        7.2003       1.634897       0.01653
  43    0.2613        5.5655        0.0000        7.2003        7.2003       1.634811       0.01622
  42    0.3336        5.5655        0.0000        7.2001        7.2001       1.634669       0.01659
  41    0.4307        5.5655        0.0000        7.2000        7.2000       1.634480       0.01641
  40    0.5894        5.5656        0.0000        7.1997        7.1997       1.634172       0.01639
  39     1.339        5.5658        0.0001        7.1984        7.1985       1.632714       0.01642
  38     1.782        5.5659        0.0001        7.1977        7.1978       1.631857       0.01630
  37     2.292        5.5661        0.0001        7.1968        7.1970       1.630866       0.01641
  36     2.964        5.5663        0.0002        7.1957        7.1959       1.629566       0.01633
  35     3.853        5.5666        0.0002        7.1942        7.1944       1.627848       0.01630
  34     5.035        5.5669        0.0003        7.1922        7.1925       1.625567       0.01629
  33     6.613        5.5674        0.0004        7.1896        7.1900       1.622523       0.01628
  32     8.786        5.5681        0.0005        7.1860        7.1865       1.618425       0.01592
  31     11.80        5.5690        0.0006        7.1810        7.1816       1.612572       0.01638
  30     15.07        5.5701        0.0008        7.1755        7.1764       1.606303       0.01619
  29     18.79        5.5712        0.0010        7.1694        7.1705       1.599238       0.01602
  28     23.16        5.5726        0.0013        7.1623        7.1636       1.591010       0.01591
  27     28.12        5.5741        0.0015        7.1542        7.1558       1.581634       0.01594
  26     33.73        5.5759        0.0018        7.1452        7.1471       1.571184       0.01571
  25     40.54        5.5780        0.0022        7.1344        7.1366       1.558618       0.01559
  24     48.69        5.5806        0.0026        7.1215        7.1241       1.543558       0.01559
  23     57.69        5.5834        0.0031        7.1074        7.1106       1.527126       0.01540
  22     68.43        5.5868        0.0037        7.0909        7.0945       1.507705       0.01527
  21     81.20        5.5909        0.0044        7.0713        7.0757       1.484777       0.01515
  20     96.49        5.5959        0.0052        7.0484        7.0536       1.457748       0.01492
  19     114.6        5.6018        0.0061        7.0217        7.0278       1.426052       0.01480
  18     136.5        5.6088        0.0073        6.9906        6.9979       1.389016       0.01424
  17     162.9        5.6174        0.0086        6.9544        6.9630       1.345614       0.01387
  16     196.4        5.6287        0.0104        6.9087        6.9191       1.290401       0.01390
  15     218.7        5.6362        0.0115        6.8794        6.8909       1.254682       0.01356
  14     243.0        5.6446        0.0127        6.8481        6.8609       1.216277       0.01332
  13     269.0        5.6538        0.0141        6.8147        6.8288       1.175003       0.01339
  12     297.5        5.6640        0.0155        6.7791        6.7946       1.130594       0.01317
  11     328.5        5.6754        0.0171        6.7409        6.7580       1.082635       0.01304
  10     361.9        5.6882        0.0188        6.7002        6.7189       1.030759       0.01313
   9     398.1        5.7025        0.0206        6.6563        6.6768       0.974295       0.01315
   8     437.6        5.7188        0.0225        6.6089        6.6313       0.912514       0.01321
   7     480.5        5.7376        0.0245        6.5570        6.5815       0.843952       0.01347
   6     533.0        5.7627        0.0271        6.4915        6.5185       0.755864       0.01417
   5     589.8        5.7925        0.0298        6.4182        6.4480       0.655462       0.01490
   4     651.6        5.8284        0.0326        6.3359        6.3685       0.540126       0.01577
   3     718.7        5.8712        0.0357        6.2441        6.2798       0.408683       0.01652
   2     792.3        5.9214        0.0389        6.1437        6.1827       0.261296       0.01690
   1     891.5        0.0155        0.2222        0.0000        0.2222       0.206667       0.00465
   0    1013.0        0.0157        0.2185        0.0000        0.2185       0.202822       0.00027



 Wavenumbers:  8050. - 12850. cm-1, ATM      1
 LEVEL PRESSURE   UPWARD FLUX   DIFDOWN FLUX  DIRDOWN FLUX  DOWNWARD FLUX   NET FLUX    HEATING RATE
          mb          W/m2          W/m2          W/m2        W/m2          W/m2       degree/day
  51    .06700       72.3968        0.0000      100.8135      100.8135      28.416717       0.00000
  50    .07753       72.3968        0.0000      100.8135      100.8135      28.416717       0.00000
  49    .09103       72.3968        0.0001      100.8134      100.8135      28.416717       0.00000
  48    0.1069       72.3967        0.0001      100.8134      100.8135      28.416717      -0.00000
  47    0.1255       72.3967        0.0002      100.8133      100.8134      28.416717       0.00000
  46    0.1487       72.3967        0.0002      100.8132      100.8134      28.416717      -0.00000
  45    0.1794       72.3966        0.0003      100.8131      100.8134      28.416717       0.00000
  44    0.2165       72.3966        0.0004      100.8129      100.8133      28.416717      -0.00000
  43    0.2613       72.3965        0.0005      100.8127      100.8133      28.416717       0.00000
  42    0.3336       72.3964        0.0007      100.8125      100.8132      28.416717       0.00000
  41    0.4307       72.3963        0.0010      100.8121      100.8130      28.416717       0.00000
  40    0.5894       72.3961        0.0014      100.8115      100.8128      28.416717      -0.00000
  39     1.339       72.3951        0.0034      100.8085      100.8118      28.416717      -0.00000
  38     1.782       72.3946        0.0045      100.8068      100.8113      28.416717       0.00000
  37     2.292       72.3939        0.0059      100.8047      100.8106      28.416717      -0.00000
  36     2.964       72.3930        0.0076      100.8021      100.8097      28.416717      -0.00000
  35     3.853       72.3918        0.0100      100.7986      100.8086      28.416717       0.00000
  34     5.035       72.3903        0.0131      100.7940      100.8070      28.416717      -0.00000
  33     6.613       72.3882        0.0172      100.7878      100.8050      28.416717       0.00000
  32     8.786       72.3855        0.0228      100.7794      100.8022      28.416717       0.00000
  31     11.80       72.3815        0.0308      100.7674      100.7982      28.416717       0.00000
  30     15.07       72.3772        0.0394      100.7546      100.7939      28.416717      -0.00000
  29     18.79       72.3724        0.0491      100.7400      100.7891      28.416717      -0.00000
  28     23.16       72.3667        0.0605      100.7230      100.7834      28.416717       0.00000
  27     28.12       72.3602        0.0735      100.7035      100.7770      28.416717      -0.00000
  26     33.73       72.3530        0.0880      100.6817      100.7697      28.416717       0.00000
  25     40.54       72.3442        0.1057      100.6552      100.7609      28.416717       0.00000
  24     48.69       72.3336        0.1270      100.6234      100.7503      28.416717      -0.00000
  23     57.69       72.3219        0.1504      100.5883      100.7387      28.416717       0.00000
  22     68.43       72.3080        0.1783      100.5464      100.7248      28.416717      -0.00000
  21     81.20       72.2915        0.2116      100.4965      100.7082      28.416717       0.00000
  20     96.49       72.2716        0.2514      100.4370      100.6884      28.416717      -0.00000
  19     114.6       72.2483        0.2987      100.3585      100.6572      28.408887       0.00366
  18     136.5       72.2206        0.3549      100.2634      100.6182      28.397630       0.00433
  17     162.9       72.1877        0.4219      100.1407      100.5625      28.374847       0.00728
  16     196.4       72.1452        0.5089       99.9505      100.4594      28.314235       0.01526
  15     218.7       72.1173        0.5661       99.7889      100.3550      28.237689       0.02906
  14     243.0       72.0877        0.6282       99.5472      100.1754      28.087678       0.05203
  13     269.0       72.0578        0.6952       99.1452       99.8405      27.782681       0.09894
  12     297.5       72.0293        0.7672       98.5975       99.3647      27.335350       0.13267
  11     328.5       72.0055        0.8444       97.8659       98.7103      26.704795       0.17145
  10     361.9       71.9909        0.9266       96.8848       97.8114      25.820511       0.22373
   9     398.1       71.9918        1.0137       95.6330       96.6467      24.654826       0.27158
   8     437.6       72.0197        1.1051       94.0655       95.1706      23.150856       0.32156
   7     480.5       72.0972        1.2000       92.0807       93.2808      21.183544       0.38637
   6     533.0       72.2746        1.3128       89.4449       90.7576      18.483059       0.43442
   5     589.8       72.5914        1.4298       86.5544       87.9842      15.392722       0.45871
   4     651.6       73.1287        1.5505       83.4174       84.9679      11.839273       0.48594
   3     718.7       73.9564        1.6759       80.2037       81.8796       7.923268       0.49213
   2     792.3       75.1623        1.8067       77.0811       78.8878       3.725411       0.48145
   1     891.5        0.6481        3.1561        0.0000        3.1561       2.508028       0.10359
   0    1013.0        0.6582        3.0842        0.0000        3.0842       2.426047       0.00569



 Wavenumbers: 12850. - 16000. cm-1, ATM      1
 LEVEL PRESSURE   UPWARD FLUX   DIFDOWN FLUX  DIRDOWN FLUX  DOWNWARD FLUX   NET FLUX    HEATING RATE
          mb          W/m2          W/m2          W/m2        W/m2          W/m2       degree/day
  51    .06700       51.8389        0.0000       63.1686       63.1686      11.329638       0.00000
  50    .07753       51.8389        0.0001       63.1677       63.1678      11.328855       0.62819
  49    .09103       51.8389        0.0001       63.1666       63.1668      11.327877       0.61104
  48    0.1069       51.8389        0.0002       63.1654       63.1656      11.326763       0.59318
  47    0.1255       51.8389        0.0003       63.1640       63.1644      11.325494       0.57533
  46    0.1487       51.8388        0.0005       63.1623       63.1628      11.323908       0.57781
  45    0.1794       51.8388        0.0006       63.1600       63.1606      11.321779       0.58452
  44    0.2165       51.8388        0.0009       63.1573       63.1581      11.319312       0.56125
  43    0.2613       51.8388        0.0011       63.1542       63.1553      11.316459       0.53772
  42    0.3336       51.8389        0.0015       63.1493       63.1508      11.311900       0.53155
  41    0.4307       51.8390        0.0021       63.1431       63.1452      11.306176       0.49770
  40    0.5894       51.8393        0.0030       63.1338       63.1368      11.297454       0.46381
  39     1.339       51.8427        0.0072       63.0956       63.1028      11.260036       0.42126
  38     1.782       51.8462        0.0097       63.0740       63.0837      11.237537       0.42834
  37     2.292       51.8515        0.0126       63.0477       63.0602      11.208729       0.47713
  36     2.964       51.8605        0.0163       63.0095       63.0259      11.165320       0.54492
  35     3.853       51.8754        0.0213       62.9533       62.9746      11.099185       0.62763
  34     5.035       51.8980        0.0279       62.8725       62.9004      11.002467       0.69091
  33     6.613       51.9296        0.0368       62.7621       62.7988      10.869233       0.71227
  32     8.786       51.9707        0.0486       62.6182       62.6669      10.696207       0.67197
  31     11.80       52.0238        0.0656       62.4284       62.4939      10.470137       0.63293
  30     15.07       52.0743        0.0837       62.2426       62.3263      10.252069       0.56301
  29     18.79       52.1254        0.1042       62.0493       62.1535      10.028118       0.50777
  28     23.16       52.1783        0.1281       61.8424       61.9705       9.792242       0.45611
  27     28.12       52.2308        0.1553       61.6278       61.7831       9.552315       0.40786
  26     33.73       52.2782        0.1857       61.4177       61.6034       9.325195       0.34148
  25     40.54       52.3223        0.2225       61.1983       61.4208       9.098436       0.28132
  24     48.69       52.3627        0.2667       60.9680       61.2347       8.871949       0.23438
  23     57.69       52.3947        0.3152       60.7478       61.0630       8.668303       0.19089
  22     68.43       52.4194        0.3730       60.5202       60.8932       8.473746       0.15295
  21     81.20       52.4305        0.4418       60.2938       60.7356       8.305124       0.11142
  20     96.49       52.4267        0.5238       60.0643       60.5881       8.161332       0.07936
  19     114.6       52.4216        0.6218       59.8078       60.4296       8.008020       0.07159
  18     136.5       52.4082        0.7379       59.5157       60.2536       7.845411       0.06253
  17     162.9       52.3855        0.8757       59.1770       60.0528       7.667264       0.05694
  16     196.4       52.3419        1.0542       58.7604       59.8146       7.472696       0.04897
  15     218.7       52.3083        1.1712       58.4948       59.6660       7.357655       0.04368
  14     243.0       52.2697        1.2981       58.2089       59.5070       7.237278       0.04175
  13     269.0       52.2263        1.4354       57.9006       59.3360       7.109706       0.04138
  12     297.5       52.1785        1.5836       57.5668       59.1504       6.971858       0.04088
  11     328.5       52.1282        1.7433       57.2005       58.9438       6.815588       0.04249
  10     361.9       52.0769        1.9149       56.7963       58.7113       6.634310       0.04586
   9     398.1       52.0264        2.0990       56.3475       58.4466       6.420109       0.04990
   8     437.6       51.9805        2.2960       55.8422       58.1382       6.157764       0.05609
   7     480.5       51.9457        2.5060       55.2625       57.7685       5.822791       0.06579
   6     533.0       51.9274        2.7625       54.4972       57.2596       5.332203       0.07892
   5     589.8       51.9389        3.0357       53.6307       56.6664       4.727467       0.08976
   4     651.6       51.9952        3.3249       52.6606       55.9855       3.990264       0.10081
   3     718.7       52.1064        3.6305       51.6100       55.2406       3.134131       0.10759
   2     792.3       52.2860        3.9526       50.5019       54.4544       2.168435       0.11075
   1     891.5        2.1272        3.9423        0.0000        3.9423       1.815124       0.03007
   0    1013.0        2.1395        3.8999        0.0000        3.8999       1.760417       0.00380



 Wavenumbers: 16000. - 22650. cm-1, ATM      1
 LEVEL PRESSURE   UPWARD FLUX   DIFDOWN FLUX  DIRDOWN FLUX  DOWNWARD FLUX   NET FLUX    HEATING RATE
          mb          W/m2          W/m2          W/m2        W/m2          W/m2       degree/day
  51    .06700       87.0171        0.0000      100.7153      100.7153      13.698157       0.00000
  50    .07753       87.0170        0.0003      100.7147      100.7151      13.698035       0.09823
  49    .09103       87.0169        0.0008      100.7140      100.7148      13.697856       0.11142
  48    0.1069       87.0168        0.0013      100.7131      100.7144      13.697618       0.12705
  47    0.1255       87.0166        0.0018      100.7121      100.7139      13.697298       0.14482
  46    0.1487       87.0165        0.0025      100.7108      100.7133      13.696828       0.17161
  45    0.1794       87.0163        0.0035      100.7089      100.7124      13.696091       0.20205
  44    0.2165       87.0161        0.0046      100.7066      100.7112      13.695093       0.22708
  43    0.2613       87.0159        0.0060      100.7037      100.7097      13.693739       0.25529
  42    0.3336       87.0158        0.0082      100.6987      100.7069      13.691164       0.30022
  41    0.4307       87.0157        0.0112      100.6918      100.7030      13.687283       0.33747
  40    0.5894       87.0159        0.0161      100.6797      100.6958      13.679881       0.39363
  39     1.339       87.0234        0.0391      100.6095      100.6486      13.625203       0.61557
  38     1.782       87.0324        0.0526      100.5585      100.6111      13.578638       0.88654
  37     2.292       87.0473        0.0683      100.4903      100.5585      13.511252       1.11608
  36     2.964       87.0734        0.0888      100.3868      100.4756      13.402133       1.36978
  35     3.853       87.1174        0.1159      100.2306      100.3465      13.229099       1.64213
  34     5.035       87.1851        0.1518      100.0045      100.1563      12.971195       1.84236
  33     6.613       87.2803        0.1997       99.6939       99.8935      12.613275       1.91344
  32     8.786       87.4037        0.2641       99.2881       99.5521      12.148393       1.80544
  31     11.80       87.5622        0.3559       98.7496       99.1055      11.543298       1.69408
  30     15.07       87.7112        0.4541       98.2198       98.6739      10.962782       1.49878
  29     18.79       87.8605        0.5647       97.6651       98.2299      10.369418       1.34534
  28     23.16       88.0129        0.6935       97.0671       97.7606       9.747721       1.20216
  27     28.12       88.1617        0.8402       96.4406       97.2808       9.119101       1.06861
  26     33.73       88.2914        1.0039       95.8179       96.8218       8.530408       0.88512
  25     40.54       88.4055        1.2010       95.1548       96.3558       7.950316       0.71967
  24     48.69       88.5019        1.4378       94.4420       95.8798       7.377810       0.59245
  23     57.69       88.5681        1.6969       93.7416       95.4385       6.870379       0.47564
  22     68.43       88.6042        2.0043       92.9954       94.9997       6.395496       0.37332
  21     81.20       88.5885        2.3692       92.2231       94.5924       6.003863       0.25879
  20     96.49       88.5158        2.8022       91.4110       94.2132       5.697452       0.16912
  19     114.6       88.4025        3.3130       90.5070       93.8200       5.417537       0.13070
  18     136.5       88.2507        3.9136       89.4803       93.3938       5.143087       0.10553
  17     162.9       88.0550        4.6220       88.3022       92.9242       4.869181       0.08755
  16     196.4       87.7675        5.5307       86.8606       92.3913       4.623844       0.06175
  15     218.7       87.5671        6.1213       85.9492       92.0705       4.503420       0.04572
  14     243.0       87.3449        6.7578       84.9789       91.7368       4.391876       0.03869
  13     269.0       87.0998        7.4413       83.9493       91.3906       4.290769       0.03280
  12     297.5       86.8313        8.1725       82.8589       91.0315       4.200217       0.02686
  11     328.5       86.5414        8.9543       81.6982       90.6526       4.111190       0.02421
  10     361.9       86.2303        9.7864       80.4669       90.2534       4.023102       0.02229
   9     398.1       85.8975       10.6710       79.1611       89.8321       3.934632       0.02061
   8     437.6       85.5440       11.6085       77.7777       89.3862       3.842213       0.01976
   7     480.5       85.1706       12.5993       76.3136       88.9130       3.742382       0.01961
   6     533.0       84.7199       13.7994       74.5359       88.3352       3.615352       0.02044
   5     589.8       84.2468       15.0690       72.6469       87.7159       3.469116       0.02171
   4     651.6       83.7547       16.4064       70.6456       87.0520       3.297265       0.02350
   3     718.7       83.2447       17.8098       68.5367       86.3465       3.101807       0.02456
   2     792.3       82.7200       19.2741       66.3287       85.6028       2.882806       0.02512
   1     891.5       11.3408       14.1158        0.0000       14.1158       2.774989       0.00917
   0    1013.0       11.3253       14.0617        0.0000       14.0617       2.736411       0.00268



 Wavenumbers: 22650. - 29000. cm-1, ATM      1
 LEVEL PRESSURE   UPWARD FLUX   DIFDOWN FLUX  DIRDOWN FLUX  DOWNWARD FLUX   NET FLUX    HEATING RATE
          mb          W/m2          W/m2          W/m2        W/m2          W/m2       degree/day
  51    .06700       36.9813        0.0000       38.0063       38.0063       1.024963       0.00000
  50    .07753       36.9812        0.0004       38.0057       38.0061       1.024963       0.00000
  49    .09103       36.9810        0.0009       38.0050       38.0059       1.024963      -0.00000
  48    0.1069       36.9807        0.0015       38.0042       38.0057       1.024963       0.00000
  47    0.1255       36.9805        0.0021       38.0033       38.0054       1.024963      -0.00000
  46    0.1487       36.9801        0.0029       38.0022       38.0051       1.024963       0.00000
  45    0.1794       36.9797        0.0041       38.0006       38.0047       1.024963      -0.00000
  44    0.2165       36.9792        0.0054       37.9987       38.0041       1.024963       0.00000
  43    0.2613       36.9785        0.0070       37.9965       38.0035       1.024963      -0.00000
  42    0.3336       36.9775        0.0096       37.9928       38.0024       1.024963       0.00000
  41    0.4307       36.9761        0.0131       37.9880       38.0010       1.024963       0.00000
  40    0.5894       36.9738        0.0187       37.9800       37.9988       1.024963       0.00000
  39     1.339       36.9630        0.0455       37.9425       37.9880       1.024963       0.00000
  38     1.782       36.9567        0.0613       37.9204       37.9817       1.024963      -0.00000
  37     2.292       36.9494        0.0795       37.8949       37.9744       1.024963       0.00000
  36     2.964       36.9398        0.1033       37.8614       37.9648       1.024963       0.00000
  35     3.853       36.9271        0.1349       37.8172       37.9521       1.024963       0.00000
  34     5.035       36.9103        0.1767       37.7586       37.9353       1.024963      -0.00000
  33     6.613       36.8879        0.2325       37.6803       37.9128       1.024963       0.00000
  32     8.786       36.8577        0.3076       37.5750       37.8827       1.024963       0.00000
  31     11.80       36.8146        0.4147       37.4249       37.8396       1.024963      -0.00000
  30     15.07       36.7686        0.5294       37.2642       37.7935       1.024963       0.00000
  29     18.79       36.7167        0.6584       37.0833       37.7417       1.024963       0.00000
  28     23.16       36.6564        0.8083       36.8730       37.6813       1.024963      -0.00000
  27     28.12       36.5878        0.9789       36.6338       37.6127       1.024963       0.00000
  26     33.73       36.5114        1.1687       36.3677       37.5364       1.024963       0.00000
  25     40.54       36.4198        1.3963       36.0486       37.4448       1.024963      -0.00000
  24     48.69       36.3104        1.6681       35.6672       37.3354       1.024963       0.00000
  23     57.69       36.1914        1.9637       35.2527       37.2164       1.024963      -0.00000
  22     68.43       36.0513        2.3114       34.7649       37.0763       1.024963       0.00000
  21     81.20       35.8868        2.7195       34.1922       36.9117       1.024963      -0.00000
  20     96.49       35.6941        3.1973       33.5217       36.7190       1.024963       0.00000
  19     114.6       35.4699        3.7525       32.7424       36.4949       1.024963       0.00000
  18     136.5       35.2107        4.3941       31.8416       36.2357       1.024963      -0.00000
  17     162.9       34.9109        5.1351       30.8008       35.9359       1.024963      -0.00000
  16     196.4       34.5361        6.0604       29.5007       35.5611       1.024963       0.00000
  15     218.7       34.2983        6.6465       28.6767       35.3232       1.024963       0.00000
  14     243.0       34.0470        7.2652       27.8068       35.0719       1.024963       0.00000
  13     269.0       33.7828        7.9145       26.8933       34.8078       1.024963       0.00000
  12     297.5       33.5066        8.5923       25.9393       34.5316       1.024963      -0.00000
  11     328.5       33.2185        9.2983       24.9451       34.2434       1.024963      -0.00000
  10     361.9       32.9197       10.0287       23.9160       33.9447       1.024963       0.00000
   9     398.1       32.6110       10.7818       22.8541       33.6360       1.024963       0.00000
   8     437.6       32.2936       11.5541       21.7645       33.3186       1.024963       0.00000
   7     480.5       31.9690       12.3418       20.6521       32.9940       1.024963      -0.00000
   6     533.0       31.5900       13.2581       19.3569       32.6150       1.024963       0.00000
   5     589.8       31.2055       14.1837       18.0467       32.2305       1.024963       0.00000
   4     651.6       30.8181       15.1115       16.7316       31.8431       1.024963       0.00000
   3     718.7       30.4306       16.0342       15.4214       31.4556       1.024963       0.00000
   2     792.3       30.0461       16.9435       14.1276       31.0711       1.024963       0.00000
   1     891.5        6.8593        7.8825        0.0000        7.8825       1.023255       0.00015
   0    1013.0        6.8238        7.8470        0.0000        7.8470       1.023255       0.00000



 Wavenumbers: 29000. - 38000. cm-1, ATM      1
 LEVEL PRESSURE   UPWARD FLUX   DIFDOWN FLUX  DIRDOWN FLUX  DOWNWARD FLUX   NET FLUX    HEATING RATE
          mb          W/m2          W/m2          W/m2        W/m2          W/m2       degree/day
  51    .06700        5.2915        0.0000       13.4026       13.4026       8.111094       0.00000
  50    .07753        5.2913        0.0003       13.3983       13.3986       8.107295       3.04478
  49    .09103        5.2910        0.0007       13.3921       13.3928       8.101775       3.45012
  48    0.1069        5.2907        0.0011       13.3840       13.3851       8.094397       3.92729
  47    0.1255        5.2904        0.0016       13.3733       13.3749       8.084551       4.46378
  46    0.1487        5.2900        0.0022       13.3579       13.3601       8.070107       5.26511
  45    0.1794        5.2894        0.0030       13.3340       13.3371       8.047704       6.15014
  44    0.2165        5.2887        0.0040       13.3024       13.3064       8.017680       6.82977
  43    0.2613        5.2880        0.0052       13.2604       13.2656       7.977620       7.55125
  42    0.3336        5.2868        0.0071       13.1833       13.1904       7.903602       8.62980
  41    0.4307        5.2853        0.0096       13.0729       13.0825       7.797211       9.25038
  40    0.5894        5.2830        0.0135       12.8796       12.8931       7.610133       9.94859
  39     1.339        5.2749        0.0299       11.9165       11.9465       6.671527      10.56700
  38     1.782        5.2720        0.0384       11.4399       11.4783       6.206320       8.85679
  37     2.292        5.2699        0.0474       10.9796       11.0270       5.757067       7.44081
  36     2.964        5.2691        0.0584       10.4786       10.5371       5.267924       6.14023
  35     3.853        5.2708        0.0721        9.9429       10.0150       4.744262       4.96965
  34     5.035        5.2756        0.0892        9.4007        9.4899       4.214338       3.78556
  33     6.613        5.2838        0.1109        8.8752        8.9861       3.702297       2.73737
  32     8.786        5.2951        0.1389        8.3786        8.5175       3.222415       1.86369
  31     11.80        5.3091        0.1774        7.8897        8.0671       2.757937       1.30039
  30     15.07        5.3217        0.2171        7.5108        7.7279       2.406266       0.90794
  29     18.79        5.3337        0.2604        7.1776        7.4381       2.104313       0.68462
  28     23.16        5.3454        0.3093        6.8664        7.1757       1.830259       0.52993
  27     28.12        5.3559        0.3633        6.5780        6.9413       1.585416       0.41622
  26     33.73        5.3625        0.4222        6.3195        6.7417       1.379205       0.31004
  25     40.54        5.3643        0.4918        6.0663        6.5581       1.193752       0.23008
  24     48.69        5.3608        0.5733        5.8128        6.3862       1.025351       0.17427
  23     57.69        5.3516        0.6605        5.5777        6.2382       0.886557       0.13010
  22     68.43        5.3348        0.7614        5.3379        6.0993       0.764525       0.09593
  21     81.20        5.3058        0.8787        5.0965        5.9751       0.669306       0.06292
  20     96.49        5.2636        1.0142        4.8476        5.8619       0.598228       0.03923
  19     114.6        5.2117        1.1681        4.5799        5.7479       0.536200       0.02896
  18     136.5        5.1515        1.3403        4.2891        5.6294       0.477894       0.02242
  17     162.9        5.0828        1.5317        3.9732        5.5049       0.422123       0.01783
  16     196.4        4.9955        1.7617        3.6080        5.3697       0.374258       0.01205
  15     218.7        4.9405        1.9021        3.3898        5.2919       0.351385       0.00868
  14     243.0        4.8836        2.0456        3.1686        5.2142       0.330576       0.00722
  13     269.0        4.8250        2.1911        2.9461        5.1372       0.312163       0.00597
  12     297.5        4.7652        2.3375        2.7239        5.0614       0.296177       0.00474
  11     328.5        4.7052        2.4834        2.5029        4.9863       0.281104       0.00410
  10     361.9        4.6453        2.6276        2.2846        4.9122       0.266971       0.00358
   9     398.1        4.5860        2.7690        2.0708        4.8398       0.253773       0.00307
   8     437.6        4.5279        2.9065        1.8626        4.7691       0.241230       0.00268
   7     480.5        4.4714        3.0387        1.6621        4.7009       0.229483       0.00231
   6     533.0        4.4092        3.1824        1.4437        4.6261       0.216850       0.00203
   5     589.8        4.3505        3.3163        1.2390        4.5553       0.204782       0.00179
   4     651.6        4.2959        3.4390        1.0500        4.4890       0.193117       0.00160
   3     718.7        4.2456        3.5497        0.8778        4.4275       0.181813       0.00142
   2     792.3        4.2003        3.6474        0.7237        4.3711       0.170849       0.00126
   1     891.5        0.8765        1.0395        0.0000        1.0395       0.163078       0.00066
   0    1013.0        0.8664        1.0264        0.0000        1.0264       0.160017       0.00021



 Wavenumbers: 38000. - 50000. cm-1, ATM      1
 LEVEL PRESSURE   UPWARD FLUX   DIFDOWN FLUX  DIRDOWN FLUX  DOWNWARD FLUX   NET FLUX    HEATING RATE
          mb          W/m2          W/m2          W/m2        W/m2          W/m2       degree/day
  51    .06700        0.0051        0.0000        0.8267        0.8267       0.821528       0.00000
  50    .07753        0.0051        0.0001        0.8242        0.8243       0.819196       1.86936
  49    .09103        0.0050        0.0002        0.8207        0.8209       0.815872       2.07705
  48    0.1069        0.0049        0.0002        0.8162        0.8164       0.811514       2.31984
  47    0.1255        0.0048        0.0004        0.8103        0.8106       0.805801       2.59006
  46    0.1487        0.0047        0.0005        0.8018        0.8023       0.797567       3.00143
  45    0.1794        0.0045        0.0007        0.7889        0.7896       0.785013       3.44648
  44    0.2165        0.0044        0.0009        0.7720        0.7729       0.768507       3.75474
  43    0.2613        0.0042        0.0011        0.7500        0.7511       0.746955       4.06246
  42    0.3336        0.0039        0.0015        0.7106        0.7121       0.708267       4.51071
  41    0.4307        0.0035        0.0019        0.6566        0.6584       0.654972       4.63387
  40    0.5894        0.0029        0.0024        0.5680        0.5704       0.567464       4.65357
  39     1.339        0.0015        0.0030        0.2422        0.2452       0.243720       3.64476
  38     1.782        0.0010        0.0026        0.1493        0.1519       0.150889       1.76735
  37     2.292        0.0007        0.0022        0.0924        0.0946       0.093932       0.94336
  36     2.964        0.0005        0.0018        0.0539        0.0557       0.055224       0.48589
  35     3.853        0.0003        0.0013        0.0295        0.0308       0.030502       0.23462
  34     5.035        0.0002        0.0010        0.0154        0.0164       0.016181       0.10230
  33     6.613        0.0001        0.0007        0.0073        0.0080       0.007912       0.04420
  32     8.786        0.0000        0.0004        0.0030        0.0034       0.003390       0.01756
  31     11.80        0.0000        0.0003        0.0010        0.0012       0.001199       0.00613
  30     15.07        0.0000        0.0001        0.0003        0.0005       0.000463       0.00190
  29     18.79        0.0000        0.0001        0.0001        0.0002       0.000182       0.00064
  28     23.16        0.0000        0.0000        0.0000        0.0001       0.000071       0.00022
  27     28.12        0.0000        0.0000        0.0000        0.0000       0.000028       0.00007
  26     33.73        0.0000        0.0000        0.0000        0.0000       0.000011       0.00002
  25     40.54        0.0000        0.0000        0.0000        0.0000       0.000005       0.00001
  24     48.69        0.0000        0.0000        0.0000        0.0000       0.000002       0.00000
  23     57.69        0.0000        0.0000        0.0000        0.0000       0.000001       0.00000
  22     68.43        0.0000        0.0000        0.0000        0.0000       0.000000       0.00000
  21     81.20        0.0000        0.0000        0.0000        0.0000       0.000000       0.00000
  20     96.49        0.0000        0.0000        0.0000        0.0000       0.000000       0.00000
  19     114.6        0.0000        0.0000        0.0000        0.0000       0.000000       0.00000
  18     136.5        0.0000        0.0000        0.0000        0.0000       0.000000       0.00000
  17     162.9        0.0000        0.0000        0.0000        0.0000       0.000000       0.00000
  16     196.4        0.0000        0.0000        0.0000        0.0000       0.000000       0.00000
  15     218.7        0.0000        0.0000        0.0000        0.0000       0.000000       0.00000
  14     243.0        0.0000        0.0000        0.0000        0.0000       0.000000       0.00000
  13     269.0        0.0000        0.0000        0.0000        0.0000       0.000000       0.00000
  12     297.5        0.0000        0.0000        0.0000        0.0000       0.000000       0.00000
  11     328.5        0.0000        0.0000        0.0000        0.0000       0.000000       0.00000
  10     361.9        0.0000        0.0000        0.0000        0.0000       0.000000       0.00000
   9     398.1        0.0000        0.0000        0.0000        0.0000       0.000000       0.00000
   8     437.6        0.0000        0.0000        0.0000        0.0000       0.000000       0.00000
   7     480.5        0.0000        0.0000        0.0000        0.0000       0.000000       0.00000
   6     533.0        0.0000        0.0000        0.0000        0.0000       0.000000       0.00000
   5     589.8        0.0000        0.0000        0.0000        0.0000       0.000000       0.00000
   4     651.6        0.0000        0.0000        0.0000        0.0000       0.000000       0.00000
   3     718.7        0.0000        0.0000        0.0000        0.0000       0.000000       0.00000
   2     792.3        0.0000        0.0000        0.0000        0.0000       0.000000       0.00000
   1     891.5        0.0000        0.0000        0.0000        0.0000       0.000000       0.00000
   0    1013.0        0.0000        0.0000        0.0000        0.0000       0.000000       0.00000



 Wavenumbers:   820. -  2600. cm-1, ATM      1
 LEVEL PRESSURE   UPWARD FLUX   DIFDOWN FLUX  DIRDOWN FLUX  DOWNWARD FLUX   NET FLUX    HEATING RATE
          mb          W/m2          W/m2          W/m2        W/m2          W/m2       degree/day
  51    .06700        0.9190        0.0000        3.8670        3.8670       2.947995       0.00000
  50    .07753        0.9190        0.0000        3.8643        3.8643       2.945278       2.17771
  49    .09103        0.9190        0.0000        3.8635        3.8635       2.944468       0.50640
  48    0.1069        0.9190        0.0000        3.8626        3.8626       2.943577       0.47417
  47    0.1255        0.9190        0.0000        3.8616        3.8616       2.942616       0.43561
  46    0.1487        0.9190        0.0000        3.8605        3.8605       2.941506       0.40439
  45    0.1794        0.9190        0.0000        3.8592        3.8592       2.940171       0.36650
  44    0.2165        0.9190        0.0000        3.8578        3.8578       2.938793       0.31348
  43    0.2613        0.9190        0.0000        3.8564        3.8564       2.937333       0.27524
  42    0.3336        0.9190        0.0000        3.8541        3.8541       2.935102       0.26015
  41    0.4307        0.9190        0.0000        3.8512        3.8512       2.932219       0.25065
  40    0.5894        0.9190        0.0000        3.8465        3.8465       2.927492       0.25136
  39     1.339        0.9190        0.0000        3.8251        3.8251       2.906115       0.24067
  38     1.782        0.9190        0.0000        3.8133        3.8133       2.894300       0.22492
  37     2.292        0.9190        0.0000        3.8003        3.8003       2.881238       0.21636
  36     2.964        0.9190        0.0000        3.7841        3.7841       2.865107       0.20249
  35     3.853        0.9190        0.0000        3.7642        3.7642       2.845189       0.18902
  34     5.035        0.9190        0.0000        3.7395        3.7395       2.820494       0.17641
  33     6.613        0.9190        0.0000        3.7090        3.7090       2.789953       0.16327
  32     8.786        0.9191        0.0000        3.6726        3.6726       2.753553       0.14137
  31     11.80        0.9191        0.0000        3.6320        3.6320       2.712948       0.11368
  30     15.07        0.9191        0.0000        3.6016        3.6016       2.682552       0.07848
  29     18.79        0.9191        0.0000        3.5777        3.5777       2.658641       0.05421
  28     23.16        0.9191        0.0000        3.5564        3.5564       2.637271       0.04132
  27     28.12        0.9191        0.0000        3.5348        3.5348       2.615706       0.03666
  26     33.73        0.9192        0.0000        3.5118        3.5118       2.592652       0.03466
  25     40.54        0.9192        0.0000        3.4849        3.4849       2.565737       0.03339
  24     48.69        0.9192        0.0000        3.4537        3.4537       2.534453       0.03237
  23     57.69        0.9193        0.0000        3.4210        3.4210       2.501744       0.03066
  22     68.43        0.9193        0.0000        3.3844        3.3844       2.465116       0.02879
  21     81.20        0.9194        0.0000        3.3441        3.3441       2.424765       0.02666
  20     96.49        0.9195        0.0000        3.2998        3.2998       2.380337       0.02452
  19     114.6        0.9195        0.0000        3.2506        3.2507       2.331110       0.02299
  18     136.5        0.9197        0.0000        3.1936        3.1936       2.273950       0.02198
  17     162.9        0.9199        0.0000        3.1181        3.1181       2.198258       0.02419
  16     196.4        0.9203        0.0000        3.0090        3.0090       2.088705       0.02758
  15     218.7        0.9206        0.0000        2.9420        2.9420       2.021431       0.02554
  14     243.0        0.9210        0.0000        2.8605        2.8605       1.939473       0.02843
  13     269.0        0.9218        0.0000        2.7419        2.7420       1.820228       0.03868
  12     297.5        0.9230        0.0000        2.5729        2.5729       1.649930       0.05051
  11     328.5        0.9249        0.0000        2.3602        2.3602       1.435328       0.05835
  10     361.9        0.9278        0.0000        2.1524        2.1524       1.224647       0.05330
   9     398.1        0.9319        0.0000        1.9974        1.9974       1.065518       0.03707
   8     437.6        0.9377        0.0000        1.8835        1.8835       0.945873       0.02558
   7     480.5        0.9458        0.0000        1.7734        1.7735       0.827623       0.02322
   6     533.0        0.9592        0.0000        1.6397        1.6398       0.680572       0.02366
   5     589.8        0.9783        0.0000        1.5068        1.5069       0.528518       0.02257
   4     651.6        1.0066        0.0000        1.3807        1.3807       0.374111       0.02112
   3     718.7        1.0445        0.0000        1.2680        1.2681       0.223596       0.01892
   2     792.3        1.0921        0.0000        1.1659        1.1660       0.073921       0.01717
   1     891.5        0.0018        0.0301        0.0000        0.0301       0.028341       0.00388
   0    1013.0        0.0019        0.0275        0.0000        0.0275       0.025509       0.00020

  Modules and versions used in this calculation:

       rrtmg_sw.1col.f90:  $Revision$                    rrtmg_sw_init.f90:  $Revision$        
     rrtmgsw_cldprop.f90:  $Revision$                  rrtmgsw_cldprmc.f90:  NOT USED          
     rrtmg_sw_reftra.f90:  $Revision$                  rrtmg_sw_spcvrt.f90:  NOT USED          
     rrtmg_sw_spcvmc.f90:  NOT USED                    rrtmgsw_setcoef.f90:  NOT USED          
     rrtmg_sw_taumol.f90:  $Revision$                  rrtmg_sw_vrtqdr.f90:  NOT USED          
                rrtatm.f:  NOT USED                             util_xxx.f:  NOT USED          
                 extra.f:  NOT USED                       rrtmg_sw_k_g.f90:  $Revision$        

