

 Wavenumbers:   820. - 50000. cm-1, ATM      1
 LEVEL PRESSURE   UPWARD FLUX   DIFDOWN FLUX  DIRDOWN FLUX  DOWNWARD FLUX   NET FLUX    HEATING RATE
          mb          W/m2          W/m2          W/m2        W/m2          W/m2       degree/day
  51    .06700      211.9502        0.0000      397.8738      397.8738     185.923607       0.00000
  50    .07753      211.9496        0.0012      397.8577      397.8589     185.909321      11.45049
  49    .09103      211.9488        0.0026      397.8418      397.8445     185.895640       8.55112
  48    0.1069      211.9480        0.0043      397.8230      397.8273     185.879302       8.69699
  47    0.1255      211.9470        0.0062      397.7997      397.8059     185.858872       9.26199
  46    0.1487      211.9458        0.0086      397.7676      397.7763     185.830433      10.36632
  45    0.1794      211.9443        0.0120      397.7205      397.7325     185.788169      11.60227
  44    0.2165      211.9425        0.0159      397.6602      397.6761     185.733560      12.42269
  43    0.2613      211.9405        0.0205      397.5829      397.6034     185.662816      13.33502
  42    0.3336      211.9374        0.0280      397.4449      397.4729     185.535476      14.84650
  41    0.4307      211.9336        0.0379      397.2524      397.2903     185.356757      15.53923
  40    0.5894      211.9279        0.0539      396.9253      396.9792     185.051325      16.24251
  39     1.339      211.9119        0.1252      395.4254      395.5506     183.638671      15.90391
  38     1.782      211.9097        0.1652      394.7288      394.8939     182.984181      12.46043
  37     2.292      211.9136        0.2106      394.0572      394.2678     182.354141      10.43512
  36     2.964      211.9282        0.2697      393.3007      393.5703     181.642128       8.93791
  35     3.853      211.9606        0.3468      392.4318      392.7786     180.818055       7.82060
  34     5.035      212.0165        0.4483      391.4441      391.8924     179.875889       6.73045
  33     6.613      212.0985        0.5828      390.3268      390.9096     178.811112       5.69230
  32     8.786      212.2038        0.7627      389.0624      389.8251     177.621283       4.62087
  31     11.80      212.3326        1.0179      387.5500      388.5679     176.235255       3.88044
  30     15.07      212.4454        1.2897      386.1556      387.4453     174.999894       3.18946
  29     18.79      212.5500        1.5943      384.7502      386.3445     173.794444       2.73313
  28     23.16      212.6460        1.9472      383.2686      385.2158     172.569795       2.36808
  27     28.12      212.7251        2.3474      381.7329      384.0803     171.355210       2.06471
  26     33.73      212.7686        2.7920      380.1982      382.9902     170.221600       1.70441
  25     40.54      212.7690        3.3251      378.5384      381.8635     169.094545       1.39824
  24     48.69      212.7197        3.9622      376.7214      380.6836     167.963971       1.16997
  23     57.69      212.6177        4.6553      374.8959      379.5512     166.933451       0.96596
  22     68.43      212.4452        5.4724      372.8999      378.3723     165.927054       0.79116
  21     81.20      212.1690        6.4353      370.7496      377.1849     165.015891       0.60208
  20     96.49      211.7763        7.5680      368.4056      375.9736     164.197285       0.45181
  19     114.6      211.2901        8.8910      365.7513      374.6423     163.352155       0.39462
  18     136.5      210.7011       10.4272      362.7231      373.1503     162.449252       0.34719
  17     162.9      209.9941       12.2128      359.1748      371.3876     161.393538       0.33745
  16     196.4      209.0539       14.4637      354.5718      369.0356     159.981652       0.35539
  15     218.7      208.4341       15.9032      351.4437      367.3469     158.912773       0.40581
  14     243.0      207.7661       17.4340      347.7111      365.1451     157.379074       0.53194
  13     269.0      207.0510       19.0544      342.9441      361.9985     154.947502       0.78879
  12     297.5      206.2911       20.7620      337.4137      358.1757     151.884593       0.90843
  11     328.5      205.4921       22.5586      331.1302      353.6888     148.196643       1.00274
  10     361.9      204.6603       24.4384      324.1219      348.5603     143.900027       1.08709
   9     398.1      203.8010       26.4008      316.6066      343.0074     139.206389       1.09351
   8     437.6      202.9272       28.4412      308.5895      337.0306     134.103449       1.09104
   7     480.5      202.0614       30.5535      299.9349      330.4884     128.426978       1.11484
   6     533.0      201.1077       33.0544      289.7021      322.7566     121.648850       1.09039
   5     589.8      200.2355       35.6344      279.3388      314.9732     114.737694       1.02584
   4     651.6      199.5185       38.2812      268.7786      307.0598     107.541250       0.98413
   3     718.7      199.0147       40.9856      258.2837      299.2692     100.254557       0.91574
   2     792.3      198.7975       43.7332      248.0774      291.8107      93.013174       0.83051
   1     891.5      109.3238      153.8368       42.5909      196.4277      87.103956       0.50285
   0    1013.0      109.2984      151.9761       40.0504      192.0265      82.728036       0.30384



 Wavenumbers:  2600. -  3250. cm-1, ATM      1
 LEVEL PRESSURE   UPWARD FLUX   DIFDOWN FLUX  DIRDOWN FLUX  DOWNWARD FLUX   NET FLUX    HEATING RATE
          mb          W/m2          W/m2          W/m2        W/m2          W/m2       degree/day
  51    .06700        0.5940        0.0000        3.5066        3.5066       2.912586       0.00000
  50    .07753        0.5940        0.0000        3.5066        3.5066       2.912578       0.00640
  49    .09103        0.5940        0.0000        3.5066        3.5066       2.912568       0.00627
  48    0.1069        0.5940        0.0000        3.5066        3.5066       2.912556       0.00613
  47    0.1255        0.5940        0.0000        3.5066        3.5066       2.912543       0.00599
  46    0.1487        0.5940        0.0000        3.5066        3.5066       2.912526       0.00607
  45    0.1794        0.5940        0.0000        3.5065        3.5065       2.912504       0.00624
  44    0.2165        0.5940        0.0000        3.5065        3.5065       2.912477       0.00611
  43    0.2613        0.5940        0.0000        3.5065        3.5065       2.912445       0.00598
  42    0.3336        0.5940        0.0000        3.5064        3.5064       2.912392       0.00615
  41    0.4307        0.5940        0.0000        3.5064        3.5064       2.912321       0.00618
  40    0.5894        0.5940        0.0000        3.5062        3.5062       2.912202       0.00633
  39     1.339        0.5940        0.0000        3.5055        3.5055       2.911503       0.00787
  38     1.782        0.5940        0.0000        3.5050        3.5050       2.910973       0.01011
  37     2.292        0.5940        0.0000        3.5043        3.5043       2.910280       0.01147
  36     2.964        0.5940        0.0000        3.5033        3.5033       2.909289       0.01245
  35     3.853        0.5940        0.0000        3.5019        3.5019       2.907912       0.01307
  34     5.035        0.5940        0.0000        3.5001        3.5001       2.906051       0.01329
  33     6.613        0.5940        0.0000        3.4977        3.4977       2.903641       0.01288
  32     8.786        0.5940        0.0000        3.4947        3.4947       2.900670       0.01154
  31     11.80        0.5940        0.0000        3.4911        3.4911       2.897034       0.01018
  30     15.07        0.5940        0.0000        3.4878        3.4878       2.893813       0.00832
  29     18.79        0.5940        0.0000        3.4848        3.4848       2.890749       0.00695
  28     23.16        0.5940        0.0000        3.4816        3.4816       2.887528       0.00623
  27     28.12        0.5940        0.0000        3.4779        3.4779       2.883909       0.00615
  26     33.73        0.5940        0.0000        3.4735        3.4735       2.879440       0.00672
  25     40.54        0.5940        0.0000        3.4671        3.4671       2.873111       0.00785
  24     48.69        0.5940        0.0000        3.4582        3.4583       2.864212       0.00921
  23     57.69        0.5940        0.0000        3.4472        3.4472       2.853157       0.01036
  22     68.43        0.5941        0.0000        3.4329        3.4329       2.838888       0.01122
  21     81.20        0.5941        0.0000        3.4152        3.4152       2.821146       0.01172
  20     96.49        0.5941        0.0000        3.3940        3.3941       2.799983       0.01168
  19     114.6        0.5941        0.0000        3.3692        3.3692       2.775066       0.01163
  18     136.5        0.5942        0.0001        3.3419        3.3420       2.747808       0.01048
  17     162.9        0.5943        0.0001        3.3129        3.3129       2.718673       0.00931
  16     196.4        0.5944        0.0001        3.2793        3.2794       2.684989       0.00848
  15     218.7        0.5946        0.0001        3.2578        3.2578       2.663264       0.00825
  14     243.0        0.5948        0.0001        3.2320        3.2321       2.637222       0.00903
  13     269.0        0.5952        0.0001        3.1968        3.1969       2.601697       0.01152
  12     297.5        0.5959        0.0001        3.1489        3.1491       2.553188       0.01439
  11     328.5        0.5968        0.0001        3.0821        3.0822       2.485357       0.01844
  10     361.9        0.5982        0.0001        2.9902        2.9904       2.392132       0.02359
   9     398.1        0.6003        0.0001        2.8715        2.8716       2.271357       0.02814
   8     437.6        0.6032        0.0001        2.7276        2.7278       2.124597       0.03138
   7     480.5        0.6076        0.0002        2.5595        2.5597       1.952075       0.03388
   6     533.0        0.6150        0.0002        2.3617        2.3619       1.746891       0.03301
   5     589.8        0.6259        0.0002        2.1649        2.1651       1.539202       0.03083
   4     651.6        0.6420        0.0002        1.9608        1.9609       1.318907       0.03013
   3     718.7        0.6650        0.0002        1.7593        1.7595       1.094513       0.02820
   2     792.3        0.6968        0.0002        1.5761        1.5762       0.879415       0.02467
   1     891.5        0.0845        0.5559        0.2480        0.8038       0.719381       0.01362
   0    1013.0        0.0921        0.4997        0.2094        0.7092       0.617064       0.00710



 Wavenumbers:  3250. -  4000. cm-1, ATM      1
 LEVEL PRESSURE   UPWARD FLUX   DIFDOWN FLUX  DIRDOWN FLUX  DOWNWARD FLUX   NET FLUX    HEATING RATE
          mb          W/m2          W/m2          W/m2        W/m2          W/m2       degree/day
  51    .06700        0.0036        0.0000        5.9117        5.9117       5.908024       0.00000
  50    .07753        0.0036        0.0000        5.9075        5.9075       5.903834       3.35808
  49    .09103        0.0036        0.0000        5.9050        5.9050       5.901392       1.52677
  48    0.1069        0.0036        0.0000        5.9032        5.9032       5.899525       0.99346
  47    0.1255        0.0036        0.0000        5.9014        5.9014       5.897767       0.79708
  46    0.1487        0.0036        0.0000        5.8995        5.8995       5.895878       0.68848
  45    0.1794        0.0036        0.0000        5.8974        5.8974       5.893730       0.58983
  44    0.2165        0.0036        0.0000        5.8952        5.8952       5.891613       0.48155
  43    0.2613        0.0036        0.0000        5.8931        5.8931       5.889454       0.40696
  42    0.3336        0.0036        0.0000        5.8899        5.8899       5.886296       0.36820
  41    0.4307        0.0036        0.0000        5.8861        5.8861       5.882458       0.33365
  40    0.5894        0.0036        0.0000        5.8803        5.8803       5.876656       0.30857
  39     1.339        0.0036        0.0000        5.8597        5.8597       5.856058       0.23189
  38     1.782        0.0036        0.0000        5.8513        5.8513       5.847634       0.16039
  37     2.292        0.0036        0.0000        5.8431        5.8431       5.839463       0.13533
  36     2.964        0.0036        0.0000        5.8334        5.8334       5.829823       0.12100
  35     3.853        0.0036        0.0000        5.8213        5.8213       5.817648       0.11555
  34     5.035        0.0036        0.0000        5.8052        5.8052       5.801552       0.11498
  33     6.613        0.0036        0.0000        5.7833        5.7834       5.779731       0.11666
  32     8.786        0.0036        0.0000        5.7531        5.7531       5.749530       0.11729
  31     11.80        0.0036        0.0000        5.7090        5.7090       5.705361       0.12366
  30     15.07        0.0036        0.0000        5.6615        5.6615       5.657896       0.12254
  29     18.79        0.0036        0.0000        5.6093        5.6094       5.605761       0.11821
  28     23.16        0.0036        0.0000        5.5524        5.5524       5.548835       0.11008
  27     28.12        0.0036        0.0000        5.4935        5.4935       5.489956       0.10009
  26     33.73        0.0036        0.0000        5.4348        5.4349       5.431267       0.08824
  25     40.54        0.0036        0.0001        5.3707        5.3708       5.367205       0.07948
  24     48.69        0.0036        0.0001        5.2985        5.2985       5.294972       0.07475
  23     57.69        0.0036        0.0001        5.2215        5.2216       5.218033       0.07212
  22     68.43        0.0035        0.0001        5.1318        5.1319       5.128373       0.07048
  21     81.20        0.0035        0.0001        5.0284        5.0285       5.024944       0.06834
  20     96.49        0.0035        0.0001        4.9122        4.9123       4.908810       0.06410
  19     114.6        0.0035        0.0001        4.7780        4.7782       4.774699       0.06262
  18     136.5        0.0035        0.0002        4.6285        4.6287       4.625220       0.05748
  17     162.9        0.0034        0.0002        4.4406        4.4407       4.437308       0.06006
  16     196.4        0.0034        0.0002        4.1548        4.1550       4.151634       0.07191
  15     218.7        0.0034        0.0002        3.9564        3.9566       3.953252       0.07532
  14     243.0        0.0034        0.0002        3.7055        3.7058       3.702416       0.08700
  13     269.0        0.0033        0.0002        3.3399        3.3401       3.336773       0.11861
  12     297.5        0.0033        0.0002        2.8954        2.8956       2.892274       0.13183
  11     328.5        0.0033        0.0002        2.4388        2.4390       2.435715       0.12414
  10     361.9        0.0034        0.0002        2.0269        2.0271       2.023742       0.10423
   9     398.1        0.0034        0.0002        1.6753        1.6755       1.672094       0.08193
   8     437.6        0.0035        0.0002        1.3592        1.3594       1.355872       0.06761
   7     480.5        0.0037        0.0002        1.0616        1.0618       1.058101       0.05848
   6     533.0        0.0041        0.0001        0.7543        0.7544       0.750378       0.04950
   5     589.8        0.0048        0.0001        0.4951        0.4952       0.490469       0.03858
   4     651.6        0.0062        0.0001        0.2943        0.2943       0.288177       0.02766
   3     718.7        0.0089        0.0001        0.1528        0.1529       0.143937       0.01813
   2     792.3        0.0146        0.0000        0.0658        0.0658       0.051276       0.01063
   1     891.5        0.0001        0.0082        0.0028        0.0110       0.010949       0.00343
   0    1013.0        0.0003        0.0019        0.0002        0.0022       0.001855       0.00063



 Wavenumbers:  4000. -  4650. cm-1, ATM      1
 LEVEL PRESSURE   UPWARD FLUX   DIFDOWN FLUX  DIRDOWN FLUX  DOWNWARD FLUX   NET FLUX    HEATING RATE
          mb          W/m2          W/m2          W/m2        W/m2          W/m2       degree/day
  51    .06700        2.0999        0.0000        6.9421        6.9421       4.842177       0.00000
  50    .07753        2.0999        0.0000        6.9421        6.9421       4.842176       0.00079
  49    .09103        2.0999        0.0000        6.9421        6.9421       4.842175       0.00078
  48    0.1069        2.0999        0.0000        6.9421        6.9421       4.842173       0.00076
  47    0.1255        2.0999        0.0000        6.9421        6.9421       4.842172       0.00074
  46    0.1487        2.0999        0.0000        6.9421        6.9421       4.842170       0.00075
  45    0.1794        2.0999        0.0000        6.9421        6.9421       4.842167       0.00077
  44    0.2165        2.0999        0.0000        6.9421        6.9421       4.842164       0.00076
  43    0.2613        2.0999        0.0000        6.9420        6.9420       4.842160       0.00074
  42    0.3336        2.0999        0.0000        6.9420        6.9420       4.842153       0.00076
  41    0.4307        2.0999        0.0000        6.9420        6.9420       4.842144       0.00077
  40    0.5894        2.0999        0.0000        6.9420        6.9420       4.842129       0.00079
  39     1.339        2.0999        0.0000        6.9419        6.9419       4.842041       0.00100
  38     1.782        2.0999        0.0000        6.9418        6.9419       4.841971       0.00132
  37     2.292        2.0999        0.0000        6.9418        6.9418       4.841878       0.00155
  36     2.964        2.0999        0.0000        6.9416        6.9416       4.841738       0.00175
  35     3.853        2.0999        0.0000        6.9414        6.9414       4.841532       0.00196
  34     5.035        2.0999        0.0000        6.9411        6.9411       4.841227       0.00218
  33     6.613        2.0999        0.0000        6.9406        6.9407       4.840779       0.00239
  32     8.786        2.0999        0.0000        6.9399        6.9400       4.840119       0.00256
  31     11.80        2.0999        0.0000        6.9389        6.9389       4.839084       0.00290
  30     15.07        2.0998        0.0001        6.9377        6.9377       4.837873       0.00313
  29     18.79        2.0998        0.0001        6.9362        6.9363       4.836414       0.00331
  28     23.16        2.0998        0.0001        6.9343        6.9344       4.834609       0.00349
  27     28.12        2.0998        0.0001        6.9321        6.9323       4.832433       0.00370
  26     33.73        2.0998        0.0001        6.9294        6.9296       4.829763       0.00401
  25     40.54        2.0998        0.0002        6.9258        6.9260       4.826163       0.00447
  24     48.69        2.0998        0.0002        6.9210        6.9212       4.821396       0.00493
  23     57.69        2.0998        0.0002        6.9154        6.9156       4.815787       0.00526
  22     68.43        2.0998        0.0003        6.9083        6.9086       4.808811       0.00548
  21     81.20        2.0998        0.0003        6.8998        6.9001       4.800279       0.00564
  20     96.49        2.0999        0.0004        6.8894        6.8898       4.789969       0.00569
  19     114.6        2.0999        0.0005        6.8765        6.8770       4.777055       0.00603
  18     136.5        2.1001        0.0005        6.8610        6.8615       4.761466       0.00599
  17     162.9        2.1003        0.0006        6.8417        6.8423       4.742057       0.00620
  16     196.4        2.1006        0.0008        6.8147        6.8154       4.714800       0.00686
  15     218.7        2.1010        0.0009        6.7948        6.7957       4.694703       0.00763
  14     243.0        2.1015        0.0010        6.7698        6.7707       4.669191       0.00885
  13     269.0        2.1024        0.0010        6.7349        6.7359       4.633471       0.01159
  12     297.5        2.1038        0.0012        6.6869        6.6880       4.584224       0.01461
  11     328.5        2.1057        0.0013        6.6194        6.6206       4.514907       0.01885
  10     361.9        2.1083        0.0014        6.5295        6.5308       4.422535       0.02337
   9     398.1        2.1117        0.0015        6.4202        6.4217       4.309994       0.02622
   8     437.6        2.1163        0.0016        6.2962        6.2978       4.181498       0.02747
   7     480.5        2.1227        0.0018        6.1555        6.1572       4.034573       0.02886
   6     533.0        2.1331        0.0019        5.9675        5.9694       3.836314       0.03189
   5     589.8        2.1485        0.0021        5.7368        5.7388       3.590303       0.03652
   4     651.6        2.1714        0.0022        5.4662        5.4684       3.297034       0.04011
   3     718.7        2.2039        0.0023        5.1912        5.1935       2.989650       0.03863
   2     792.3        2.2483        0.0025        4.9395        4.9419       2.693675       0.03395
   1     891.5        0.2140        1.8414        0.8407        2.6821       2.468111       0.01919
   0    1013.0        0.2221        1.7573        0.7809        2.5382       2.316053       0.01056



 Wavenumbers:  4650. -  5150. cm-1, ATM      1
 LEVEL PRESSURE   UPWARD FLUX   DIFDOWN FLUX  DIRDOWN FLUX  DOWNWARD FLUX   NET FLUX    HEATING RATE
          mb          W/m2          W/m2          W/m2        W/m2          W/m2       degree/day
  51    .06700        1.4678        0.0000        6.5710        6.5710       5.103194       0.00000
  50    .07753        1.4678        0.0000        6.5708        6.5708       5.102959       0.18887
  49    .09103        1.4678        0.0000        6.5705        6.5705       5.102665       0.18362
  48    0.1069        1.4678        0.0000        6.5701        6.5701       5.102330       0.17806
  47    0.1255        1.4678        0.0000        6.5697        6.5697       5.101950       0.17238
  46    0.1487        1.4678        0.0000        6.5693        6.5693       5.101476       0.17268
  45    0.1794        1.4678        0.0000        6.5686        6.5686       5.100840       0.17473
  44    0.2165        1.4678        0.0000        6.5679        6.5679       5.100102       0.16788
  43    0.2613        1.4678        0.0000        6.5670        6.5670       5.099249       0.16078
  42    0.3336        1.4678        0.0000        6.5657        6.5657       5.097886       0.15894
  41    0.4307        1.4678        0.0000        6.5640        6.5640       5.096164       0.14971
  40    0.5894        1.4678        0.0000        6.5613        6.5613       5.093547       0.13913
  39     1.339        1.4678        0.0000        6.5516        6.5516       5.083770       0.11008
  38     1.782        1.4678        0.0000        6.5473        6.5473       5.079554       0.08026
  37     2.292        1.4678        0.0000        6.5434        6.5435       5.075667       0.06438
  36     2.964        1.4678        0.0000        6.5395        6.5395       5.071712       0.04964
  35     3.853        1.4678        0.0000        6.5355        6.5356       5.067769       0.03742
  34     5.035        1.4678        0.0000        6.5315        6.5315       5.063766       0.02860
  33     6.613        1.4678        0.0000        6.5271        6.5271       5.059370       0.02350
  32     8.786        1.4678        0.0001        6.5216        6.5216       5.053873       0.02135
  31     11.80        1.4678        0.0001        6.5135        6.5135       5.045790       0.02263
  30     15.07        1.4678        0.0001        6.5041        6.5042       5.036416       0.02420
  29     18.79        1.4677        0.0001        6.4925        6.4926       5.024893       0.02613
  28     23.16        1.4677        0.0001        6.4779        6.4780       5.010290       0.02824
  27     28.12        1.4677        0.0002        6.4599        6.4600       4.992299       0.03058
  26     33.73        1.4678        0.0002        6.4384        6.4386       4.970849       0.03225
  25     40.54        1.4678        0.0002        6.4112        6.4115       4.943696       0.03369
  24     48.69        1.4678        0.0003        6.3775        6.3778       4.910020       0.03485
  23     57.69        1.4678        0.0003        6.3404        6.3407       4.872879       0.03481
  22     68.43        1.4679        0.0004        6.2971        6.2975       4.829622       0.03401
  21     81.20        1.4680        0.0005        6.2483        6.2487       4.780715       0.03232
  20     96.49        1.4682        0.0006        6.1948        6.1954       4.727218       0.02953
  19     114.6        1.4684        0.0007        6.1381        6.1388       4.670410       0.02653
  18     136.5        1.4687        0.0008        6.0790        6.0798       4.611063       0.02282
  17     162.9        1.4692        0.0009        6.0160        6.0170       4.547772       0.02023
  16     196.4        1.4699        0.0011        5.9399        5.9410       4.471016       0.01932
  15     218.7        1.4706        0.0012        5.8896        5.8908       4.420275       0.01926
  14     243.0        1.4714        0.0013        5.8322        5.8335       4.362118       0.02017
  13     269.0        1.4726        0.0015        5.7624        5.7639       4.291258       0.02299
  12     297.5        1.4743        0.0016        5.6767        5.6783       4.203986       0.02588
  11     328.5        1.4767        0.0017        5.5726        5.5743       4.097600       0.02893
  10     361.9        1.4800        0.0019        5.4473        5.4492       3.969225       0.03248
   9     398.1        1.4844        0.0020        5.2995        5.3015       3.817143       0.03543
   8     437.6        1.4903        0.0022        5.1275        5.1297       3.639367       0.03801
   7     480.5        1.4984        0.0023        4.9290        4.9313       3.432930       0.04054
   6     533.0        1.5112        0.0025        4.6794        4.6819       3.170673       0.04219
   5     589.8        1.5292        0.0026        4.4188        4.4214       2.892240       0.04133
   4     651.6        1.5548        0.0028        4.1521        4.1549       2.600111       0.03995
   3     718.7        1.5897        0.0029        3.8929        3.8959       2.306190       0.03694
   2     792.3        1.6364        0.0030        3.6469        3.6499       2.013509       0.03357
   1     891.5        0.1547        1.3350        0.6064        1.9415       1.786746       0.01930
   0    1013.0        0.1626        1.2545        0.5495        1.8040       1.641407       0.01009



 Wavenumbers:  5150. -  6150. cm-1, ATM      1
 LEVEL PRESSURE   UPWARD FLUX   DIFDOWN FLUX  DIRDOWN FLUX  DOWNWARD FLUX   NET FLUX    HEATING RATE
          mb          W/m2          W/m2          W/m2        W/m2          W/m2       degree/day
  51    .06700        3.6783        0.0000       16.4735       16.4735      12.795169       0.00000
  50    .07753        3.6783        0.0000       16.4735       16.4735      12.795135       0.02762
  49    .09103        3.6783        0.0000       16.4734       16.4734      12.795090       0.02812
  48    0.1069        3.6783        0.0000       16.4734       16.4734      12.795036       0.02860
  47    0.1255        3.6783        0.0000       16.4733       16.4733      12.794972       0.02905
  46    0.1487        3.6783        0.0000       16.4732       16.4732      12.794888       0.03061
  45    0.1794        3.6783        0.0000       16.4731       16.4731      12.794769       0.03270
  44    0.2165        3.6783        0.0000       16.4730       16.4730      12.794622       0.03332
  43    0.2613        3.6783        0.0000       16.4728       16.4728      12.794443       0.03377
  42    0.3336        3.6783        0.0000       16.4725       16.4725      12.794137       0.03565
  41    0.4307        3.6783        0.0000       16.4720       16.4720      12.793718       0.03647
  40    0.5894        3.6783        0.0000       16.4713       16.4713      12.793017       0.03730
  39     1.339        3.6783        0.0000       16.4679       16.4679      12.789607       0.03839
  38     1.782        3.6783        0.0000       16.4659       16.4659      12.787606       0.03809
  37     2.292        3.6783        0.0001       16.4635       16.4636      12.785313       0.03798
  36     2.964        3.6783        0.0001       16.4605       16.4606      12.782342       0.03730
  35     3.853        3.6783        0.0001       16.4567       16.4568      12.778485       0.03660
  34     5.035        3.6783        0.0001       16.4516       16.4517      12.773483       0.03573
  33     6.613        3.6782        0.0002       16.4451       16.4452      12.767015       0.03458
  32     8.786        3.6782        0.0002       16.4367       16.4369      12.758693       0.03232
  31     11.80        3.6782        0.0003       16.4254       16.4257      12.747525       0.03127
  30     15.07        3.6781        0.0004       16.4141       16.4145      12.736419       0.02868
  29     18.79        3.6781        0.0005       16.4024       16.4029      12.724874       0.02618
  28     23.16        3.6780        0.0006       16.3900       16.3906      12.712583       0.02377
  27     28.12        3.6780        0.0008       16.3771       16.3779      12.699882       0.02159
  26     33.73        3.6779        0.0009       16.3641       16.3650      12.687111       0.01920
  25     40.54        3.6779        0.0011       16.3502       16.3513      12.673409       0.01700
  24     48.69        3.6778        0.0013       16.3354       16.3367      12.658853       0.01506
  23     57.69        3.6778        0.0016       16.3211       16.3226      12.644855       0.01312
  22     68.43        3.6777        0.0018       16.3062       16.3081      12.630343       0.01141
  21     81.20        3.6777        0.0022       16.2903       16.2925      12.614795       0.01027
  20     96.49        3.6777        0.0026       16.2726       16.2752      12.597530       0.00953
  19     114.6        3.6777        0.0031       16.2521       16.2552      12.577481       0.00936
  18     136.5        3.6777        0.0037       16.2245       16.2282      12.550532       0.01036
  17     162.9        3.6777        0.0044       16.1747       16.1791      12.501389       0.01571
  16     196.4        3.6778        0.0052       16.0518       16.0571      12.379287       0.03073
  15     218.7        3.6779        0.0058       15.8984       15.9042      12.226291       0.05809
  14     243.0        3.6780        0.0063       15.6153       15.6216      11.943571       0.09806
  13     269.0        3.6783        0.0069       15.1390       15.1459      11.467518       0.15443
  12     297.5        3.6789        0.0074       14.5779       14.5853      10.906362       0.16643
  11     328.5        3.6799        0.0079       13.8780       13.8859      10.206010       0.19042
  10     361.9        3.6814        0.0083       13.0814       13.0897       9.408312       0.20183
   9     398.1        3.6838        0.0087       12.2728       12.2815       8.597737       0.18885
   8     437.6        3.6874        0.0090       11.4776       11.4866       7.799198       0.17073
   7     480.5        3.6931        0.0093       10.7300       10.7393       7.046230       0.14788
   6     533.0        3.7034        0.0097       10.0326       10.0423       6.338967       0.11378
   5     589.8        3.7199        0.0102        9.5050        9.5153       5.795360       0.08069
   4     651.6        3.7466        0.0108        9.0814        9.0922       5.345581       0.06151
   3     718.7        3.7876        0.0115        8.7024        8.7140       4.926312       0.05269
   2     792.3        3.8481        0.0123        8.3379        8.3502       4.502102       0.04865
   1     891.5        0.4058        3.1456        1.4295        4.5751       4.169230       0.02833
   0    1013.0        0.4154        3.0276        1.3513        4.3790       3.963530       0.01428



 Wavenumbers:  6150. -  7700. cm-1, ATM      1
 LEVEL PRESSURE   UPWARD FLUX   DIFDOWN FLUX  DIRDOWN FLUX  DOWNWARD FLUX   NET FLUX    HEATING RATE
          mb          W/m2          W/m2          W/m2        W/m2          W/m2       degree/day
  51    .06700        5.7185        0.0000       30.4684       30.4684      24.749917       0.00000
  50    .07753        5.7185        0.0000       30.4683       30.4683      24.749865       0.04144
  49    .09103        5.7185        0.0000       30.4683       30.4683      24.749799       0.04174
  48    0.1069        5.7185        0.0000       30.4682       30.4682      24.749720       0.04202
  47    0.1255        5.7185        0.0000       30.4681       30.4681      24.749626       0.04227
  46    0.1487        5.7185        0.0000       30.4680       30.4680      24.749505       0.04411
  45    0.1794        5.7185        0.0000       30.4678       30.4678      24.749335       0.04669
  44    0.2165        5.7185        0.0000       30.4676       30.4676      24.749128       0.04715
  43    0.2613        5.7184        0.0000       30.4673       30.4673      24.748876       0.04744
  42    0.3336        5.7184        0.0000       30.4669       30.4669      24.748450       0.04974
  41    0.4307        5.7184        0.0000       30.4663       30.4663      24.747869       0.05052
  40    0.5894        5.7184        0.0001       30.4653       30.4653      24.746901       0.05146
  39     1.339        5.7183        0.0001       30.4604       30.4606      24.742217       0.05273
  38     1.782        5.7183        0.0002       30.4576       30.4578      24.739468       0.05235
  37     2.292        5.7183        0.0003       30.4543       30.4546      24.736309       0.05231
  36     2.964        5.7182        0.0003       30.4501       30.4504      24.732202       0.05156
  35     3.853        5.7181        0.0004       30.4445       30.4449      24.726845       0.05084
  34     5.035        5.7180        0.0006       30.4373       30.4378      24.719845       0.05000
  33     6.613        5.7178        0.0007       30.4278       30.4285      24.710697       0.04890
  32     8.786        5.7176        0.0010       30.4154       30.4164      24.698745       0.04642
  31     11.80        5.7173        0.0013       30.3984       30.3997      24.682359       0.04587
  30     15.07        5.7170        0.0017       30.3810       30.3827      24.665645       0.04315
  29     18.79        5.7167        0.0021       30.3623       30.3644      24.647744       0.04059
  28     23.16        5.7163        0.0026       30.3417       30.3443      24.628061       0.03806
  27     28.12        5.7158        0.0032       30.3196       30.3227      24.606960       0.03587
  26     33.73        5.7153        0.0038       30.2965       30.3003      24.585041       0.03296
  25     40.54        5.7146        0.0046       30.2708       30.2753      24.560703       0.03019
  24     48.69        5.7138        0.0055       30.2423       30.2478      24.533925       0.02771
  23     57.69        5.7130        0.0065       30.2139       30.2204      24.507357       0.02490
  22     68.43        5.7120        0.0077       30.1834       30.1911      24.479080       0.02223
  21     81.20        5.7108        0.0091       30.1500       30.1591      24.448347       0.02031
  20     96.49        5.7093        0.0108       30.1126       30.1235      24.414124       0.01889
  19     114.6        5.7076        0.0129       30.0695       30.0824      24.374732       0.01839
  18     136.5        5.7056        0.0153       30.0139       30.0292      24.323566       0.01967
  17     162.9        5.7032        0.0181       29.9225       29.9406      24.237363       0.02755
  16     196.4        5.7002        0.0218       29.7333       29.7551      24.054918       0.04592
  15     218.7        5.6983        0.0241       29.5259       29.5500      23.851727       0.07714
  14     243.0        5.6963        0.0266       29.1375       29.1641      23.467780       0.13317
  13     269.0        5.6944        0.0289       28.3800       28.4089      22.714516       0.24436
  12     297.5        5.6929        0.0312       27.3895       27.4207      21.727753       0.29266
  11     328.5        5.6922        0.0333       26.2257       26.2590      20.566784       0.31566
  10     361.9        5.6927        0.0352       24.8453       24.8806      19.187864       0.34888
   9     398.1        5.6951        0.0369       23.3471       23.3840      17.688878       0.34923
   8     437.6        5.7007        0.0384       21.7966       21.8350      16.134349       0.33237
   7     480.5        5.7118        0.0396       20.1977       20.2373      14.525514       0.31597
   6     533.0        5.7345        0.0408       18.4969       18.5377      12.803170       0.27707
   5     589.8        5.7735        0.0420       16.9754       17.0173      11.243846       0.23145
   4     651.6        5.8388        0.0432       15.6022       15.6453       9.806553       0.19655
   3     718.7        5.9400        0.0445       14.4232       14.4677       8.527761       0.16071
   2     792.3        6.0897        0.0461       13.4386       13.4848       7.395048       0.12991
   1     891.5        0.6317        4.9650        2.2376        7.2026       6.570927       0.07013
   0    1013.0        0.6575        4.6743        2.0418        6.7161       6.058580       0.03557



 Wavenumbers:  7700. -  8050. cm-1, ATM      1
 LEVEL PRESSURE   UPWARD FLUX   DIFDOWN FLUX  DIRDOWN FLUX  DOWNWARD FLUX   NET FLUX    HEATING RATE
          mb          W/m2          W/m2          W/m2        W/m2          W/m2       degree/day
  51    .06700        2.7772        0.0000        7.2006        7.2006       4.423414       0.00000
  50    .07753        2.7772        0.0000        7.2006        7.2006       4.423395       0.01568
  49    .09103        2.7772        0.0000        7.2005        7.2005       4.423370       0.01537
  48    0.1069        2.7772        0.0000        7.2005        7.2005       4.423342       0.01505
  47    0.1255        2.7772        0.0000        7.2005        7.2005       4.423309       0.01472
  46    0.1487        2.7772        0.0000        7.2004        7.2005       4.423268       0.01494
  45    0.1794        2.7772        0.0000        7.2004        7.2004       4.423212       0.01537
  44    0.2165        2.7772        0.0000        7.2003        7.2003       4.423146       0.01508
  43    0.2613        2.7772        0.0000        7.2003        7.2003       4.423068       0.01480
  42    0.3336        2.7772        0.0000        7.2001        7.2001       4.422938       0.01514
  41    0.4307        2.7772        0.0000        7.2000        7.2000       4.422766       0.01497
  40    0.5894        2.7772        0.0000        7.1997        7.1997       4.422484       0.01496
  39     1.339        2.7773        0.0001        7.1984        7.1985       4.421154       0.01497
  38     1.782        2.7774        0.0001        7.1977        7.1978       4.420373       0.01487
  37     2.292        2.7775        0.0001        7.1968        7.1969       4.419469       0.01497
  36     2.964        2.7776        0.0001        7.1957        7.1958       4.418283       0.01489
  35     3.853        2.7777        0.0002        7.1942        7.1944       4.416717       0.01486
  34     5.035        2.7778        0.0002        7.1922        7.1925       4.414637       0.01486
  33     6.613        2.7780        0.0003        7.1896        7.1899       4.411862       0.01484
  32     8.786        2.7783        0.0004        7.1860        7.1865       4.408127       0.01450
  31     11.80        2.7787        0.0006        7.1810        7.1815       4.402796       0.01493
  30     15.07        2.7792        0.0007        7.1755        7.1763       4.397087       0.01474
  29     18.79        2.7797        0.0009        7.1694        7.1703       4.390658       0.01458
  28     23.16        2.7803        0.0011        7.1623        7.1634       4.383174       0.01447
  27     28.12        2.7809        0.0013        7.1542        7.1556       4.374652       0.01449
  26     33.73        2.7817        0.0016        7.1452        7.1468       4.365161       0.01427
  25     40.54        2.7826        0.0019        7.1344        7.1363       4.353760       0.01414
  24     48.69        2.7837        0.0023        7.1215        7.1238       4.340109       0.01413
  23     57.69        2.7849        0.0027        7.1074        7.1102       4.325235       0.01394
  22     68.43        2.7864        0.0032        7.0909        7.0941       4.307680       0.01380
  21     81.20        2.7882        0.0038        7.0713        7.0751       4.286992       0.01367
  20     96.49        2.7903        0.0045        7.0484        7.0529       4.262655       0.01343
  19     114.6        2.7928        0.0053        7.0217        7.0270       4.234185       0.01329
  18     136.5        2.7959        0.0063        6.9906        6.9969       4.201017       0.01275
  17     162.9        2.7996        0.0075        6.9544        6.9619       4.162285       0.01238
  16     196.4        2.8045        0.0090        6.9087        6.9178       4.113230       0.01235
  15     218.7        2.8078        0.0100        6.8794        6.8894       4.081621       0.01200
  14     243.0        2.8114        0.0111        6.8481        6.8592       4.047751       0.01175
  13     269.0        2.8155        0.0122        6.8147        6.8270       4.011484       0.01176
  12     297.5        2.8199        0.0135        6.7791        6.7926       3.972616       0.01153
  11     328.5        2.8250        0.0148        6.7409        6.7558       3.930825       0.01136
  10     361.9        2.8306        0.0163        6.7002        6.7164       3.885846       0.01138
   9     398.1        2.8370        0.0178        6.6563        6.6741       3.837132       0.01135
   8     437.6        2.8442        0.0195        6.6089        6.6283       3.784108       0.01134
   7     480.5        2.8527        0.0213        6.5570        6.5783       3.725597       0.01149
   6     533.0        2.8640        0.0234        6.4915        6.5149       3.650903       0.01202
   5     589.8        2.8776        0.0257        6.4182        6.4440       3.566387       0.01255
   4     651.6        2.8940        0.0282        6.3359        6.3641       3.470058       0.01317
   3     718.7        2.9137        0.0308        6.2441        6.2749       3.361223       0.01368
   2     792.3        2.9369        0.0335        6.1437        6.1773       3.240332       0.01386
   1     891.5        0.3598        2.4098        1.0861        3.4958       3.136053       0.00887
   0    1013.0        0.3645        2.3690        1.0537        3.4227       3.058187       0.00541



 Wavenumbers:  8050. - 12850. cm-1, ATM      1
 LEVEL PRESSURE   UPWARD FLUX   DIFDOWN FLUX  DIRDOWN FLUX  DOWNWARD FLUX   NET FLUX    HEATING RATE
          mb          W/m2          W/m2          W/m2        W/m2          W/m2       degree/day
  51    .06700       40.1014        0.0000      100.8135      100.8135      60.712156       0.00000
  50    .07753       40.1013        0.0000      100.8135      100.8135      60.712156       0.00000
  49    .09103       40.1013        0.0001      100.8134      100.8135      60.712156      -0.00000
  48    0.1069       40.1013        0.0001      100.8134      100.8135      60.712156      -0.00000
  47    0.1255       40.1013        0.0001      100.8133      100.8134      60.712156       0.00000
  46    0.1487       40.1012        0.0002      100.8132      100.8134      60.712156      -0.00000
  45    0.1794       40.1012        0.0003      100.8131      100.8133      60.712156       0.00000
  44    0.2165       40.1011        0.0004      100.8129      100.8133      60.712156       0.00000
  43    0.2613       40.1010        0.0005      100.8127      100.8132      60.712156      -0.00000
  42    0.3336       40.1009        0.0006      100.8125      100.8131      60.712156       0.00000
  41    0.4307       40.1008        0.0009      100.8121      100.8129      60.712156      -0.00000
  40    0.5894       40.1005        0.0012      100.8115      100.8127      60.712156      -0.00000
  39     1.339       40.0993        0.0030      100.8085      100.8115      60.712156      -0.00000
  38     1.782       40.0986        0.0040      100.8068      100.8108      60.712156      -0.00000
  37     2.292       40.0978        0.0052      100.8047      100.8099      60.712156       0.00000
  36     2.964       40.0967        0.0068      100.8021      100.8089      60.712156      -0.00000
  35     3.853       40.0953        0.0088      100.7986      100.8075      60.712156      -0.00000
  34     5.035       40.0934        0.0116      100.7940      100.8056      60.712156      -0.00000
  33     6.613       40.0909        0.0153      100.7878      100.8030      60.712156       0.00000
  32     8.786       40.0875        0.0202      100.7794      100.7996      60.712156       0.00000
  31     11.80       40.0826        0.0273      100.7674      100.7948      60.712156       0.00000
  30     15.07       40.0774        0.0350      100.7546      100.7895      60.712156       0.00000
  29     18.79       40.0715        0.0436      100.7400      100.7836      60.712156      -0.00000
  28     23.16       40.0645        0.0537      100.7230      100.7767      60.712156       0.00000
  27     28.12       40.0566        0.0653      100.7035      100.7688      60.712156       0.00000
  26     33.73       40.0477        0.0782      100.6817      100.7599      60.712156       0.00000
  25     40.54       40.0370        0.0939      100.6552      100.7491      60.712156       0.00000
  24     48.69       40.0240        0.1128      100.6234      100.7361      60.712156      -0.00000
  23     57.69       40.0097        0.1336      100.5883      100.7219      60.712156       0.00000
  22     68.43       39.9927        0.1584      100.5464      100.7048      60.712156       0.00000
  21     81.20       39.9724        0.1880      100.4965      100.6845      60.712156      -0.00000
  20     96.49       39.9481        0.2233      100.4370      100.6603      60.712156       0.00000
  19     114.6       39.9193        0.2653      100.3585      100.6238      60.704419       0.00361
  18     136.5       39.8852        0.3151      100.2634      100.5785      60.693288       0.00428
  17     162.9       39.8446        0.3746      100.1407      100.5153      60.670719       0.00721
  16     196.4       39.7918        0.4518       99.9505      100.4024      60.610506       0.01516
  15     218.7       39.7572        0.5026       99.7889      100.2915      60.534304       0.02893
  14     243.0       39.7199        0.5577       99.5472      100.1049      60.384996       0.05178
  13     269.0       39.6804        0.6170       99.1452       99.7623      60.081856       0.09834
  12     297.5       39.6397        0.6807       98.5975       99.2782      59.638518       0.13149
  11     328.5       39.5990        0.7490       97.8659       98.6148      59.015792       0.16932
  10     361.9       39.5606        0.8214       96.8848       97.7062      58.145610       0.22016
   9     398.1       39.5273        0.8980       95.6330       96.5310      57.003666       0.26605
   8     437.6       39.5045        0.9782       94.0655       95.0436      55.539157       0.31312
   7     480.5       39.5027        1.0610       92.0807       93.1417      53.639041       0.37318
   6     533.0       39.5392        1.1588       89.4449       90.6036      51.064436       0.41417
   5     589.8       39.6374        1.2598       86.5544       87.8142      48.176810       0.42862
   4     651.6       39.8333        1.3634       83.4174       84.7808      44.947581       0.44161
   3     718.7       40.1558        1.4705       80.2037       81.6742      41.518430       0.43095
   2     792.3       40.6389        1.5817       77.0811       78.6628      38.023841       0.40079
   1     891.5       10.0641       31.9762       13.2479       45.2241      35.159959       0.24370
   0    1013.0       10.2938       30.8811       12.4663       43.3475      33.053677       0.14625



 Wavenumbers: 12850. - 16000. cm-1, ATM      1
 LEVEL PRESSURE   UPWARD FLUX   DIFDOWN FLUX  DIRDOWN FLUX  DOWNWARD FLUX   NET FLUX    HEATING RATE
          mb          W/m2          W/m2          W/m2        W/m2          W/m2       degree/day
  51    .06700       37.7985        0.0000       63.1686       63.1686      25.370035       0.00000
  50    .07753       37.7985        0.0001       63.1677       63.1678      25.369254       0.62542
  49    .09103       37.7985        0.0001       63.1666       63.1668      25.368282       0.60790
  48    0.1069       37.7985        0.0002       63.1654       63.1656      25.367174       0.58960
  47    0.1255       37.7984        0.0003       63.1640       63.1643      25.365914       0.57124
  46    0.1487       37.7984        0.0004       63.1623       63.1627      25.364342       0.57297
  45    0.1794       37.7983        0.0006       63.1600       63.1606      25.362234       0.57882
  44    0.2165       37.7983        0.0008       63.1573       63.1581      25.359795       0.55484
  43    0.2613       37.7982        0.0010       63.1542       63.1552      25.356980       0.53052
  42    0.3336       37.7982        0.0014       63.1493       63.1507      25.352494       0.52308
  41    0.4307       37.7982        0.0019       63.1431       63.1451      25.346879       0.48817
  40    0.5894       37.7982        0.0027       63.1338       63.1366      25.338366       0.45270
  39     1.339       37.7998        0.0067       63.0956       63.1023      25.302493       0.40386
  38     1.782       37.8017        0.0090       63.0740       63.0830      25.281312       0.40327
  37     2.292       37.8049        0.0117       63.0477       63.0593      25.254410       0.44555
  36     2.964       37.8106        0.0152       63.0095       63.0247      25.214091       0.50613
  35     3.853       37.8202        0.0198       62.9533       62.9731      25.152862       0.58107
  34     5.035       37.8350        0.0259       62.8725       62.8984      25.063474       0.63855
  33     6.613       37.8557        0.0341       62.7621       62.7962      24.940446       0.65771
  32     8.786       37.8827        0.0451       62.6182       62.6634      24.780738       0.62025
  31     11.80       37.9171        0.0609       62.4284       62.4892      24.572110       0.58409
  30     15.07       37.9494        0.0777       62.2426       62.3203      24.370896       0.51950
  29     18.79       37.9817        0.0967       62.0493       62.1460      24.164296       0.46842
  28     23.16       38.0145        0.1188       61.8424       61.9613      23.946741       0.42068
  27     28.12       38.0464        0.1441       61.6278       61.7719      23.725492       0.37611
  26     33.73       38.0739        0.1723       61.4177       61.5899      23.516018       0.31495
  25     40.54       38.0978        0.2063       61.1983       61.4046      23.306807       0.25955
  24     48.69       38.1174        0.2472       60.9680       61.2152      23.097813       0.21628
  23     57.69       38.1301        0.2921       60.7478       61.0399      22.909836       0.17620
  22     68.43       38.1357        0.3456       60.5202       60.8658      22.730105       0.14129
  21     81.20       38.1292        0.4092       60.2938       60.7030      22.573871       0.10324
  20     96.49       38.1093        0.4850       60.0643       60.5493      22.439967       0.07391
  19     114.6       38.0859        0.5755       59.8078       60.3833      22.297397       0.06657
  18     136.5       38.0528        0.6826       59.5157       60.1984      22.145553       0.05839
  17     162.9       38.0084        0.8098       59.1770       59.9869      21.978442       0.05342
  16     196.4       37.9405        0.9744       58.7604       59.7348      21.794373       0.04633
  15     218.7       37.8921        1.0822       58.4948       59.5770      21.684899       0.04156
  14     243.0       37.8380        1.1991       58.2089       59.4080      21.570074       0.03983
  13     269.0       37.7780        1.3256       57.9006       59.2262      21.448179       0.03954
  12     297.5       37.7123        1.4619       57.5668       59.0287      21.316385       0.03909
  11     328.5       37.6420        1.6088       57.2005       58.8093      21.167292       0.04054
  10     361.9       37.5680        1.7666       56.7963       58.5629      20.994911       0.04361
   9     398.1       37.4911        1.9357       56.3475       58.2832      20.792135       0.04724
   8     437.6       37.4135        2.1165       55.8422       57.9587      20.545208       0.05279
   7     480.5       37.3392        2.3090       55.2625       57.5715      20.232263       0.06146
   6     533.0       37.2630        2.5439       54.4972       57.0410      19.778071       0.07307
   5     589.8       37.1998        2.7937       53.6307       56.4244      19.224581       0.08216
   4     651.6       37.1586        3.0577       52.6606       55.7183      18.559726       0.09092
   3     718.7       37.1443        3.3362       51.6100       54.9462      17.801844       0.09524
   2     792.3       37.1642        3.6289       50.5019       54.1308      16.966625       0.09579
   1     891.5       19.5659       26.8680        8.8651       35.7331      16.167166       0.06803
   0    1013.0       19.6933       26.5776        8.5412       35.1189      15.425596       0.05149



 Wavenumbers: 16000. - 22650. cm-1, ATM      1
 LEVEL PRESSURE   UPWARD FLUX   DIFDOWN FLUX  DIRDOWN FLUX  DOWNWARD FLUX   NET FLUX    HEATING RATE
          mb          W/m2          W/m2          W/m2        W/m2          W/m2       degree/day
  51    .06700       77.6593        0.0000      100.7153      100.7153      23.056017       0.00000
  50    .07753       77.6592        0.0003      100.7147      100.7151      23.055899       0.09471
  49    .09103       77.6590        0.0007      100.7140      100.7147      23.055727       0.10743
  48    0.1069       77.6589        0.0012      100.7131      100.7144      23.055497       0.12250
  47    0.1255       77.6587        0.0018      100.7121      100.7139      23.055189       0.13963
  46    0.1487       77.6585        0.0024      100.7108      100.7132      23.054735       0.16546
  45    0.1794       77.6582        0.0034      100.7089      100.7123      23.054025       0.19482
  44    0.2165       77.6580        0.0045      100.7066      100.7110      23.053063       0.21895
  43    0.2613       77.6577        0.0058      100.7037      100.7095      23.051757       0.24615
  42    0.3336       77.6574        0.0080      100.6987      100.7067      23.049274       0.28947
  41    0.4307       77.6571        0.0109      100.6918      100.7027      23.045532       0.32538
  40    0.5894       77.6570        0.0156      100.6797      100.6954      23.038395       0.37953
  39     1.339       77.6618        0.0379      100.6095      100.6474      22.985678       0.59350
  38     1.782       77.6687        0.0511      100.5585      100.6095      22.940782       0.85474
  37     2.292       77.6807        0.0662      100.4903      100.5565      22.875816       1.07601
  36     2.964       77.7023        0.0861      100.3868      100.4729      22.770618       1.32055
  35     3.853       77.7392        0.1124      100.2306      100.3430      22.603813       1.58300
  34     5.035       77.7965        0.1473      100.0045      100.1517      22.355220       1.77585
  33     6.613       77.8773        0.1937       99.6939       99.8876      22.010271       1.84410
  32     8.786       77.9819        0.2561       99.2881       99.5442      21.562322       1.73967
  31     11.80       78.1154        0.3452       98.7496       99.0948      20.979416       1.63195
  30     15.07       78.2399        0.4404       98.2198       98.6603      20.420349       1.44340
  29     18.79       78.3637        0.5477       97.6651       98.2128      19.849076       1.29525
  28     23.16       78.4889        0.6725       97.0671       97.7396      19.250709       1.15705
  27     28.12       78.6094        0.8147       96.4406       97.2552      18.645877       1.02817
  26     33.73       78.7115        0.9732       95.8179       96.7911      18.079648       0.85134
  25     40.54       78.7971        1.1642       95.1548       96.3190      17.521878       0.69198
  24     48.69       78.8639        1.3935       94.4420       95.8355      16.971594       0.56946
  23     57.69       78.9019        1.6444       93.7416       95.3860      16.484029       0.45702
  22     68.43       78.9094        1.9419       92.9954       94.9373      16.027898       0.35858
  21     81.20       78.8663        2.2950       92.2231       94.5182      15.651859       0.24848
  20     96.49       78.7672        2.7139       91.4110       94.1249      15.357750       0.16233
  19     114.6       78.6258        3.2078       90.5070       93.7149      15.089088       0.12545
  18     136.5       78.4429        3.7884       89.4803       93.2687      14.825772       0.10125
  17     162.9       78.2120        4.4729       88.3022       92.7751      14.563093       0.08396
  16     196.4       77.8831        5.3504       86.8606       92.2110      14.327931       0.05919
  15     218.7       77.6571        5.9204       85.9492       91.8696      14.212557       0.04380
  14     243.0       77.4077        6.5345       84.9789       91.5134      14.105735       0.03705
  13     269.0       77.1338        7.1934       83.9493       91.1427      14.008962       0.03139
  12     297.5       76.8348        7.8982       82.8589       90.7571      13.922357       0.02569
  11     328.5       76.5121        8.6512       81.6982       90.3494      13.837292       0.02313
  10     361.9       76.1658        9.4521       80.4669       89.9191      13.753228       0.02127
   9     398.1       75.7952       10.3030       79.1611       89.4641      13.668930       0.01964
   8     437.6       75.4007       11.2040       77.7777       88.9817      13.581042       0.01879
   7     480.5       74.9828       12.1555       76.3136       88.4692      13.486353       0.01860
   6     533.0       74.4765       13.3068       74.5359       87.8427      13.366237       0.01932
   5     589.8       73.9419       14.5234       72.6469       87.1704      13.228444       0.02045
   4     651.6       73.3817       15.8033       70.6456       86.4489      13.067160       0.02206
   3     718.7       72.7965       17.1443       68.5367       85.6810      12.884473       0.02296
   2     792.3       72.1892       18.5411       66.3287       84.8698      12.680555       0.02339
   1     891.5       52.0647       53.0547       11.4699       64.5246      12.459949       0.01877
   0    1013.0       51.8563       53.2217       10.8593       64.0810      12.224743       0.01633



 Wavenumbers: 22650. - 29000. cm-1, ATM      1
 LEVEL PRESSURE   UPWARD FLUX   DIFDOWN FLUX  DIRDOWN FLUX  DOWNWARD FLUX   NET FLUX    HEATING RATE
          mb          W/m2          W/m2          W/m2        W/m2          W/m2       degree/day
  51    .06700       34.6875        0.0000       38.0063       38.0063       3.318806       0.00000
  50    .07753       34.6873        0.0004       38.0057       38.0061       3.318806       0.00000
  49    .09103       34.6871        0.0009       38.0050       38.0059       3.318806       0.00000
  48    0.1069       34.6869        0.0014       38.0042       38.0057       3.318806      -0.00000
  47    0.1255       34.6866        0.0021       38.0033       38.0054       3.318806       0.00000
  46    0.1487       34.6862        0.0029       38.0022       38.0051       3.318806      -0.00000
  45    0.1794       34.6858        0.0040       38.0006       38.0046       3.318806      -0.00000
  44    0.2165       34.6852        0.0053       37.9987       38.0040       3.318806       0.00000
  43    0.2613       34.6846        0.0068       37.9965       38.0034       3.318806       0.00000
  42    0.3336       34.6835        0.0094       37.9928       38.0023       3.318806      -0.00000
  41    0.4307       34.6820        0.0128       37.9880       38.0008       3.318806       0.00000
  40    0.5894       34.6796        0.0184       37.9800       37.9984       3.318806       0.00000
  39     1.339       34.6684        0.0447       37.9425       37.9872       3.318806       0.00000
  38     1.782       34.6617        0.0601       37.9204       37.9805       3.318806      -0.00000
  37     2.292       34.6541        0.0780       37.8949       37.9729       3.318806       0.00000
  36     2.964       34.6441        0.1014       37.8614       37.9629       3.318806      -0.00000
  35     3.853       34.6308        0.1324       37.8172       37.9496       3.318806       0.00000
  34     5.035       34.6132        0.1734       37.7586       37.9320       3.318806       0.00000
  33     6.613       34.5897        0.2282       37.6803       37.9085       3.318806       0.00000
  32     8.786       34.5581        0.3019       37.5750       37.8770       3.318806      -0.00000
  31     11.80       34.5131        0.4070       37.4249       37.8319       3.318806       0.00000
  30     15.07       34.4648        0.5195       37.2642       37.7837       3.318806      -0.00000
  29     18.79       34.4105        0.6460       37.0833       37.7294       3.318806       0.00000
  28     23.16       34.3474        0.7932       36.8730       37.6662       3.318806       0.00000
  27     28.12       34.2755        0.9605       36.6338       37.5943       3.318806      -0.00000
  26     33.73       34.1955        1.1466       36.3677       37.5143       3.318806       0.00000
  25     40.54       34.0995        1.3697       36.0486       37.4183       3.318806       0.00000
  24     48.69       33.9847        1.6363       35.6672       37.3035       3.318806       0.00000
  23     57.69       33.8598        1.9259       35.2527       37.1786       3.318806      -0.00000
  22     68.43       33.7127        2.2666       34.7649       37.0315       3.318806      -0.00000
  21     81.20       33.5398        2.6664       34.1922       36.8586       3.318806       0.00000
  20     96.49       33.3371        3.1341       33.5217       36.6559       3.318806       0.00000
  19     114.6       33.1010        3.6775       32.7424       36.4198       3.318806       0.00000
  18     136.5       32.8277        4.3049       31.8416       36.1465       3.318806      -0.00000
  17     162.9       32.5110        5.0290       30.8008       35.8298       3.318806      -0.00000
  16     196.4       32.1141        5.9323       29.5007       35.4329       3.318806       0.00000
  15     218.7       31.8618        6.5039       28.6767       35.1806       3.318806      -0.00000
  14     243.0       31.5947        7.1067       27.8068       34.9135       3.318806       0.00000
  13     269.0       31.3133        7.7388       26.8933       34.6321       3.318806       0.00000
  12     297.5       31.0185        8.3980       25.9393       34.3373       3.318806       0.00000
  11     328.5       30.7101        9.0838       24.9451       34.0289       3.318806      -0.00000
  10     361.9       30.3895        9.7923       23.9160       33.7083       3.318806       0.00000
   9     398.1       30.0570       10.5217       22.8541       33.3758       3.318806      -0.00000
   8     437.6       29.7141       11.2684       21.7645       33.0329       3.318806       0.00000
   7     480.5       29.3618       12.0285       20.6521       32.6806       3.318806      -0.00000
   6     533.0       28.9486       12.9105       19.3569       32.2674       3.318806       0.00000
   5     589.8       28.5268       13.7989       18.0467       31.8456       3.318806      -0.00000
   4     651.6       28.0990       14.6862       16.7316       31.4178       3.318806       0.00000
   3     718.7       27.6676       15.5650       15.4214       30.9864       3.318806       0.00000
   2     792.3       27.2356       16.4268       14.1276       30.5544       3.318806      -0.00000
   1     891.5       22.5681       23.6182        2.2687       25.8869       3.318749       0.00000
   0    1013.0       22.3685       23.7213        1.9659       25.6872       3.318749       0.00000



 Wavenumbers: 29000. - 38000. cm-1, ATM      1
 LEVEL PRESSURE   UPWARD FLUX   DIFDOWN FLUX  DIRDOWN FLUX  DOWNWARD FLUX   NET FLUX    HEATING RATE
          mb          W/m2          W/m2          W/m2        W/m2          W/m2       degree/day
  51    .06700        4.9228        0.0000       13.4026       13.4026       8.479813       0.00000
  50    .07753        4.9226        0.0003       13.3983       13.3986       8.476015       3.04442
  49    .09103        4.9223        0.0007       13.3921       13.3928       8.470496       3.44970
  48    0.1069        4.9220        0.0011       13.3840       13.3851       8.463119       3.92680
  47    0.1255        4.9216        0.0016       13.3733       13.3749       8.453274       4.46322
  46    0.1487        4.9212        0.0022       13.3579       13.3600       8.438831       5.26444
  45    0.1794        4.9206        0.0030       13.3340       13.3371       8.416431       6.14933
  44    0.2165        4.9200        0.0040       13.3024       13.3064       8.386412       6.82884
  43    0.2613        4.9192        0.0052       13.2604       13.2656       8.346357       7.55019
  42    0.3336        4.9180        0.0070       13.1833       13.1903       8.272350       8.62852
  41    0.4307        4.9164        0.0095       13.0729       13.0824       8.165977       9.24892
  40    0.5894        4.9141        0.0134       12.8796       12.8930       7.978931       9.94685
  39     1.339        4.9056        0.0297       11.9165       11.9462       7.040574      10.56419
  38     1.782        4.9023        0.0380       11.4399       11.4779       6.575578       8.85278
  37     2.292        4.8999        0.0469       10.9796       11.0265       6.126624       7.43586
  36     2.964        4.8985        0.0578       10.4786       10.5364       5.637956       6.13426
  35     3.853        4.8992        0.0713        9.9429       10.0142       5.115037       4.96260
  34     5.035        4.9026        0.0882        9.4007        9.4888       4.586210       3.77772
  33     6.613        4.9090        0.1095        8.8752        8.9847       4.075682       2.72928
  32     8.786        4.9179        0.1370        8.3786        8.5156       3.597767       1.85605
  31     11.80        4.9287        0.1749        7.8897        8.0645       3.135869       1.29317
  30     15.07        4.9380        0.2139        7.5108        7.7247       2.786712       0.90145
  29     18.79        4.9467        0.2564        7.1776        7.4340       2.487377       0.67869
  28     23.16        4.9546        0.3043        6.8664        7.1707       2.216132       0.52450
  27     28.12        4.9611        0.3573        6.5780        6.9353       1.974212       0.41125
  26     33.73        4.9636        0.4149        6.3195        6.7344       1.770820       0.30580
  25     40.54        4.9610        0.4830        6.0663        6.5493       1.588236       0.22652
  24     48.69        4.9528        0.5627        5.8128        6.3756       1.422764       0.17124
  23     57.69        4.9389        0.6478        5.5777        6.2255       1.286658       0.12758
  22     68.43        4.9170        0.7463        5.3379        6.0842       1.167230       0.09389
  21     81.20        4.8829        0.8606        5.0965        5.9571       1.074236       0.06145
  20     96.49        4.8353        0.9926        4.8476        5.8403       1.004961       0.03824
  19     114.6        4.7775        1.1422        4.5799        5.7221       0.944636       0.02817
  18     136.5        4.7104        1.3094        4.2891        5.5984       0.888069       0.02175
  17     162.9        4.6337        1.4947        3.9732        5.4679       0.834115       0.01725
  16     196.4        4.5367        1.7166        3.6080        5.3247       0.787968       0.01162
  15     218.7        4.4755        1.8517        3.3898        5.2415       0.765987       0.00835
  14     243.0        4.4119        1.9894        3.1686        5.1580       0.746039       0.00692
  13     269.0        4.3462        2.1286        2.9461        5.0746       0.728436       0.00571
  12     297.5        4.2788        2.2680        2.7239        4.9920       0.713200       0.00452
  11     328.5        4.2104        2.4064        2.5029        4.9093       0.698881       0.00389
  10     361.9        4.1416        2.5425        2.2846        4.8271       0.685502       0.00339
   9     398.1        4.0728        2.6751        2.0708        4.7459       0.673056       0.00290
   8     437.6        4.0044        2.8031        1.8626        4.6656       0.661278       0.00252
   7     480.5        3.9368        2.9250        1.6621        4.5871       0.650297       0.00216
   6     533.0        3.8609        3.0558        1.4437        4.4995       0.638549       0.00189
   5     589.8        3.7873        3.1757        1.2390        4.4147       0.627396       0.00166
   4     651.6        3.7165        3.2831        1.0500        4.3331       0.616685       0.00146
   3     718.7        3.6487        3.3772        0.8778        4.2550       0.606381       0.00129
   2     792.3        3.5843        3.4570        0.7237        4.1807       0.596462       0.00114
   1     891.5        3.1585        3.6432        0.1006        3.7438       0.585258       0.00095
   0    1013.0        3.1149        3.6155        0.0731        3.6885       0.573652       0.00081



 Wavenumbers: 38000. - 50000. cm-1, ATM      1
 LEVEL PRESSURE   UPWARD FLUX   DIFDOWN FLUX  DIRDOWN FLUX  DOWNWARD FLUX   NET FLUX    HEATING RATE
          mb          W/m2          W/m2          W/m2        W/m2          W/m2       degree/day
  51    .06700        0.0051        0.0000        0.8267        0.8267       0.821528       0.00000
  50    .07753        0.0051        0.0001        0.8242        0.8243       0.819196       1.86936
  49    .09103        0.0050        0.0002        0.8207        0.8209       0.815872       2.07705
  48    0.1069        0.0049        0.0002        0.8162        0.8164       0.811514       2.31984
  47    0.1255        0.0048        0.0004        0.8103        0.8106       0.805801       2.59006
  46    0.1487        0.0047        0.0005        0.8018        0.8023       0.797567       3.00143
  45    0.1794        0.0045        0.0007        0.7889        0.7896       0.785013       3.44648
  44    0.2165        0.0044        0.0009        0.7720        0.7729       0.768507       3.75474
  43    0.2613        0.0042        0.0011        0.7500        0.7511       0.746955       4.06246
  42    0.3336        0.0039        0.0015        0.7106        0.7121       0.708267       4.51071
  41    0.4307        0.0035        0.0019        0.6566        0.6584       0.654972       4.63387
  40    0.5894        0.0029        0.0024        0.5680        0.5704       0.567464       4.65357
  39     1.339        0.0015        0.0030        0.2422        0.2452       0.243720       3.64476
  38     1.782        0.0010        0.0026        0.1493        0.1519       0.150889       1.76735
  37     2.292        0.0007        0.0022        0.0924        0.0946       0.093932       0.94336
  36     2.964        0.0005        0.0018        0.0539        0.0557       0.055224       0.48589
  35     3.853        0.0003        0.0013        0.0295        0.0308       0.030502       0.23462
  34     5.035        0.0002        0.0010        0.0154        0.0164       0.016181       0.10230
  33     6.613        0.0001        0.0007        0.0073        0.0080       0.007912       0.04420
  32     8.786        0.0000        0.0004        0.0030        0.0034       0.003390       0.01756
  31     11.80        0.0000        0.0003        0.0010        0.0012       0.001199       0.00613
  30     15.07        0.0000        0.0001        0.0003        0.0005       0.000463       0.00190
  29     18.79        0.0000        0.0001        0.0001        0.0002       0.000182       0.00064
  28     23.16        0.0000        0.0000        0.0000        0.0001       0.000071       0.00022
  27     28.12        0.0000        0.0000        0.0000        0.0000       0.000028       0.00007
  26     33.73        0.0000        0.0000        0.0000        0.0000       0.000011       0.00002
  25     40.54        0.0000        0.0000        0.0000        0.0000       0.000005       0.00001
  24     48.69        0.0000        0.0000        0.0000        0.0000       0.000002       0.00000
  23     57.69        0.0000        0.0000        0.0000        0.0000       0.000001       0.00000
  22     68.43        0.0000        0.0000        0.0000        0.0000       0.000000       0.00000
  21     81.20        0.0000        0.0000        0.0000        0.0000       0.000000       0.00000
  20     96.49        0.0000        0.0000        0.0000        0.0000       0.000000       0.00000
  19     114.6        0.0000        0.0000        0.0000        0.0000       0.000000       0.00000
  18     136.5        0.0000        0.0000        0.0000        0.0000       0.000000       0.00000
  17     162.9        0.0000        0.0000        0.0000        0.0000       0.000000       0.00000
  16     196.4        0.0000        0.0000        0.0000        0.0000       0.000000       0.00000
  15     218.7        0.0000        0.0000        0.0000        0.0000       0.000000       0.00000
  14     243.0        0.0000        0.0000        0.0000        0.0000       0.000000       0.00000
  13     269.0        0.0000        0.0000        0.0000        0.0000       0.000000       0.00000
  12     297.5        0.0000        0.0000        0.0000        0.0000       0.000000       0.00000
  11     328.5        0.0000        0.0000        0.0000        0.0000       0.000000       0.00000
  10     361.9        0.0000        0.0000        0.0000        0.0000       0.000000       0.00000
   9     398.1        0.0000        0.0000        0.0000        0.0000       0.000000       0.00000
   8     437.6        0.0000        0.0000        0.0000        0.0000       0.000000       0.00000
   7     480.5        0.0000        0.0000        0.0000        0.0000       0.000000       0.00000
   6     533.0        0.0000        0.0000        0.0000        0.0000       0.000000       0.00000
   5     589.8        0.0000        0.0000        0.0000        0.0000       0.000000       0.00000
   4     651.6        0.0000        0.0000        0.0000        0.0000       0.000000       0.00000
   3     718.7        0.0000        0.0000        0.0000        0.0000       0.000000       0.00000
   2     792.3        0.0000        0.0000        0.0000        0.0000       0.000000       0.00000
   1     891.5        0.0000        0.0000        0.0000        0.0000       0.000000       0.00000
   0    1013.0        0.0000        0.0000        0.0000        0.0000       0.000000       0.00000



 Wavenumbers:   820. -  2600. cm-1, ATM      1
 LEVEL PRESSURE   UPWARD FLUX   DIFDOWN FLUX  DIRDOWN FLUX  DOWNWARD FLUX   NET FLUX    HEATING RATE
          mb          W/m2          W/m2          W/m2        W/m2          W/m2       degree/day
  51    .06700        0.4362        0.0000        3.8670        3.8670       3.430771       0.00000
  50    .07753        0.4362        0.0000        3.8643        3.8643       3.428054       2.17770
  49    .09103        0.4362        0.0000        3.8635        3.8635       3.427244       0.50639
  48    0.1069        0.4362        0.0000        3.8626        3.8626       3.426353       0.47416
  47    0.1255        0.4362        0.0000        3.8616        3.8616       3.425392       0.43560
  46    0.1487        0.4362        0.0000        3.8605        3.8605       3.424283       0.40438
  45    0.1794        0.4362        0.0000        3.8592        3.8592       3.422948       0.36648
  44    0.2165        0.4362        0.0000        3.8578        3.8578       3.421570       0.31347
  43    0.2613        0.4362        0.0000        3.8564        3.8564       3.420109       0.27523
  42    0.3336        0.4362        0.0000        3.8541        3.8541       3.417878       0.26013
  41    0.4307        0.4362        0.0000        3.8512        3.8512       3.414996       0.25064
  40    0.5894        0.4362        0.0000        3.8465        3.8465       3.410269       0.25135
  39     1.339        0.4362        0.0000        3.8251        3.8251       3.388893       0.24065
  38     1.782        0.4363        0.0000        3.8133        3.8133       3.377080       0.22490
  37     2.292        0.4363        0.0000        3.8003        3.8003       3.364018       0.21634
  36     2.964        0.4363        0.0000        3.7841        3.7841       3.347889       0.20248
  35     3.853        0.4363        0.0000        3.7642        3.7642       3.327973       0.18900
  34     5.035        0.4363        0.0000        3.7395        3.7395       3.303281       0.17639
  33     6.613        0.4363        0.0000        3.7090        3.7090       3.272743       0.16325
  32     8.786        0.4363        0.0000        3.6726        3.6726       3.236348       0.14135
  31     11.80        0.4363        0.0000        3.6320        3.6320       3.195750       0.11366
  30     15.07        0.4363        0.0000        3.6016        3.6016       3.165362       0.07846
  29     18.79        0.4363        0.0000        3.5777        3.5777       3.141460       0.05419
  28     23.16        0.4363        0.0000        3.5564        3.5564       3.120101       0.04130
  27     28.12        0.4363        0.0000        3.5348        3.5348       3.098548       0.03664
  26     33.73        0.4363        0.0000        3.5118        3.5118       3.075508       0.03464
  25     40.54        0.4363        0.0000        3.4849        3.4849       3.048611       0.03337
  24     48.69        0.4363        0.0000        3.4537        3.4537       3.017348       0.03235
  23     57.69        0.4364        0.0000        3.4210        3.4210       2.984663       0.03064
  22     68.43        0.4364        0.0000        3.3844        3.3844       2.948062       0.02877
  21     81.20        0.4364        0.0000        3.3441        3.3441       2.907745       0.02664
  20     96.49        0.4364        0.0000        3.2998        3.2998       2.863358       0.02450
  19     114.6        0.4365        0.0000        3.2506        3.2506       2.814181       0.02296
  18     136.5        0.4365        0.0000        3.1936        3.1936       2.757091       0.02195
  17     162.9        0.4366        0.0000        3.1181        3.1181       2.681518       0.02416
  16     196.4        0.4368        0.0000        3.0090        3.0090       2.572193       0.02752
  15     218.7        0.4369        0.0000        2.9420        2.9420       2.505087       0.02548
  14     243.0        0.4371        0.0000        2.8605        2.8605       2.423376       0.02834
  13     269.0        0.4374        0.0000        2.7419        2.7420       2.304543       0.03855
  12     297.5        0.4380        0.0000        2.5729        2.5729       2.134923       0.05031
  11     328.5        0.4388        0.0000        2.3602        2.3602       1.921383       0.05806
  10     361.9        0.4401        0.0000        2.1524        2.1524       1.712315       0.05290
   9     398.1        0.4420        0.0000        1.9974        1.9974       1.555460       0.03654
   8     437.6        0.4446        0.0000        1.8835        1.8835       1.438969       0.02491
   7     480.5        0.4482        0.0000        1.7734        1.7734       1.325199       0.02234
   6     533.0        0.4543        0.0000        1.6397        1.6398       1.185454       0.02248
   5     589.8        0.4630        0.0000        1.5068        1.5069       1.043850       0.02102
   4     651.6        0.4759        0.0000        1.3807        1.3807       0.904869       0.01901
   3     718.7        0.4930        0.0000        1.2680        1.2681       0.775037       0.01632
   2     792.3        0.5145        0.0000        1.1659        1.1660       0.651529       0.01416
   1     891.5        0.0519        0.4158        0.1876        0.6034       0.551480       0.00851
   0    1013.0        0.0572        0.3745        0.1577        0.5321       0.474942       0.00531

  Modules and versions used in this calculation:

       rrtmg_sw.1col.f90:  $Revision$                    rrtmg_sw_init.f90:  $Revision$        
     rrtmgsw_cldprop.f90:  $Revision$                  rrtmgsw_cldprmc.f90:  NOT USED          
     rrtmg_sw_reftra.f90:  $Revision$                  rrtmg_sw_spcvrt.f90:  NOT USED          
     rrtmg_sw_spcvmc.f90:  NOT USED                    rrtmgsw_setcoef.f90:  NOT USED          
     rrtmg_sw_taumol.f90:  $Revision$                  rrtmg_sw_vrtqdr.f90:  NOT USED          
                rrtatm.f:  NOT USED                             util_xxx.f:  NOT USED          
                 extra.f:  NOT USED                       rrtmg_sw_k_g.f90:  $Revision$        

