

 Wavenumbers:   820. - 50000. cm-1, ATM      1
 LEVEL PRESSURE   UPWARD FLUX   DIFDOWN FLUX  DIRDOWN FLUX  DOWNWARD FLUX   NET FLUX    HEATING RATE
          mb          W/m2          W/m2          W/m2        W/m2          W/m2       degree/day
  51    .06700      260.0445        0.0000      397.8738      397.8738     137.829324       0.00000
  50    .07753      260.0439        0.0012      397.8577      397.8589     137.815032      11.45499
  49    .09103      260.0431        0.0027      397.8418      397.8445     137.801343       8.55605
  48    0.1069      260.0423        0.0043      397.8230      397.8273     137.784995       8.70244
  47    0.1255      260.0414        0.0063      397.7997      397.8060     137.764551       9.26804
  46    0.1487      260.0403        0.0087      397.7676      397.7764     137.736093      10.37332
  45    0.1794      260.0388        0.0121      397.7205      397.7326     137.693800      11.61037
  44    0.2165      260.0371        0.0160      397.6602      397.6763     137.639151      12.43164
  43    0.2613      260.0352        0.0207      397.5829      397.6036     137.568354      13.34494
  42    0.3336      260.0323        0.0283      397.4449      397.4732     137.440916      14.85802
  41    0.4307      260.0287        0.0384      397.2524      397.2908     137.262050      15.55206
  40    0.5894      260.0235        0.0545      396.9253      396.9798     136.956339      16.25731
  39     1.339      260.0104        0.1267      395.4254      395.5520     135.541677      15.92652
  38     1.782      260.0104        0.1672      394.7288      394.8959     134.885501      12.49254
  37     2.292      260.0174        0.2132      394.0572      394.2704     134.253037      10.47526
  36     2.964      260.0366        0.2731      393.3007      393.5737     133.537118       8.98695
  35     3.853      260.0762        0.3513      392.4318      392.7831     132.706867       7.87923
  34     5.035      260.1427        0.4542      391.4441      391.8982     131.755494       6.79622
  33     6.613      260.2393        0.5905      390.3268      390.9173     130.677906       5.76079
  32     8.786      260.3639        0.7728      389.0624      389.8352     129.471346       4.68584
  31     11.80      260.5183        1.0316      387.5500      388.5816     128.063361       3.94192
  30     15.07      260.6561        1.3073      386.1556      387.4629     126.806721       3.24440
  29     18.79      260.7871        1.6162      384.7502      386.3664     125.579298       2.78295
  28     23.16      260.9114        1.9742      383.2686      385.2428     124.331362       2.41310
  27     28.12      261.0202        2.3802      381.7329      384.1131     123.092930       2.10525
  26     33.73      261.0929        2.8313      380.1982      383.0295     121.936634       1.73852
  25     40.54      261.1240        3.3724      378.5384      381.9108     120.786810       1.42649
  24     48.69      261.1072        4.0191      376.7214      380.7405     119.633289       1.19371
  23     57.69      261.0367        4.7227      374.8959      379.6186     118.581925       0.98550
  22     68.43      260.8969        5.5524      372.8999      378.4523     117.555425       0.80697
  21     81.20      260.6533        6.5305      370.7496      377.2801     116.626830       0.61360
  20     96.49      260.2934        7.6813      368.4056      376.0869     115.793488       0.45994
  19     114.6      259.8441        9.0259      365.7513      374.7772     114.933113       0.40173
  18     136.5      259.2967       10.5879      362.7231      373.3110     114.014246       0.35333
  17     162.9      258.6377       12.4042      359.1748      371.5790     112.941287       0.34296
  16     196.4      257.7561       14.6952      354.5718      369.2671     111.510949       0.36003
  15     218.7      257.1737       16.1611      351.4437      367.6048     110.431142       0.40996
  14     243.0      256.5465       17.7208      347.7111      365.4319     108.885470       0.53609
  13     269.0      255.8771       19.3725      342.9441      362.3167     106.439613       0.79342
  12     297.5      255.1694       21.1143      337.4137      358.5280     103.358607       0.91379
  11     328.5      254.4320       22.9478      331.1302      354.0780      99.646014       1.00944
  10     361.9      253.6745       24.8675      324.1219      348.9895      95.314948       1.09580
   9     398.1      252.9072       26.8732      316.6066      343.4798      90.572606       1.10486
   8     437.6      252.1510       28.9603      308.5895      337.5497      85.398766       1.10620
   7     480.5      251.4439       31.1229      299.9349      331.0578      79.613875       1.13613
   6     533.0      250.7422       33.6861      289.7021      323.3882      72.646047       1.12090
   5     589.8      250.2283       36.3336      279.3388      315.6724      65.444106       1.06900
   4     651.6      250.0337       39.0534      268.7786      307.8320      57.798292       1.04559
   3     718.7      250.2696       41.8366      258.2837      300.1203      49.850697       0.99879
   2     792.3      251.0814       44.6694      248.0774      292.7468      41.665427       0.93876
   1     891.5       64.9134      102.9463        0.0003      102.9465      38.033174       0.30909
   0    1013.0       64.9216      101.5903        0.0003      101.5906      36.668979       0.09472



 Wavenumbers:  2600. -  3250. cm-1, ATM      1
 LEVEL PRESSURE   UPWARD FLUX   DIFDOWN FLUX  DIRDOWN FLUX  DOWNWARD FLUX   NET FLUX    HEATING RATE
          mb          W/m2          W/m2          W/m2        W/m2          W/m2       degree/day
  51    .06700        1.0415        0.0000        3.5066        3.5066       2.465140       0.00000
  50    .07753        1.0415        0.0000        3.5066        3.5066       2.465132       0.00640
  49    .09103        1.0415        0.0000        3.5066        3.5066       2.465122       0.00627
  48    0.1069        1.0415        0.0000        3.5066        3.5066       2.465111       0.00613
  47    0.1255        1.0415        0.0000        3.5066        3.5066       2.465098       0.00599
  46    0.1487        1.0415        0.0000        3.5066        3.5066       2.465081       0.00607
  45    0.1794        1.0415        0.0000        3.5065        3.5065       2.465058       0.00624
  44    0.2165        1.0415        0.0000        3.5065        3.5065       2.465031       0.00611
  43    0.2613        1.0415        0.0000        3.5065        3.5065       2.465000       0.00598
  42    0.3336        1.0415        0.0000        3.5064        3.5064       2.464947       0.00615
  41    0.4307        1.0415        0.0000        3.5064        3.5064       2.464876       0.00618
  40    0.5894        1.0415        0.0000        3.5062        3.5062       2.464757       0.00633
  39     1.339        1.0415        0.0000        3.5055        3.5055       2.464058       0.00787
  38     1.782        1.0415        0.0000        3.5050        3.5050       2.463527       0.01011
  37     2.292        1.0415        0.0000        3.5043        3.5043       2.462835       0.01147
  36     2.964        1.0415        0.0000        3.5033        3.5033       2.461843       0.01245
  35     3.853        1.0415        0.0000        3.5019        3.5019       2.460466       0.01307
  34     5.035        1.0415        0.0000        3.5001        3.5001       2.458605       0.01329
  33     6.613        1.0415        0.0000        3.4977        3.4977       2.456195       0.01288
  32     8.786        1.0415        0.0000        3.4947        3.4947       2.453224       0.01154
  31     11.80        1.0415        0.0000        3.4911        3.4911       2.449588       0.01018
  30     15.07        1.0415        0.0000        3.4878        3.4878       2.446366       0.00832
  29     18.79        1.0415        0.0000        3.4848        3.4848       2.443301       0.00695
  28     23.16        1.0415        0.0000        3.4816        3.4816       2.440079       0.00623
  27     28.12        1.0415        0.0000        3.4779        3.4779       2.436458       0.00616
  26     33.73        1.0415        0.0000        3.4735        3.4735       2.431987       0.00672
  25     40.54        1.0415        0.0000        3.4671        3.4672       2.425654       0.00786
  24     48.69        1.0415        0.0000        3.4582        3.4583       2.416748       0.00922
  23     57.69        1.0415        0.0000        3.4472        3.4472       2.405685       0.01037
  22     68.43        1.0415        0.0000        3.4329        3.4330       2.391403       0.01123
  21     81.20        1.0416        0.0000        3.4152        3.4152       2.373643       0.01174
  20     96.49        1.0416        0.0000        3.3940        3.3941       2.352454       0.01169
  19     114.6        1.0417        0.0000        3.3692        3.3692       2.327502       0.01165
  18     136.5        1.0418        0.0001        3.3419        3.3420       2.300193       0.01050
  17     162.9        1.0420        0.0001        3.3129        3.3129       2.270981       0.00934
  16     196.4        1.0423        0.0001        3.2793        3.2794       2.237157       0.00851
  15     218.7        1.0426        0.0001        3.2578        3.2579       2.215296       0.00830
  14     243.0        1.0430        0.0001        3.2320        3.2321       2.189041       0.00911
  13     269.0        1.0438        0.0001        3.1968        3.1969       2.153170       0.01164
  12     297.5        1.0449        0.0001        3.1489        3.1491       2.104128       0.01455
  11     328.5        1.0467        0.0001        3.0821        3.0822       2.035486       0.01866
  10     361.9        1.0493        0.0001        2.9902        2.9904       1.941063       0.02389
   9     398.1        1.0531        0.0001        2.8715        2.8716       1.818548       0.02854
   8     437.6        1.0585        0.0002        2.7276        2.7278       1.669268       0.03192
   7     480.5        1.0667        0.0002        2.5595        2.5597       1.492937       0.03463
   6     533.0        1.0806        0.0002        2.3617        2.3619       1.281277       0.03405
   5     589.8        1.1011        0.0002        2.1649        2.1651       1.063991       0.03225
   4     651.6        1.1317        0.0002        1.9608        1.9609       0.829260       0.03210
   3     718.7        1.1756        0.0002        1.7593        1.7595       0.583896       0.03084
   2     792.3        1.2373        0.0002        1.5761        1.5762       0.338898       0.02810
   1     891.5        0.0165        0.2577        0.0000        0.2577       0.241239       0.00831
   0    1013.0        0.0180        0.2325        0.0000        0.2326       0.214551       0.00185



 Wavenumbers:  3250. -  4000. cm-1, ATM      1
 LEVEL PRESSURE   UPWARD FLUX   DIFDOWN FLUX  DIRDOWN FLUX  DOWNWARD FLUX   NET FLUX    HEATING RATE
          mb          W/m2          W/m2          W/m2        W/m2          W/m2       degree/day
  51    .06700        0.0088        0.0000        5.9117        5.9117       5.902854       0.00000
  50    .07753        0.0088        0.0000        5.9075        5.9075       5.898664       3.35808
  49    .09103        0.0088        0.0000        5.9050        5.9050       5.896221       1.52677
  48    0.1069        0.0088        0.0000        5.9032        5.9032       5.894355       0.99346
  47    0.1255        0.0088        0.0000        5.9014        5.9014       5.892597       0.79708
  46    0.1487        0.0088        0.0000        5.8995        5.8995       5.890708       0.68848
  45    0.1794        0.0088        0.0000        5.8974        5.8974       5.888559       0.58983
  44    0.2165        0.0088        0.0000        5.8952        5.8952       5.886442       0.48155
  43    0.2613        0.0088        0.0000        5.8931        5.8931       5.884283       0.40696
  42    0.3336        0.0088        0.0000        5.8899        5.8899       5.881125       0.36820
  41    0.4307        0.0088        0.0000        5.8861        5.8861       5.877288       0.33365
  40    0.5894        0.0088        0.0000        5.8803        5.8803       5.871486       0.30857
  39     1.339        0.0088        0.0000        5.8597        5.8597       5.850888       0.23189
  38     1.782        0.0088        0.0000        5.8513        5.8513       5.842463       0.16039
  37     2.292        0.0088        0.0000        5.8431        5.8431       5.834292       0.13533
  36     2.964        0.0088        0.0000        5.8334        5.8334       5.824653       0.12100
  35     3.853        0.0088        0.0000        5.8213        5.8213       5.812477       0.11555
  34     5.035        0.0088        0.0000        5.8052        5.8052       5.796382       0.11498
  33     6.613        0.0088        0.0000        5.7833        5.7834       5.774561       0.11666
  32     8.786        0.0088        0.0000        5.7531        5.7531       5.744359       0.11729
  31     11.80        0.0088        0.0000        5.7090        5.7090       5.700190       0.12366
  30     15.07        0.0088        0.0000        5.6615        5.6615       5.652726       0.12254
  29     18.79        0.0088        0.0000        5.6093        5.6094       5.600590       0.11821
  28     23.16        0.0088        0.0000        5.5524        5.5524       5.543664       0.11008
  27     28.12        0.0088        0.0000        5.4935        5.4935       5.484785       0.10009
  26     33.73        0.0088        0.0000        5.4348        5.4349       5.426097       0.08824
  25     40.54        0.0087        0.0001        5.3707        5.3708       5.362035       0.07948
  24     48.69        0.0087        0.0001        5.2985        5.2985       5.289802       0.07475
  23     57.69        0.0087        0.0001        5.2215        5.2216       5.212863       0.07212
  22     68.43        0.0087        0.0001        5.1318        5.1319       5.123203       0.07048
  21     81.20        0.0087        0.0001        5.0284        5.0285       5.019774       0.06834
  20     96.49        0.0087        0.0001        4.9122        4.9123       4.903639       0.06410
  19     114.6        0.0087        0.0001        4.7780        4.7782       4.769528       0.06262
  18     136.5        0.0086        0.0002        4.6285        4.6287       4.620050       0.05748
  17     162.9        0.0086        0.0002        4.4406        4.4407       4.432137       0.06006
  16     196.4        0.0086        0.0002        4.1548        4.1550       4.146462       0.07191
  15     218.7        0.0086        0.0002        3.9564        3.9566       3.948079       0.07532
  14     243.0        0.0085        0.0002        3.7055        3.7058       3.697241       0.08700
  13     269.0        0.0085        0.0002        3.3399        3.3401       3.331591       0.11862
  12     297.5        0.0085        0.0002        2.8954        2.8956       2.887077       0.13184
  11     328.5        0.0086        0.0002        2.4388        2.4390       2.430487       0.12415
  10     361.9        0.0086        0.0002        2.0269        2.0271       2.018460       0.10425
   9     398.1        0.0088        0.0002        1.6753        1.6755       1.666716       0.08195
   8     437.6        0.0090        0.0002        1.3592        1.3594       1.350325       0.06765
   7     480.5        0.0095        0.0002        1.0616        1.0618       1.052250       0.05854
   6     533.0        0.0105        0.0001        0.7543        0.7544       0.743901       0.04960
   5     589.8        0.0124        0.0001        0.4951        0.4952       0.482838       0.03875
   4     651.6        0.0160        0.0001        0.2943        0.2943       0.278297       0.02797
   3     718.7        0.0232        0.0001        0.1528        0.1529       0.129630       0.01868
   2     792.3        0.0379        0.0000        0.0658        0.0658       0.027896       0.01167
   1     891.5        0.0000        0.0031        0.0000        0.0031       0.003108       0.00211
   0    1013.0        0.0000        0.0007        0.0000        0.0007       0.000701       0.00017



 Wavenumbers:  4000. -  4650. cm-1, ATM      1
 LEVEL PRESSURE   UPWARD FLUX   DIFDOWN FLUX  DIRDOWN FLUX  DOWNWARD FLUX   NET FLUX    HEATING RATE
          mb          W/m2          W/m2          W/m2        W/m2          W/m2       degree/day
  51    .06700        3.6964        0.0000        6.9421        6.9421       3.245718       0.00000
  50    .07753        3.6964        0.0000        6.9421        6.9421       3.245717       0.00079
  49    .09103        3.6964        0.0000        6.9421        6.9421       3.245715       0.00078
  48    0.1069        3.6963        0.0000        6.9421        6.9421       3.245714       0.00076
  47    0.1255        3.6963        0.0000        6.9421        6.9421       3.245712       0.00074
  46    0.1487        3.6963        0.0000        6.9421        6.9421       3.245710       0.00075
  45    0.1794        3.6963        0.0000        6.9421        6.9421       3.245707       0.00077
  44    0.2165        3.6963        0.0000        6.9421        6.9421       3.245704       0.00076
  43    0.2613        3.6963        0.0000        6.9420        6.9420       3.245700       0.00074
  42    0.3336        3.6963        0.0000        6.9420        6.9420       3.245694       0.00076
  41    0.4307        3.6963        0.0000        6.9420        6.9420       3.245685       0.00077
  40    0.5894        3.6963        0.0000        6.9420        6.9420       3.245670       0.00079
  39     1.339        3.6963        0.0000        6.9419        6.9419       3.245581       0.00100
  38     1.782        3.6963        0.0000        6.9418        6.9419       3.245512       0.00132
  37     2.292        3.6963        0.0000        6.9418        6.9418       3.245418       0.00155
  36     2.964        3.6963        0.0000        6.9416        6.9416       3.245279       0.00175
  35     3.853        3.6963        0.0000        6.9414        6.9414       3.245072       0.00196
  34     5.035        3.6963        0.0000        6.9411        6.9411       3.244767       0.00218
  33     6.613        3.6963        0.0000        6.9406        6.9407       3.244319       0.00240
  32     8.786        3.6963        0.0000        6.9399        6.9400       3.243658       0.00257
  31     11.80        3.6963        0.0001        6.9389        6.9389       3.242622       0.00290
  30     15.07        3.6963        0.0001        6.9377        6.9377       3.241410       0.00313
  29     18.79        3.6963        0.0001        6.9362        6.9363       3.239948       0.00331
  28     23.16        3.6963        0.0001        6.9343        6.9344       3.238140       0.00350
  27     28.12        3.6963        0.0001        6.9321        6.9323       3.235960       0.00371
  26     33.73        3.6963        0.0001        6.9294        6.9296       3.233283       0.00402
  25     40.54        3.6963        0.0002        6.9258        6.9260       3.229672       0.00448
  24     48.69        3.6963        0.0002        6.9210        6.9212       3.224888       0.00495
  23     57.69        3.6963        0.0003        6.9154        6.9156       3.219255       0.00528
  22     68.43        3.6964        0.0003        6.9083        6.9086       3.212244       0.00551
  21     81.20        3.6965        0.0004        6.8998        6.9001       3.203661       0.00567
  20     96.49        3.6966        0.0004        6.8894        6.8899       3.193279       0.00573
  19     114.6        3.6968        0.0005        6.8765        6.8770       3.180255       0.00608
  18     136.5        3.6971        0.0006        6.8610        6.8616       3.164507       0.00606
  17     162.9        3.6975        0.0007        6.8417        6.8424       3.144855       0.00628
  16     196.4        3.6983        0.0008        6.8147        6.8155       3.117184       0.00697
  15     218.7        3.6991        0.0009        6.7948        6.7958       3.096729       0.00777
  14     243.0        3.7001        0.0010        6.7698        6.7708       3.070704       0.00903
  13     269.0        3.7018        0.0011        6.7349        6.7360       3.034177       0.01185
  12     297.5        3.7044        0.0013        6.6869        6.6881       2.983731       0.01496
  11     328.5        3.7080        0.0014        6.6194        6.6207       2.912725       0.01931
  10     361.9        3.7128        0.0015        6.5295        6.5310       2.818120       0.02394
   9     398.1        3.7192        0.0016        6.4202        6.4219       2.702630       0.02691
   8     437.6        3.7278        0.0018        6.2962        6.2980       2.570167       0.02832
   7     480.5        3.7397        0.0019        6.1555        6.1574       2.417692       0.02995
   6     533.0        3.7593        0.0021        5.9675        5.9696       2.210282       0.03337
   5     589.8        3.7883        0.0023        5.7368        5.7390       1.950699       0.03853
   4     651.6        3.8317        0.0024        5.4662        5.4686       1.636987       0.04290
   3     718.7        3.8938        0.0026        5.1912        5.1938       1.300007       0.04235
   2     792.3        3.9800        0.0027        4.9395        4.9422       0.962237       0.03874
   1     891.5        0.0437        0.8670        0.0000        0.8670       0.823275       0.01182
   0    1013.0        0.0454        0.8288        0.0000        0.8289       0.783429       0.00277



 Wavenumbers:  4650. -  5150. cm-1, ATM      1
 LEVEL PRESSURE   UPWARD FLUX   DIFDOWN FLUX  DIRDOWN FLUX  DOWNWARD FLUX   NET FLUX    HEATING RATE
          mb          W/m2          W/m2          W/m2        W/m2          W/m2       degree/day
  51    .06700        2.5923        0.0000        6.5710        6.5710       3.978712       0.00000
  50    .07753        2.5923        0.0000        6.5708        6.5708       3.978476       0.18887
  49    .09103        2.5923        0.0000        6.5705        6.5705       3.978182       0.18362
  48    0.1069        2.5923        0.0000        6.5701        6.5701       3.977848       0.17806
  47    0.1255        2.5923        0.0000        6.5697        6.5697       3.977467       0.17238
  46    0.1487        2.5923        0.0000        6.5693        6.5693       3.976994       0.17268
  45    0.1794        2.5923        0.0000        6.5686        6.5686       3.976357       0.17474
  44    0.2165        2.5923        0.0000        6.5679        6.5679       3.975619       0.16788
  43    0.2613        2.5923        0.0000        6.5670        6.5670       3.974766       0.16078
  42    0.3336        2.5923        0.0000        6.5657        6.5657       3.973403       0.15894
  41    0.4307        2.5923        0.0000        6.5640        6.5640       3.971681       0.14971
  40    0.5894        2.5923        0.0000        6.5613        6.5613       3.969065       0.13913
  39     1.339        2.5923        0.0000        6.5516        6.5516       3.959287       0.11008
  38     1.782        2.5923        0.0000        6.5473        6.5473       3.955071       0.08027
  37     2.292        2.5923        0.0000        6.5434        6.5435       3.951183       0.06438
  36     2.964        2.5923        0.0000        6.5395        6.5395       3.947228       0.04965
  35     3.853        2.5923        0.0000        6.5355        6.5356       3.943284       0.03743
  34     5.035        2.5923        0.0000        6.5315        6.5315       3.939280       0.02860
  33     6.613        2.5923        0.0000        6.5271        6.5271       3.934883       0.02351
  32     8.786        2.5923        0.0001        6.5216        6.5216       3.929382       0.02136
  31     11.80        2.5923        0.0001        6.5135        6.5136       3.921293       0.02265
  30     15.07        2.5923        0.0001        6.5041        6.5042       3.911911       0.02422
  29     18.79        2.5923        0.0001        6.4925        6.4926       3.900375       0.02615
  28     23.16        2.5923        0.0001        6.4779        6.4780       3.885756       0.02827
  27     28.12        2.5923        0.0002        6.4599        6.4601       3.867743       0.03062
  26     33.73        2.5924        0.0002        6.4384        6.4386       3.846262       0.03230
  25     40.54        2.5924        0.0003        6.4112        6.4115       3.819067       0.03374
  24     48.69        2.5925        0.0003        6.3775        6.3778       3.785330       0.03491
  23     57.69        2.5926        0.0004        6.3404        6.3407       3.748113       0.03489
  22     68.43        2.5928        0.0004        6.2971        6.2976       3.704749       0.03409
  21     81.20        2.5931        0.0005        6.2483        6.2488       3.655695       0.03241
  20     96.49        2.5934        0.0006        6.1948        6.1954       3.601996       0.02964
  19     114.6        2.5939        0.0007        6.1381        6.1388       3.544910       0.02666
  18     136.5        2.5947        0.0008        6.0790        6.0798       3.485181       0.02297
  17     162.9        2.5957        0.0010        6.0160        6.0170       3.421359       0.02040
  16     196.4        2.5973        0.0012        5.9399        5.9410       3.343783       0.01953
  15     218.7        2.5985        0.0013        5.8896        5.8909       3.292396       0.01951
  14     243.0        2.6002        0.0014        5.8322        5.8336       3.233402       0.02046
  13     269.0        2.6026        0.0016        5.7624        5.7640       3.161364       0.02337
  12     297.5        2.6060        0.0017        5.6767        5.6785       3.072440       0.02637
  11     328.5        2.6107        0.0019        5.5726        5.5745       2.963817       0.02953
  10     361.9        2.6169        0.0020        5.4473        5.4494       2.832433       0.03324
   9     398.1        2.6254        0.0022        5.2995        5.3017       2.676329       0.03637
   8     437.6        2.6367        0.0024        5.1275        5.1298       2.493163       0.03916
   7     480.5        2.6521        0.0025        4.9290        4.9315       2.279367       0.04199
   6     533.0        2.6766        0.0027        4.6794        4.6821       2.005456       0.04406
   5     589.8        2.7110        0.0029        4.4188        4.4217       1.710667       0.04376
   4     651.6        2.7599        0.0030        4.1521        4.1551       1.395210       0.04314
   3     718.7        2.8269        0.0032        3.8929        3.8961       1.069230       0.04097
   2     792.3        2.9171        0.0034        3.6469        3.6502       0.733165       0.03854
   1     891.5        0.0317        0.6256        0.0000        0.6256       0.593921       0.01185
   0    1013.0        0.0334        0.5893        0.0000        0.5893       0.555954       0.00264



 Wavenumbers:  5150. -  6150. cm-1, ATM      1
 LEVEL PRESSURE   UPWARD FLUX   DIFDOWN FLUX  DIRDOWN FLUX  DOWNWARD FLUX   NET FLUX    HEATING RATE
          mb          W/m2          W/m2          W/m2        W/m2          W/m2       degree/day
  51    .06700        6.3968        0.0000       16.4735       16.4735      10.076668       0.00000
  50    .07753        6.3968        0.0000       16.4735       16.4735      10.076633       0.02764
  49    .09103        6.3968        0.0000       16.4734       16.4734      10.076588       0.02813
  48    0.1069        6.3968        0.0000       16.4734       16.4734      10.076534       0.02862
  47    0.1255        6.3968        0.0000       16.4733       16.4733      10.076470       0.02907
  46    0.1487        6.3968        0.0000       16.4732       16.4732      10.076386       0.03062
  45    0.1794        6.3968        0.0000       16.4731       16.4731      10.076267       0.03272
  44    0.2165        6.3968        0.0000       16.4730       16.4730      10.076121       0.03334
  43    0.2613        6.3968        0.0000       16.4728       16.4728      10.075941       0.03379
  42    0.3336        6.3968        0.0000       16.4725       16.4725      10.075635       0.03567
  41    0.4307        6.3968        0.0000       16.4720       16.4720      10.075216       0.03648
  40    0.5894        6.3968        0.0000       16.4713       16.4713      10.074514       0.03732
  39     1.339        6.3968        0.0000       16.4679       16.4679      10.071102       0.03841
  38     1.782        6.3968        0.0001       16.4659       16.4659      10.069100       0.03811
  37     2.292        6.3968        0.0001       16.4635       16.4636      10.066805       0.03801
  36     2.964        6.3968        0.0001       16.4605       16.4606      10.063831       0.03734
  35     3.853        6.3968        0.0001       16.4567       16.4568      10.059970       0.03664
  34     5.035        6.3968        0.0001       16.4516       16.4517      10.054962       0.03578
  33     6.613        6.3968        0.0002       16.4451       16.4453      10.048485       0.03463
  32     8.786        6.3968        0.0003       16.4367       16.4369      10.040148       0.03238
  31     11.80        6.3967        0.0003       16.4254       16.4257      10.028959       0.03133
  30     15.07        6.3967        0.0004       16.4141       16.4146      10.017827       0.02874
  29     18.79        6.3967        0.0005       16.4024       16.4030      10.006251       0.02625
  28     23.16        6.3967        0.0007       16.3900       16.3906       9.993922       0.02384
  27     28.12        6.3967        0.0008       16.3771       16.3779       9.981174       0.02167
  26     33.73        6.3967        0.0010       16.3641       16.3651       9.968344       0.01929
  25     40.54        6.3968        0.0012       16.3502       16.3513       9.954562       0.01710
  24     48.69        6.3969        0.0014       16.3354       16.3368       9.939899       0.01517
  23     57.69        6.3970        0.0017       16.3211       16.3227       9.925771       0.01324
  22     68.43        6.3971        0.0020       16.3062       16.3082       9.911094       0.01154
  21     81.20        6.3973        0.0023       16.2903       16.2927       9.895341       0.01041
  20     96.49        6.3976        0.0028       16.2726       16.2754       9.877822       0.00967
  19     114.6        6.3979        0.0033       16.2521       16.2554       9.857462       0.00951
  18     136.5        6.3983        0.0039       16.2245       16.2285       9.830131       0.01051
  17     162.9        6.3989        0.0046       16.1747       16.1794       9.780511       0.01586
  16     196.4        6.3997        0.0056       16.0518       16.0574       9.657752       0.03090
  15     218.7        6.4003        0.0062       15.8984       15.9046       9.504297       0.05826
  14     243.0        6.4010        0.0068       15.6153       15.6220       9.221031       0.09825
  13     269.0        6.4021        0.0074       15.1390       15.1463       8.744273       0.15466
  12     297.5        6.4036        0.0079       14.5779       14.5858       8.182168       0.16671
  11     328.5        6.4060        0.0085       13.8780       13.8865       7.480495       0.19078
  10     361.9        6.4095        0.0089       13.0814       13.0904       6.680927       0.20230
   9     398.1        6.4145        0.0094       12.2728       12.2822       5.867712       0.18946
   8     437.6        6.4220        0.0098       11.4776       11.4874       5.065340       0.17155
   7     480.5        6.4336        0.0102       10.7300       10.7402       4.306531       0.14903
   6     533.0        6.4544        0.0107       10.0326       10.0433       3.588874       0.11545
   5     589.8        6.4876        0.0113        9.5050        9.5163       3.028696       0.08315
   4     651.6        6.5413        0.0120        9.0814        9.0934       2.552097       0.06518
   3     718.7        6.6238        0.0128        8.7024        8.7152       2.091369       0.05790
   2     792.3        6.7463        0.0137        8.3379        8.3516       1.605334       0.05574
   1     891.5        0.0839        1.4852        0.0000        1.4852       1.401332       0.01736
   0    1013.0        0.0860        1.4333        0.0000        1.4333       1.347298       0.00375



 Wavenumbers:  6150. -  7700. cm-1, ATM      1
 LEVEL PRESSURE   UPWARD FLUX   DIFDOWN FLUX  DIRDOWN FLUX  DOWNWARD FLUX   NET FLUX    HEATING RATE
          mb          W/m2          W/m2          W/m2        W/m2          W/m2       degree/day
  51    .06700        9.9885        0.0000       30.4684       30.4684      20.479883       0.00000
  50    .07753        9.9885        0.0000       30.4683       30.4683      20.479831       0.04144
  49    .09103        9.9885        0.0000       30.4683       30.4683      20.479764       0.04174
  48    0.1069        9.9885        0.0000       30.4682       30.4682      20.479686       0.04202
  47    0.1255        9.9885        0.0000       30.4681       30.4681      20.479592       0.04227
  46    0.1487        9.9885        0.0000       30.4680       30.4680      20.479471       0.04411
  45    0.1794        9.9885        0.0000       30.4678       30.4678      20.479301       0.04669
  44    0.2165        9.9885        0.0000       30.4676       30.4676      20.479094       0.04715
  43    0.2613        9.9885        0.0000       30.4673       30.4673      20.478842       0.04744
  42    0.3336        9.9885        0.0000       30.4669       30.4669      20.478416       0.04974
  41    0.4307        9.9885        0.0000       30.4663       30.4663      20.477835       0.05052
  40    0.5894        9.9885        0.0001       30.4653       30.4653      20.476867       0.05146
  39     1.339        9.9884        0.0002       30.4604       30.4606      20.472183       0.05273
  38     1.782        9.9883        0.0002       30.4576       30.4578      20.469433       0.05235
  37     2.292        9.9883        0.0003       30.4543       30.4546      20.466275       0.05231
  36     2.964        9.9882        0.0003       30.4501       30.4504      20.462168       0.05156
  35     3.853        9.9882        0.0005       30.4445       30.4450      20.456810       0.05084
  34     5.035        9.9881        0.0006       30.4373       30.4379      20.449811       0.05000
  33     6.613        9.9879        0.0008       30.4278       30.4286      20.440663       0.04890
  32     8.786        9.9877        0.0010       30.4154       30.4164      20.428710       0.04642
  31     11.80        9.9875        0.0014       30.3984       30.3998      20.412324       0.04588
  30     15.07        9.9872        0.0018       30.3810       30.3828      20.395610       0.04315
  29     18.79        9.9868        0.0022       30.3623       30.3645      20.377709       0.04059
  28     23.16        9.9864        0.0028       30.3417       30.3445      20.358025       0.03806
  27     28.12        9.9860        0.0034       30.3196       30.3229      20.336923       0.03587
  26     33.73        9.9855        0.0040       30.2965       30.3005      20.315003       0.03296
  25     40.54        9.9849        0.0048       30.2708       30.2756      20.290663       0.03020
  24     48.69        9.9842        0.0058       30.2423       30.2481      20.263882       0.02771
  23     57.69        9.9834        0.0069       30.2139       30.2207      20.237311       0.02491
  22     68.43        9.9825        0.0081       30.1834       30.1915      20.209030       0.02223
  21     81.20        9.9814        0.0097       30.1500       30.1596      20.178292       0.02031
  20     96.49        9.9800        0.0115       30.1126       30.1241      20.144062       0.01889
  19     114.6        9.9784        0.0136       30.0695       30.0831      20.104658       0.01840
  18     136.5        9.9766        0.0162       30.0139       30.0301      20.053473       0.01968
  17     162.9        9.9744        0.0192       29.9225       29.9416      19.967232       0.02757
  16     196.4        9.9717        0.0230       29.7333       29.7564      19.784701       0.04595
  15     218.7        9.9700        0.0255       29.5259       29.5514      19.581417       0.07718
  14     243.0        9.9683        0.0281       29.1375       29.1656      19.197294       0.13323
  13     269.0        9.9671        0.0307       28.3800       28.4107      18.443620       0.24449
  12     297.5        9.9666        0.0331       27.3895       27.4226      17.456029       0.29291
  11     328.5        9.9676        0.0354       26.2257       26.2611      16.293490       0.31609
  10     361.9        9.9711        0.0375       24.8453       24.8829      14.911798       0.34958
   9     398.1        9.9783        0.0395       23.3471       23.3865      13.408205       0.35030
   8     437.6        9.9917        0.0412       21.7966       21.8378      11.846079       0.33399
   7     480.5       10.0160        0.0426       20.1977       20.2403      10.224377       0.31850
   6     533.0       10.0634        0.0441       18.4969       18.5411       8.477666       0.28099
   5     589.8       10.1428        0.0457       16.9754       17.0211       6.878255       0.23741
   4     651.6       10.2745        0.0473       15.6022       15.6494       5.374933       0.20558
   3     718.7       10.4787        0.0490       14.4232       14.4722       3.993489       0.17361
   2     792.3       10.7836        0.0510       13.4386       13.4896       2.706088       0.14765
   1     891.5        0.1347        2.3344        0.0000        2.3344       2.199657       0.04309
   0    1013.0        0.1405        2.2052        0.0000        2.2052       2.064761       0.00937



 Wavenumbers:  7700. -  8050. cm-1, ATM      1
 LEVEL PRESSURE   UPWARD FLUX   DIFDOWN FLUX  DIRDOWN FLUX  DOWNWARD FLUX   NET FLUX    HEATING RATE
          mb          W/m2          W/m2          W/m2        W/m2          W/m2       degree/day
  51    .06700        4.7506        0.0000        7.2006        7.2006       2.449994       0.00000
  50    .07753        4.7506        0.0000        7.2006        7.2006       2.449973       0.01675
  49    .09103        4.7506        0.0000        7.2005        7.2005       2.449947       0.01641
  48    0.1069        4.7506        0.0000        7.2005        7.2005       2.449917       0.01607
  47    0.1255        4.7506        0.0000        7.2005        7.2005       2.449882       0.01572
  46    0.1487        4.7506        0.0000        7.2004        7.2005       2.449839       0.01595
  45    0.1794        4.7506        0.0000        7.2004        7.2004       2.449779       0.01642
  44    0.2165        4.7506        0.0000        7.2003        7.2003       2.449708       0.01610
  43    0.2613        4.7506        0.0000        7.2003        7.2003       2.449624       0.01580
  42    0.3336        4.7507        0.0000        7.2001        7.2001       2.449485       0.01617
  41    0.4307        4.7507        0.0000        7.2000        7.2000       2.449302       0.01599
  40    0.5894        4.7507        0.0000        7.1997        7.1997       2.449001       0.01597
  39     1.339        4.7509        0.0001        7.1984        7.1985       2.447581       0.01599
  38     1.782        4.7510        0.0001        7.1977        7.1978       2.446746       0.01588
  37     2.292        4.7512        0.0001        7.1968        7.1969       2.445781       0.01599
  36     2.964        4.7513        0.0002        7.1957        7.1959       2.444514       0.01591
  35     3.853        4.7516        0.0002        7.1942        7.1944       2.442840       0.01588
  34     5.035        4.7519        0.0003        7.1922        7.1925       2.440619       0.01587
  33     6.613        4.7523        0.0003        7.1896        7.1899       2.437653       0.01585
  32     8.786        4.7528        0.0005        7.1860        7.1865       2.433662       0.01550
  31     11.80        4.7536        0.0006        7.1810        7.1816       2.427962       0.01596
  30     15.07        4.7545        0.0008        7.1755        7.1763       2.421857       0.01576
  29     18.79        4.7554        0.0010        7.1694        7.1704       2.414978       0.01560
  28     23.16        4.7566        0.0012        7.1623        7.1635       2.406969       0.01549
  27     28.12        4.7579        0.0015        7.1542        7.1557       2.397843       0.01551
  26     33.73        4.7593        0.0018        7.1452        7.1470       2.387674       0.01529
  25     40.54        4.7611        0.0021        7.1344        7.1365       2.375450       0.01517
  24     48.69        4.7632        0.0025        7.1215        7.1240       2.360803       0.01516
  23     57.69        4.7656        0.0030        7.1074        7.1104       2.344828       0.01497
  22     68.43        4.7684        0.0035        7.0909        7.0944       2.325954       0.01484
  21     81.20        4.7719        0.0042        7.0713        7.0755       2.303683       0.01472
  20     96.49        4.7760        0.0050        7.0484        7.0534       2.277444       0.01448
  19     114.6        4.7809        0.0059        7.0217        7.0276       2.246694       0.01436
  18     136.5        4.7868        0.0070        6.9906        6.9976       2.210792       0.01381
  17     162.9        4.7939        0.0083        6.9544        6.9627       2.168760       0.01344
  16     196.4        4.8034        0.0100        6.9087        6.9187       2.115353       0.01344
  15     218.7        4.8097        0.0111        6.8794        6.8905       2.080840       0.01310
  14     243.0        4.8166        0.0123        6.8481        6.8604       2.043765       0.01286
  13     269.0        4.8243        0.0135        6.8147        6.8283       2.003961       0.01291
  12     297.5        4.8328        0.0149        6.7791        6.7940       1.961177       0.01269
  11     328.5        4.8423        0.0164        6.7409        6.7574       1.915028       0.01255
  10     361.9        4.8530        0.0180        6.7002        6.7182       1.865175       0.01261
   9     398.1        4.8651        0.0198        6.6563        6.6760       1.810985       0.01263
   8     437.6        4.8787        0.0216        6.6089        6.6305       1.751775       0.01266
   7     480.5        4.8944        0.0236        6.5570        6.5806       1.686162       0.01289
   6     533.0        4.9155        0.0260        6.4915        6.5175       1.602005       0.01354
   5     589.8        4.9406        0.0286        6.4182        6.4468       1.506267       0.01421
   4     651.6        4.9707        0.0313        6.3359        6.3672       1.396512       0.01501
   3     718.7        5.0067        0.0343        6.2441        6.2784       1.271710       0.01568
   2     792.3        5.0490        0.0374        6.1437        6.1811       1.132108       0.01601
   1     891.5        0.0800        1.1476        0.0000        1.1476       1.067665       0.00548
   0    1013.0        0.0810        1.1280        0.0000        1.1280       1.046984       0.00144



 Wavenumbers:  8050. - 12850. cm-1, ATM      1
 LEVEL PRESSURE   UPWARD FLUX   DIFDOWN FLUX  DIRDOWN FLUX  DOWNWARD FLUX   NET FLUX    HEATING RATE
          mb          W/m2          W/m2          W/m2        W/m2          W/m2       degree/day
  51    .06700       62.2279        0.0000      100.8135      100.8135      38.585653       0.00000
  50    .07753       62.2278        0.0000      100.8135      100.8135      38.585653       0.00000
  49    .09103       62.2278        0.0001      100.8134      100.8135      38.585653       0.00000
  48    0.1069       62.2278        0.0001      100.8134      100.8135      38.585653      -0.00000
  47    0.1255       62.2278        0.0001      100.8133      100.8134      38.585653       0.00000
  46    0.1487       62.2277        0.0002      100.8132      100.8134      38.585653      -0.00000
  45    0.1794       62.2277        0.0003      100.8131      100.8134      38.585653       0.00000
  44    0.2165       62.2277        0.0004      100.8129      100.8133      38.585653      -0.00000
  43    0.2613       62.2276        0.0005      100.8127      100.8132      38.585653       0.00000
  42    0.3336       62.2275        0.0007      100.8125      100.8131      38.585653      -0.00000
  41    0.4307       62.2274        0.0009      100.8121      100.8130      38.585653       0.00000
  40    0.5894       62.2271        0.0013      100.8115      100.8128      38.585653       0.00000
  39     1.339       62.2261        0.0032      100.8085      100.8117      38.585653      -0.00000
  38     1.782       62.2255        0.0044      100.8068      100.8111      38.585653      -0.00000
  37     2.292       62.2247        0.0057      100.8047      100.8104      38.585653       0.00000
  36     2.964       62.2238        0.0074      100.8021      100.8095      38.585653      -0.00000
  35     3.853       62.2226        0.0096      100.7986      100.8082      38.585653       0.00000
  34     5.035       62.2209        0.0126      100.7940      100.8066      38.585653      -0.00000
  33     6.613       62.2187        0.0166      100.7878      100.8044      38.585653      -0.00000
  32     8.786       62.2157        0.0220      100.7794      100.8014      38.585653       0.00000
  31     11.80       62.2115        0.0297      100.7674      100.7971      38.585653      -0.00000
  30     15.07       62.2069        0.0380      100.7546      100.7925      38.585653       0.00000
  29     18.79       62.2017        0.0474      100.7400      100.7874      38.585653      -0.00000
  28     23.16       62.1957        0.0583      100.7230      100.7813      38.585653       0.00000
  27     28.12       62.1887        0.0709      100.7035      100.7744      38.585653       0.00000
  26     33.73       62.1809        0.0849      100.6817      100.7666      38.585653      -0.00000
  25     40.54       62.1716        0.1020      100.6552      100.7572      38.585653       0.00000
  24     48.69       62.1602        0.1225      100.6234      100.7459      38.585653      -0.00000
  23     57.69       62.1477        0.1451      100.5883      100.7334      38.585653      -0.00000
  22     68.43       62.1328        0.1720      100.5464      100.7185      38.585653       0.00000
  21     81.20       62.1151        0.2042      100.4965      100.7007      38.585653      -0.00000
  20     96.49       62.0939        0.2426      100.4370      100.6795      38.585653       0.00000
  19     114.6       62.0688        0.2882      100.3585      100.6467      38.577852       0.00364
  18     136.5       62.0391        0.3424      100.2634      100.6057      38.566635       0.00431
  17     162.9       62.0037        0.4070      100.1407      100.5476      38.543918       0.00726
  16     196.4       61.9580        0.4909       99.9505      100.4414      38.483433       0.01522
  15     218.7       61.9280        0.5461       99.7889      100.3350      38.406996       0.02902
  14     243.0       61.8960        0.6060       99.5472      100.1532      38.257209       0.05195
  13     269.0       61.8630        0.6706       99.1452       99.8158      37.952805       0.09875
  12     297.5       61.8307        0.7400       98.5975       99.3375      37.506747       0.13230
  11     328.5       61.8015        0.8144       97.8659       98.6802      36.878688       0.17077
  10     361.9       61.7794        0.8935       96.8848       97.7783      35.998898       0.22260
   9     398.1       61.7694        0.9772       95.6330       96.6102      34.840780       0.26982
   8     437.6       61.7812        1.0651       94.0655       95.1306      33.349387       0.31887
   7     480.5       61.8335        1.1562       92.0807       93.2370      31.403502       0.38216
   6     533.0       61.9659        1.2643       89.4449       90.7091      28.743192       0.42796
   5     589.8       62.2130        1.3762       86.5544       87.9306      25.717655       0.44909
   4     651.6       62.6409        1.4916       83.4174       84.9090      22.268136       0.47173
   3     718.7       63.3060        1.6112       80.2037       81.8149      18.508904       0.47243
   2     792.3       64.2778        1.7358       77.0811       78.8169      14.539061       0.45530
   1     891.5        3.2289       16.0170        0.0001       16.0171      12.788192       0.14899
   0    1013.0        3.3050       15.4872        0.0001       15.4873      12.182279       0.04207



 Wavenumbers: 12850. - 16000. cm-1, ATM      1
 LEVEL PRESSURE   UPWARD FLUX   DIFDOWN FLUX  DIRDOWN FLUX  DOWNWARD FLUX   NET FLUX    HEATING RATE
          mb          W/m2          W/m2          W/m2        W/m2          W/m2       degree/day
  51    .06700       46.1918        0.0000       63.1686       63.1686      16.976819       0.00000
  50    .07753       46.1917        0.0001       63.1677       63.1678      16.976037       0.62710
  49    .09103       46.1917        0.0001       63.1666       63.1668      16.975061       0.60981
  48    0.1069       46.1917        0.0002       63.1654       63.1656      16.973950       0.59178
  47    0.1255       46.1917        0.0003       63.1640       63.1643      16.972684       0.57372
  46    0.1487       46.1916        0.0005       63.1623       63.1627      16.971104       0.57591
  45    0.1794       46.1916        0.0006       63.1600       63.1606      16.968983       0.58228
  44    0.2165       46.1916        0.0008       63.1573       63.1581      16.966527       0.55873
  43    0.2613       46.1916        0.0011       63.1542       63.1553      16.963689       0.53488
  42    0.3336       46.1916        0.0015       63.1493       63.1508      16.959159       0.52822
  41    0.4307       46.1917        0.0020       63.1431       63.1451      16.953478       0.49395
  40    0.5894       46.1919        0.0029       63.1338       63.1367      16.944838       0.45944
  39     1.339       46.1945        0.0070       63.0956       63.1026      16.908028       0.41442
  38     1.782       46.1974        0.0094       63.0740       63.0834      16.886047       0.41848
  37     2.292       46.2019        0.0122       63.0477       63.0599      16.857989       0.46471
  36     2.964       46.2096        0.0159       63.0095       63.0254      16.815795       0.52966
  35     3.853       46.2224        0.0207       62.9533       62.9740      16.751590       0.60932
  34     5.035       46.2419        0.0271       62.8725       62.8996      16.657756       0.67031
  33     6.613       46.2692        0.0357       62.7621       62.7978      16.528536       0.69081
  32     8.786       46.3047        0.0472       62.6182       62.6655      16.360749       0.65162
  31     11.80       46.3505        0.0637       62.4284       62.4920      16.141540       0.61372
  30     15.07       46.3938        0.0813       62.2426       62.3239      15.930101       0.54589
  29     18.79       46.4375        0.1012       62.0493       62.1505      15.712975       0.49229
  28     23.16       46.4825        0.1244       61.8424       61.9668      15.484305       0.44217
  27     28.12       46.5269        0.1508       61.6278       61.7786      15.251724       0.39537
  26     33.73       46.5665        0.1803       61.4177       61.5980      15.031545       0.33105
  25     40.54       46.6026        0.2160       61.1983       61.4143      14.811687       0.27276
  24     48.69       46.6348        0.2589       60.9680       61.2269      14.592079       0.22726
  23     57.69       46.6592        0.3060       60.7478       61.0538      14.394593       0.18511
  22     68.43       46.6764        0.3620       60.5202       60.8822      14.205862       0.14837
  21     81.20       46.6805        0.4288       60.2938       60.7226      14.042104       0.10821
  20     96.49       46.6704        0.5083       60.0643       60.5726      13.902187       0.07722
  19     114.6       46.6579        0.6033       59.8078       60.4111      13.753196       0.06957
  18     136.5       46.6366        0.7158       59.5157       60.2315      13.594906       0.06087
  17     162.9       46.6052        0.8494       59.1770       60.0264      13.421174       0.05553
  16     196.4       46.5519        1.0223       58.7604       59.7827      13.230778       0.04792
  15     218.7       46.5124        1.1356       58.4948       59.6304      13.117931       0.04284
  14     243.0       46.4677        1.2585       58.2089       59.4674      12.999726       0.04100
  13     269.0       46.4177        1.3915       57.9006       59.2920      12.874353       0.04067
  12     297.5       46.3628        1.5349       57.5668       59.1016      12.738821       0.04020
  11     328.5       46.3047        1.6895       57.2005       58.8900      12.585271       0.04175
  10     361.9       46.2445        1.8555       56.7963       58.6518      12.407335       0.04502
   9     398.1       46.1837        2.0336       56.3475       58.3811      12.197395       0.04891
   8     437.6       46.1255        2.2240       55.8422       58.0663      11.940773       0.05487
   7     480.5       46.0756        2.4270       55.2625       57.6895      11.613947       0.06419
   6     533.0       46.0352        2.6748       54.4972       57.1719      11.136789       0.07676
   5     589.8       46.0183        2.9386       53.6307       56.5693      10.550927       0.08696
   4     651.6       46.0379        3.2176       52.6606       55.8782       9.840319       0.09718
   3     718.7       46.1021        3.5123       51.6100       55.1223       9.020212       0.10306
   2     792.3       46.2221        3.8225       50.5019       54.3243       8.102226       0.10528
   1     891.5        8.8407       16.4542        0.0001       16.4543       7.613550       0.04158
   0    1013.0        8.9089       16.2392        0.0001       16.2393       7.330406       0.01966



 Wavenumbers: 16000. - 22650. cm-1, ATM      1
 LEVEL PRESSURE   UPWARD FLUX   DIFDOWN FLUX  DIRDOWN FLUX  DOWNWARD FLUX   NET FLUX    HEATING RATE
          mb          W/m2          W/m2          W/m2        W/m2          W/m2       degree/day
  51    .06700       81.7955        0.0000      100.7153      100.7153      18.919755       0.00000
  50    .07753       81.7954        0.0003      100.7147      100.7151      18.919635       0.09630
  49    .09103       81.7953        0.0008      100.7140      100.7148      18.919460       0.10922
  48    0.1069       81.7951        0.0012      100.7131      100.7144      18.919226       0.12455
  47    0.1255       81.7950        0.0018      100.7121      100.7139      18.918913       0.14197
  46    0.1487       81.7948        0.0025      100.7108      100.7133      18.918451       0.16823
  45    0.1794       81.7946        0.0034      100.7089      100.7123      18.917730       0.19808
  44    0.2165       81.7944        0.0046      100.7066      100.7111      18.916751       0.22262
  43    0.2613       81.7941        0.0059      100.7037      100.7096      18.915423       0.25027
  42    0.3336       81.7939        0.0081      100.6987      100.7068      18.912899       0.29431
  41    0.4307       81.7937        0.0110      100.6918      100.7028      18.909094       0.33083
  40    0.5894       81.7937        0.0158      100.6797      100.6956      18.901838       0.38588
  39     1.339       81.7997        0.0385      100.6095      100.6480      18.848237       0.60344
  38     1.782       81.8076        0.0518      100.5585      100.6102      18.802589       0.86907
  37     2.292       81.8208        0.0671      100.4903      100.5574      18.736533       1.09407
  36     2.964       81.8445        0.0873      100.3868      100.4741      18.629568       1.34273
  35     3.853       81.8846        0.1139      100.2306      100.3445      18.459957       1.60964
  34     5.035       81.9465        0.1493      100.0045      100.1537      18.207168       1.80581
  33     6.613       82.0338        0.1963       99.6939       99.8902      17.856375       1.87534
  32     8.786       82.1469        0.2596       99.2881       99.5477      17.400795       1.76931
  31     11.80       82.2916        0.3499       98.7496       99.0995      16.807890       1.65995
  30     15.07       82.4271        0.4464       98.2198       98.6663      16.239158       1.46836
  29     18.79       82.5624        0.5552       97.6651       98.2203      15.657929       1.31782
  28     23.16       82.6998        0.6817       97.0671       97.7488      15.049048       1.17738
  27     28.12       82.8329        0.8259       96.4406       97.2664      14.433495       1.04640
  26     33.73       82.9474        0.9867       95.8179       96.8046      13.857142       0.86656
  25     40.54       83.0459        1.1803       95.1548       96.3352      13.289310       0.70446
  24     48.69       83.1259        1.4129       94.4420       95.8549      12.729011       0.57982
  23     57.69       83.1765        1.6674       93.7416       95.4090      12.232491       0.46541
  22     68.43       83.1967        1.9693       92.9954       94.9646      11.767907       0.36522
  21     81.20       83.1659        2.3276       92.2231       94.5507      11.384839       0.25313
  20     96.49       83.0785        2.7527       91.4110       94.1637      11.085185       0.16539
  19     114.6       82.9495        3.2540       90.5070       93.7610      10.811475       0.12780
  18     136.5       82.7804        3.8434       89.4803       93.3236      10.543164       0.10317
  17     162.9       82.5651        4.5384       88.3022       92.8406      10.275448       0.08557
  16     196.4       82.2544        5.4295       86.8606       92.2902      10.035722       0.06034
  15     218.7       82.0397        6.0086       85.9492       91.9578       9.918082       0.04466
  14     243.0       81.8023        6.6325       84.9789       91.6114       9.809138       0.03779
  13     269.0       81.5411        7.3022       83.9493       91.2515       9.710413       0.03203
  12     297.5       81.2555        8.0186       82.8589       90.8776       9.622020       0.02622
  11     328.5       80.9473        8.7843       81.6982       90.4825       9.535145       0.02362
  10     361.9       80.6166        9.5989       80.4669       90.0658       9.449222       0.02174
   9     398.1       80.2627       10.4645       79.1611       89.6257       9.362970       0.02009
   8     437.6       79.8864       11.3815       77.7777       89.1593       9.272923       0.01925
   7     480.5       79.4883       12.3503       76.3136       88.6640       9.175730       0.01909
   6     533.0       79.0067       13.5230       74.5359       88.0589       9.052179       0.01988
   5     589.8       78.4997       14.7629       72.6469       87.4098       8.910120       0.02109
   4     651.6       77.9702       16.0680       70.6456       86.7136       8.743423       0.02280
   3     718.7       77.4190       17.4364       68.5367       85.9731       8.554137       0.02379
   2     792.3       76.8491       18.8628       66.3287       85.1915       8.342403       0.02428
   1     891.5       33.4234       41.6200        0.0001       41.6201       8.196679       0.01240
   0    1013.0       33.3851       41.4516        0.0001       41.4516       8.066486       0.00904



 Wavenumbers: 22650. - 29000. cm-1, ATM      1
 LEVEL PRESSURE   UPWARD FLUX   DIFDOWN FLUX  DIRDOWN FLUX  DOWNWARD FLUX   NET FLUX    HEATING RATE
          mb          W/m2          W/m2          W/m2        W/m2          W/m2       degree/day
  51    .06700       35.5112        0.0000       38.0063       38.0063       2.495089       0.00000
  50    .07753       35.5110        0.0004       38.0057       38.0061       2.495089       0.00000
  49    .09103       35.5108        0.0009       38.0050       38.0059       2.495089       0.00000
  48    0.1069       35.5106        0.0014       38.0042       38.0057       2.495089      -0.00000
  47    0.1255       35.5103        0.0021       38.0033       38.0054       2.495089       0.00000
  46    0.1487       35.5100        0.0029       38.0022       38.0051       2.495089       0.00000
  45    0.1794       35.5095        0.0040       38.0006       38.0046       2.495089      -0.00000
  44    0.2165       35.5090        0.0053       37.9987       38.0041       2.495089      -0.00000
  43    0.2613       35.5083        0.0069       37.9965       38.0034       2.495089       0.00000
  42    0.3336       35.5072        0.0095       37.9928       38.0023       2.495089       0.00000
  41    0.4307       35.5058        0.0129       37.9880       38.0009       2.495089       0.00000
  40    0.5894       35.5035        0.0185       37.9800       37.9985       2.495089      -0.00000
  39     1.339       35.4924        0.0450       37.9425       37.9875       2.495089       0.00000
  38     1.782       35.4859        0.0605       37.9204       37.9810       2.495089      -0.00000
  37     2.292       35.4783        0.0785       37.8949       37.9734       2.495089       0.00000
  36     2.964       35.4685        0.1021       37.8614       37.9635       2.495089       0.00000
  35     3.853       35.4554        0.1333       37.8172       37.9505       2.495089       0.00000
  34     5.035       35.4381        0.1746       37.7586       37.9332       2.495089      -0.00000
  33     6.613       35.4150        0.2298       37.6803       37.9101       2.495089      -0.00000
  32     8.786       35.3839        0.3040       37.5750       37.8790       2.495089       0.00000
  31     11.80       35.3396        0.4098       37.4249       37.8346       2.495089      -0.00000
  30     15.07       35.2921        0.5230       37.2642       37.7872       2.495089       0.00000
  29     18.79       35.2387        0.6505       37.0833       37.7338       2.495089       0.00000
  28     23.16       35.1765        0.7986       36.8730       37.6716       2.495089       0.00000
  27     28.12       35.1058        0.9671       36.6338       37.6009       2.495089       0.00000
  26     33.73       35.0271        1.1545       36.3677       37.5222       2.495089       0.00000
  25     40.54       34.9327        1.3792       36.0486       37.4278       2.495089      -0.00000
  24     48.69       34.8198        1.6477       35.6672       37.3149       2.495089       0.00000
  23     57.69       34.6970        1.9394       35.2527       37.1921       2.495089       0.00000
  22     68.43       34.5524        2.2826       34.7649       37.0475       2.495089      -0.00000
  21     81.20       34.3825        2.6854       34.1922       36.8776       2.495089      -0.00000
  20     96.49       34.1834        3.1567       33.5217       36.6785       2.495089       0.00000
  19     114.6       33.9516        3.7043       32.7424       36.4467       2.495089       0.00000
  18     136.5       33.6833        4.3368       31.8416       36.1784       2.495089       0.00000
  17     162.9       33.3726        5.0669       30.8008       35.8677       2.495089       0.00000
  16     196.4       32.9837        5.9781       29.5007       35.4787       2.495089       0.00000
  15     218.7       32.7365        6.5549       28.6767       35.2316       2.495089       0.00000
  14     243.0       32.4751        7.1634       27.8068       34.9701       2.495089       0.00000
  13     269.0       32.1999        7.8016       26.8933       34.6949       2.495089      -0.00000
  12     297.5       31.9117        8.4675       25.9393       34.4068       2.495089      -0.00000
  11     328.5       31.6105        9.1605       24.9451       34.1056       2.495089       0.00000
  10     361.9       31.2977        9.8768       23.9160       33.7928       2.495089       0.00000
   9     398.1       30.9738       10.6147       22.8541       33.4689       2.495089       0.00000
   8     437.6       30.6400       11.3706       21.7645       33.1351       2.495089       0.00000
   7     480.5       30.2976       12.1405       20.6521       32.7927       2.495089      -0.00000
   6     533.0       29.8966       13.0348       19.3569       32.3917       2.495089       0.00000
   5     589.8       29.4881       13.9365       18.0467       31.9832       2.495089       0.00000
   4     651.6       29.0748       14.8383       16.7316       31.5699       2.495089       0.00000
   3     718.7       28.6591       15.7328       15.4214       31.1542       2.495089       0.00000
   2     792.3       28.2441       16.6116       14.1276       30.7392       2.495089      -0.00000
   1     891.5       16.7230       19.2177        0.0000       19.2177       2.494731       0.00003
   0    1013.0       16.6366       19.1314        0.0000       19.1314       2.494731       0.00000



 Wavenumbers: 29000. - 38000. cm-1, ATM      1
 LEVEL PRESSURE   UPWARD FLUX   DIFDOWN FLUX  DIRDOWN FLUX  DOWNWARD FLUX   NET FLUX    HEATING RATE
          mb          W/m2          W/m2          W/m2        W/m2          W/m2       degree/day
  51    .06700        5.0606        0.0000       13.4026       13.4026       8.342041       0.00000
  50    .07753        5.0603        0.0003       13.3983       13.3986       8.338243       3.04456
  49    .09103        5.0601        0.0007       13.3921       13.3928       8.332723       3.44986
  48    0.1069        5.0598        0.0011       13.3840       13.3851       8.325346       3.92699
  47    0.1255        5.0594        0.0016       13.3733       13.3749       8.315501       4.46343
  46    0.1487        5.0590        0.0022       13.3579       13.3601       8.301057       5.26469
  45    0.1794        5.0584        0.0030       13.3340       13.3371       8.278656       6.14964
  44    0.2165        5.0578        0.0040       13.3024       13.3064       8.248636       6.82919
  43    0.2613        5.0570        0.0052       13.2604       13.2656       8.208578       7.55059
  42    0.3336        5.0558        0.0071       13.1833       13.1904       8.134567       8.62900
  41    0.4307        5.0543        0.0095       13.0729       13.0824       8.028187       9.24947
  40    0.5894        5.0519        0.0134       12.8796       12.8930       7.841129       9.94751
  39     1.339        5.0436        0.0298       11.9165       11.9463       6.902679      10.56525
  38     1.782        5.0404        0.0381       11.4399       11.4781       6.437603       8.85429
  37     2.292        5.0381        0.0471       10.9796       11.0267       5.988536       7.43772
  36     2.964        5.0370        0.0580       10.4786       10.5367       5.499689       6.13651
  35     3.853        5.0380        0.0716        9.9429       10.0145       4.976490       4.96526
  34     5.035        5.0420        0.0886        9.4007        9.4892       4.447249       3.78068
  33     6.613        5.0491        0.1100        8.8752        8.9853       3.936150       2.73234
  32     8.786        5.0588        0.1377        8.3786        8.5163       3.457492       1.85893
  31     11.80        5.0709        0.1758        7.8897        8.0655       2.994619       1.29590
  30     15.07        5.0814        0.2151        7.5108        7.7259       2.644513       0.90391
  29     18.79        5.0914        0.2579        7.1776        7.4355       2.344187       0.68093
  28     23.16        5.1007        0.3062        6.8664        7.1726       2.071879       0.52656
  27     28.12        5.1087        0.3595        6.5780        6.9375       1.828853       0.41313
  26     33.73        5.1128        0.4177        6.3195        6.7371       1.624393       0.30741
  25     40.54        5.1118        0.4863        6.0663        6.5526       1.440721       0.22787
  24     48.69        5.1054        0.5667        5.8128        6.3795       1.274138       0.17239
  23     57.69        5.0933        0.6526        5.5777        6.2303       1.137011       0.12854
  22     68.43        5.0733        0.7520        5.3379        6.0899       1.016593       0.09466
  21     81.20        5.0411        0.8674        5.0965        5.9639       0.922753       0.06201
  20     96.49        4.9956        1.0007        4.8476        5.8484       0.852791       0.03861
  19     114.6        4.9399        1.1519        4.5799        5.7318       0.791818       0.02847
  18     136.5        4.8754        1.3209        4.2891        5.6100       0.734588       0.02201
  17     162.9        4.8018        1.5085        3.9732        5.4817       0.679942       0.01747
  16     196.4        4.7084        1.7335        3.6080        5.3415       0.633140       0.01178
  15     218.7        4.6495        1.8706        3.3898        5.2604       0.610818       0.00847
  14     243.0        4.5885        2.0104        3.1686        5.1790       0.590542       0.00703
  13     269.0        4.5254        2.1520        2.9461        5.0981       0.572630       0.00581
  12     297.5        4.4609        2.2940        2.7239        5.0180       0.557107       0.00460
  11     328.5        4.3956        2.4352        2.5029        4.9381       0.542501       0.00397
  10     361.9        4.3302        2.5744        2.2846        4.8590       0.528833       0.00346
   9     398.1        4.2649        2.7103        2.0708        4.7810       0.516100       0.00297
   8     437.6        4.2003        2.8418        1.8626        4.7044       0.504031       0.00258
   7     480.5        4.1369        2.9676        1.6621        4.6297       0.492757       0.00221
   6     533.0        4.0662        3.1032        1.4437        4.5469       0.480671       0.00194
   5     589.8        3.9982        3.2284        1.2390        4.4673       0.469168       0.00171
   4     651.6        3.9334        3.3415        1.0500        4.3915       0.458093       0.00151
   3     718.7        3.8722        3.4418        0.8778        4.3196       0.447406       0.00134
   2     792.3        3.8149        3.5283        0.7237        4.2520       0.437088       0.00118
   1     891.5        2.2956        2.7230        0.0000        2.7230       0.427416       0.00082
   0    1013.0        2.2693        2.6884        0.0000        2.6884       0.419124       0.00058



 Wavenumbers: 38000. - 50000. cm-1, ATM      1
 LEVEL PRESSURE   UPWARD FLUX   DIFDOWN FLUX  DIRDOWN FLUX  DOWNWARD FLUX   NET FLUX    HEATING RATE
          mb          W/m2          W/m2          W/m2        W/m2          W/m2       degree/day
  51    .06700        0.0051        0.0000        0.8267        0.8267       0.821528       0.00000
  50    .07753        0.0051        0.0001        0.8242        0.8243       0.819196       1.86936
  49    .09103        0.0050        0.0002        0.8207        0.8209       0.815872       2.07705
  48    0.1069        0.0049        0.0002        0.8162        0.8164       0.811514       2.31984
  47    0.1255        0.0048        0.0004        0.8103        0.8106       0.805801       2.59006
  46    0.1487        0.0047        0.0005        0.8018        0.8023       0.797567       3.00143
  45    0.1794        0.0045        0.0007        0.7889        0.7896       0.785013       3.44648
  44    0.2165        0.0044        0.0009        0.7720        0.7729       0.768507       3.75474
  43    0.2613        0.0042        0.0011        0.7500        0.7511       0.746955       4.06246
  42    0.3336        0.0039        0.0015        0.7106        0.7121       0.708267       4.51071
  41    0.4307        0.0035        0.0019        0.6566        0.6584       0.654972       4.63387
  40    0.5894        0.0029        0.0024        0.5680        0.5704       0.567464       4.65357
  39     1.339        0.0015        0.0030        0.2422        0.2452       0.243720       3.64476
  38     1.782        0.0010        0.0026        0.1493        0.1519       0.150889       1.76735
  37     2.292        0.0007        0.0022        0.0924        0.0946       0.093932       0.94336
  36     2.964        0.0005        0.0018        0.0539        0.0557       0.055224       0.48589
  35     3.853        0.0003        0.0013        0.0295        0.0308       0.030502       0.23462
  34     5.035        0.0002        0.0010        0.0154        0.0164       0.016181       0.10230
  33     6.613        0.0001        0.0007        0.0073        0.0080       0.007912       0.04420
  32     8.786        0.0000        0.0004        0.0030        0.0034       0.003390       0.01756
  31     11.80        0.0000        0.0003        0.0010        0.0012       0.001199       0.00613
  30     15.07        0.0000        0.0001        0.0003        0.0005       0.000463       0.00190
  29     18.79        0.0000        0.0001        0.0001        0.0002       0.000182       0.00064
  28     23.16        0.0000        0.0000        0.0000        0.0001       0.000071       0.00022
  27     28.12        0.0000        0.0000        0.0000        0.0000       0.000028       0.00007
  26     33.73        0.0000        0.0000        0.0000        0.0000       0.000011       0.00002
  25     40.54        0.0000        0.0000        0.0000        0.0000       0.000005       0.00001
  24     48.69        0.0000        0.0000        0.0000        0.0000       0.000002       0.00000
  23     57.69        0.0000        0.0000        0.0000        0.0000       0.000001       0.00000
  22     68.43        0.0000        0.0000        0.0000        0.0000       0.000000       0.00000
  21     81.20        0.0000        0.0000        0.0000        0.0000       0.000000       0.00000
  20     96.49        0.0000        0.0000        0.0000        0.0000       0.000000       0.00000
  19     114.6        0.0000        0.0000        0.0000        0.0000       0.000000       0.00000
  18     136.5        0.0000        0.0000        0.0000        0.0000       0.000000       0.00000
  17     162.9        0.0000        0.0000        0.0000        0.0000       0.000000       0.00000
  16     196.4        0.0000        0.0000        0.0000        0.0000       0.000000       0.00000
  15     218.7        0.0000        0.0000        0.0000        0.0000       0.000000       0.00000
  14     243.0        0.0000        0.0000        0.0000        0.0000       0.000000       0.00000
  13     269.0        0.0000        0.0000        0.0000        0.0000       0.000000       0.00000
  12     297.5        0.0000        0.0000        0.0000        0.0000       0.000000       0.00000
  11     328.5        0.0000        0.0000        0.0000        0.0000       0.000000       0.00000
  10     361.9        0.0000        0.0000        0.0000        0.0000       0.000000       0.00000
   9     398.1        0.0000        0.0000        0.0000        0.0000       0.000000       0.00000
   8     437.6        0.0000        0.0000        0.0000        0.0000       0.000000       0.00000
   7     480.5        0.0000        0.0000        0.0000        0.0000       0.000000       0.00000
   6     533.0        0.0000        0.0000        0.0000        0.0000       0.000000       0.00000
   5     589.8        0.0000        0.0000        0.0000        0.0000       0.000000       0.00000
   4     651.6        0.0000        0.0000        0.0000        0.0000       0.000000       0.00000
   3     718.7        0.0000        0.0000        0.0000        0.0000       0.000000       0.00000
   2     792.3        0.0000        0.0000        0.0000        0.0000       0.000000       0.00000
   1     891.5        0.0000        0.0000        0.0000        0.0000       0.000000       0.00000
   0    1013.0        0.0000        0.0000        0.0000        0.0000       0.000000       0.00000



 Wavenumbers:   820. -  2600. cm-1, ATM      1
 LEVEL PRESSURE   UPWARD FLUX   DIFDOWN FLUX  DIRDOWN FLUX  DOWNWARD FLUX   NET FLUX    HEATING RATE
          mb          W/m2          W/m2          W/m2        W/m2          W/m2       degree/day
  51    .06700        0.7775        0.0000        3.8670        3.8670       3.089470       0.00000
  50    .07753        0.7775        0.0000        3.8643        3.8643       3.086753       2.17771
  49    .09103        0.7775        0.0000        3.8635        3.8635       3.085943       0.50639
  48    0.1069        0.7775        0.0000        3.8626        3.8626       3.085052       0.47416
  47    0.1255        0.7775        0.0000        3.8616        3.8616       3.084091       0.43561
  46    0.1487        0.7775        0.0000        3.8605        3.8605       3.082982       0.40439
  45    0.1794        0.7775        0.0000        3.8592        3.8592       3.081647       0.36649
  44    0.2165        0.7775        0.0000        3.8578        3.8578       3.080269       0.31348
  43    0.2613        0.7775        0.0000        3.8564        3.8564       3.078809       0.27524
  42    0.3336        0.7775        0.0000        3.8541        3.8541       3.076577       0.26014
  41    0.4307        0.7775        0.0000        3.8512        3.8512       3.073695       0.25065
  40    0.5894        0.7776        0.0000        3.8465        3.8465       3.068968       0.25136
  39     1.339        0.7776        0.0000        3.8251        3.8251       3.047591       0.24067
  38     1.782        0.7776        0.0000        3.8133        3.8133       3.035777       0.22492
  37     2.292        0.7776        0.0000        3.8003        3.8003       3.022714       0.21635
  36     2.964        0.7776        0.0000        3.7841        3.7841       3.006584       0.20249
  35     3.853        0.7776        0.0000        3.7642        3.7642       2.986667       0.18902
  34     5.035        0.7776        0.0000        3.7395        3.7395       2.961973       0.17640
  33     6.613        0.7776        0.0000        3.7090        3.7090       2.931433       0.16327
  32     8.786        0.7776        0.0000        3.6726        3.6726       2.895034       0.14136
  31     11.80        0.7776        0.0000        3.6320        3.6320       2.854431       0.11368
  30     15.07        0.7776        0.0000        3.6016        3.6016       2.824038       0.07847
  29     18.79        0.7776        0.0000        3.5777        3.5777       2.800129       0.05421
  28     23.16        0.7776        0.0000        3.5564        3.5564       2.778763       0.04132
  27     28.12        0.7776        0.0000        3.5348        3.5348       2.757201       0.03665
  26     33.73        0.7777        0.0000        3.5118        3.5118       2.734151       0.03466
  25     40.54        0.7777        0.0000        3.4849        3.4849       2.707242       0.03338
  24     48.69        0.7777        0.0000        3.4537        3.4537       2.675964       0.03237
  23     57.69        0.7778        0.0000        3.4210        3.4210       2.643262       0.03065
  22     68.43        0.7778        0.0000        3.3844        3.3844       2.606642       0.02879
  21     81.20        0.7778        0.0000        3.3441        3.3441       2.566302       0.02666
  20     96.49        0.7779        0.0000        3.2998        3.2998       2.521886       0.02451
  19     114.6        0.7780        0.0000        3.2506        3.2507       2.472675       0.02298
  18     136.5        0.7781        0.0000        3.1936        3.1936       2.415536       0.02197
  17     162.9        0.7783        0.0000        3.1181        3.1181       2.339879       0.02418
  16     196.4        0.7786        0.0000        3.0090        3.0090       2.230395       0.02756
  15     218.7        0.7788        0.0000        2.9420        2.9420       2.163172       0.02552
  14     243.0        0.7792        0.0000        2.8605        2.8605       2.081288       0.02840
  13     269.0        0.7798        0.0000        2.7419        2.7420       1.962168       0.03864
  12     297.5        0.7808        0.0000        2.5729        2.5729       1.792074       0.05045
  11     328.5        0.7824        0.0000        2.3602        2.3602       1.577791       0.05826
  10     361.9        0.7848        0.0000        2.1524        2.1524       1.367593       0.05318
   9     398.1        0.7883        0.0000        1.9974        1.9974       1.209146       0.03691
   8     437.6        0.7931        0.0000        1.8835        1.8835       1.090446       0.02538
   7     480.5        0.7999        0.0000        1.7734        1.7734       0.973535       0.02296
   6     533.0        0.8111        0.0000        1.6397        1.6398       0.828666       0.02330
   5     589.8        0.8271        0.0000        1.5068        1.5069       0.679734       0.02211
   4     651.6        0.8508        0.0000        1.3807        1.3807       0.529937       0.02049
   3     718.7        0.8824        0.0000        1.2680        1.2681       0.385619       0.01814
   2     792.3        0.9222        0.0000        1.1659        1.1660       0.243833       0.01626
   1     891.5        0.0112        0.1936        0.0000        0.1936       0.182409       0.00523
   0    1013.0        0.0124        0.1746        0.0000        0.1746       0.162276       0.00140

  Modules and versions used in this calculation:

       rrtmg_sw.1col.f90:  $Revision$                    rrtmg_sw_init.f90:  $Revision$        
     rrtmgsw_cldprop.f90:  $Revision$                  rrtmgsw_cldprmc.f90:  NOT USED          
     rrtmg_sw_reftra.f90:  $Revision$                  rrtmg_sw_spcvrt.f90:  NOT USED          
     rrtmg_sw_spcvmc.f90:  NOT USED                    rrtmgsw_setcoef.f90:  NOT USED          
     rrtmg_sw_taumol.f90:  $Revision$                  rrtmg_sw_vrtqdr.f90:  NOT USED          
                rrtatm.f:  NOT USED                             util_xxx.f:  NOT USED          
                 extra.f:  NOT USED                       rrtmg_sw_k_g.f90:  $Revision$        

