

 Wavenumbers:   820. - 50000. cm-1, ATM      1
 LEVEL PRESSURE   UPWARD FLUX   DIFDOWN FLUX  DIRDOWN FLUX  DOWNWARD FLUX   NET FLUX    HEATING RATE
          mb          W/m2          W/m2          W/m2        W/m2          W/m2       degree/day
  51    .06700      272.9399        0.0000      397.8738      397.8738     124.933906       0.00000
  50    .07753      272.9393        0.0012      397.8577      397.8589     124.919613      11.45652
  49    .09103      272.9386        0.0027      397.8418      397.8445     124.905921       8.55776
  48    0.1069      272.9378        0.0044      397.8230      397.8273     124.889569       8.70434
  47    0.1255      272.9369        0.0063      397.7997      397.8060     124.869121       9.27017
  46    0.1487      272.9357        0.0088      397.7676      397.7764     124.840656      10.37581
  45    0.1794      272.9343        0.0121      397.7205      397.7326     124.798352      11.61326
  44    0.2165      272.9326        0.0161      397.6602      397.6763     124.743689      12.43486
  43    0.2613      272.9308        0.0208      397.5829      397.6037     124.672873      13.34853
  42    0.3336      272.9279        0.0284      397.4449      397.4733     124.545399      14.86221
  41    0.4307      272.9244        0.0385      397.2524      397.2909     124.366479      15.55674
  40    0.5894      272.9193        0.0547      396.9253      396.9800     124.060666      16.26274
  39     1.339      272.9072        0.1271      395.4254      395.5525     122.645261      15.93489
  38     1.782      272.9081        0.1677      394.7288      394.8965     121.988457      12.50449
  37     2.292      272.9161        0.2140      394.0572      394.2712     121.355087      10.49025
  36     2.964      272.9370        0.2740      393.3007      393.5747     120.637707       9.00529
  35     3.853      272.9792        0.3525      392.4318      392.7843     119.805142       7.90119
  34     5.035      273.0496        0.4558      391.4441      391.8999     118.850317       6.82088
  33     6.613      273.1515        0.5927      390.3268      390.9195     117.767923       5.78648
  32     8.786      273.2831        0.7758      389.0624      389.8382     116.555088       4.71021
  31     11.80      273.4467        1.0356      387.5500      388.5856     115.138873       3.96496
  30     15.07      273.5937        1.3123      386.1556      387.4679     113.874265       3.26497
  29     18.79      273.7341        1.6225      384.7502      386.3727     112.638619       2.80159
  28     23.16      273.8686        1.9819      383.2686      385.2506     111.381979       2.42993
  27     28.12      273.9879        2.3897      381.7329      384.1226     110.134645       2.12038
  26     33.73      274.0710        2.8427      380.1982      383.0409     108.969900       1.75123
  25     40.54      274.1128        3.3861      378.5384      381.9245     107.811624       1.43697
  24     48.69      274.1073        4.0355      376.7214      380.7569     106.649621       1.20249
  23     57.69      274.0475        4.7422      374.8959      379.6381     105.590594       0.99268
  22     68.43      273.9187        5.5756      372.8999      378.4755     104.556759       0.81273
  21     81.20      273.6857        6.5580      370.7496      377.3076     103.621896       0.61774
  20     96.49      273.3363        7.7141      368.4056      376.1197     102.783381       0.46280
  19     114.6      272.8985        9.0649      365.7513      374.8162     101.917700       0.40421
  18     136.5      272.3641       10.6344      362.7231      373.3575     100.993377       0.35542
  17     162.9      271.7198       12.4597      359.1748      371.6344      99.914651       0.34480
  16     196.4      270.8557       14.7623      354.5718      369.3341      98.478429       0.36151
  15     218.7      270.2843       16.2359      351.4437      367.6796      97.395288       0.41123
  14     243.0      269.6690       17.8039      347.7111      365.5151      95.846090       0.53731
  13     269.0      269.0127       19.4648      342.9441      362.4090      93.396224       0.79473
  12     297.5      268.3198       21.2165      337.4137      358.6302      90.310373       0.91523
  11     328.5      267.5996       23.0607      331.1302      354.1909      86.591386       1.01118
  10     361.9      266.8625       24.9921      324.1219      349.1141      82.251596       1.09801
   9     398.1      266.1199       27.0104      316.6066      343.6170      77.497124       1.10769
   8     437.6      265.3947       29.1110      308.5895      337.7005      72.305821       1.10993
   7     480.5      264.7288       31.2883      299.9349      331.2232      66.494439       1.14133
   6     533.0      264.0913       33.8697      289.7021      323.5718      59.480485       1.12832
   5     589.8      263.6676       36.5369      279.3388      315.8757      52.208095       1.07946
   4     651.6      263.6030       39.2780      268.7786      308.0566      44.453625       1.06044
   3     718.7      264.0218       42.0843      258.2837      300.3680      36.346166       1.01888
   2     792.3      265.0877       44.9420      248.0774      293.0194      27.931756       0.96504
   1     891.5       42.1938       66.9108        0.0000       66.9108      24.716905       0.27357
   0    1013.0       42.1749       66.0752        0.0000       66.0752      23.900293       0.05670



 Wavenumbers:  2600. -  3250. cm-1, ATM      1
 LEVEL PRESSURE   UPWARD FLUX   DIFDOWN FLUX  DIRDOWN FLUX  DOWNWARD FLUX   NET FLUX    HEATING RATE
          mb          W/m2          W/m2          W/m2        W/m2          W/m2       degree/day
  51    .06700        1.1446        0.0000        3.5066        3.5066       2.362026       0.00000
  50    .07753        1.1446        0.0000        3.5066        3.5066       2.362018       0.00640
  49    .09103        1.1446        0.0000        3.5066        3.5066       2.362008       0.00627
  48    0.1069        1.1446        0.0000        3.5066        3.5066       2.361996       0.00613
  47    0.1255        1.1446        0.0000        3.5066        3.5066       2.361983       0.00599
  46    0.1487        1.1446        0.0000        3.5066        3.5066       2.361966       0.00607
  45    0.1794        1.1446        0.0000        3.5065        3.5065       2.361943       0.00624
  44    0.2165        1.1446        0.0000        3.5065        3.5065       2.361917       0.00611
  43    0.2613        1.1446        0.0000        3.5065        3.5065       2.361885       0.00598
  42    0.3336        1.1446        0.0000        3.5064        3.5064       2.361832       0.00615
  41    0.4307        1.1446        0.0000        3.5064        3.5064       2.361761       0.00618
  40    0.5894        1.1446        0.0000        3.5062        3.5062       2.361642       0.00633
  39     1.339        1.1446        0.0000        3.5055        3.5055       2.360943       0.00787
  38     1.782        1.1446        0.0000        3.5050        3.5050       2.360412       0.01011
  37     2.292        1.1446        0.0000        3.5043        3.5043       2.359720       0.01147
  36     2.964        1.1446        0.0000        3.5033        3.5033       2.358728       0.01245
  35     3.853        1.1446        0.0000        3.5019        3.5019       2.357351       0.01307
  34     5.035        1.1446        0.0000        3.5001        3.5001       2.355490       0.01329
  33     6.613        1.1446        0.0000        3.4977        3.4977       2.353080       0.01288
  32     8.786        1.1446        0.0000        3.4947        3.4947       2.350109       0.01154
  31     11.80        1.1446        0.0000        3.4911        3.4911       2.346473       0.01018
  30     15.07        1.1446        0.0000        3.4878        3.4878       2.343251       0.00832
  29     18.79        1.1446        0.0000        3.4848        3.4848       2.340186       0.00695
  28     23.16        1.1446        0.0000        3.4816        3.4816       2.336963       0.00623
  27     28.12        1.1446        0.0000        3.4779        3.4779       2.333342       0.00616
  26     33.73        1.1446        0.0000        3.4735        3.4735       2.328870       0.00672
  25     40.54        1.1446        0.0000        3.4671        3.4672       2.322536       0.00786
  24     48.69        1.1446        0.0000        3.4582        3.4583       2.313629       0.00922
  23     57.69        1.1446        0.0000        3.4472        3.4472       2.302564       0.01037
  22     68.43        1.1447        0.0000        3.4329        3.4330       2.288280       0.01123
  21     81.20        1.1447        0.0000        3.4152        3.4152       2.270515       0.01174
  20     96.49        1.1448        0.0000        3.3940        3.3941       2.249320       0.01170
  19     114.6        1.1448        0.0000        3.3692        3.3692       2.224360       0.01165
  18     136.5        1.1450        0.0001        3.3419        3.3420       2.197039       0.01051
  17     162.9        1.1451        0.0001        3.3129        3.3129       2.167809       0.00934
  16     196.4        1.1455        0.0001        3.2793        3.2794       2.133953       0.00852
  15     218.7        1.1458        0.0001        3.2578        3.2579       2.112061       0.00831
  14     243.0        1.1463        0.0001        3.2320        3.2321       2.085757       0.00912
  13     269.0        1.1471        0.0001        3.1968        3.1969       2.049806       0.01166
  12     297.5        1.1484        0.0001        3.1489        3.1491       2.000640       0.01458
  11     328.5        1.1504        0.0001        3.0821        3.0822       1.931811       0.01871
  10     361.9        1.1533        0.0001        2.9902        2.9904       1.837110       0.02396
   9     398.1        1.1574        0.0001        2.8715        2.8716       1.714193       0.02864
   8     437.6        1.1635        0.0002        2.7276        2.7278       1.564329       0.03204
   7     480.5        1.1726        0.0002        2.5595        2.5597       1.387114       0.03480
   6     533.0        1.1880        0.0002        2.3617        2.3619       1.173950       0.03429
   5     589.8        1.2107        0.0002        2.1649        2.1651       0.954429       0.03258
   4     651.6        1.2446        0.0002        1.9608        1.9609       0.716321       0.03256
   3     718.7        1.2935        0.0002        1.7593        1.7595       0.466024       0.03146
   2     792.3        1.3623        0.0002        1.5761        1.5762       0.213931       0.02891
   1     891.5        0.0339        0.1609        0.0000        0.1609       0.126999       0.00740
   0    1013.0        0.0368        0.1466        0.0000        0.1466       0.109851       0.00119



 Wavenumbers:  3250. -  4000. cm-1, ATM      1
 LEVEL PRESSURE   UPWARD FLUX   DIFDOWN FLUX  DIRDOWN FLUX  DOWNWARD FLUX   NET FLUX    HEATING RATE
          mb          W/m2          W/m2          W/m2        W/m2          W/m2       degree/day
  51    .06700        0.0103        0.0000        5.9117        5.9117       5.901362       0.00000
  50    .07753        0.0103        0.0000        5.9075        5.9075       5.897173       3.35808
  49    .09103        0.0103        0.0000        5.9050        5.9050       5.894730       1.52677
  48    0.1069        0.0103        0.0000        5.9032        5.9032       5.892864       0.99346
  47    0.1255        0.0103        0.0000        5.9014        5.9014       5.891105       0.79708
  46    0.1487        0.0103        0.0000        5.8995        5.8995       5.889217       0.68848
  45    0.1794        0.0103        0.0000        5.8974        5.8974       5.887068       0.58983
  44    0.2165        0.0103        0.0000        5.8952        5.8952       5.884951       0.48155
  43    0.2613        0.0103        0.0000        5.8931        5.8931       5.882792       0.40696
  42    0.3336        0.0103        0.0000        5.8899        5.8899       5.879634       0.36820
  41    0.4307        0.0103        0.0000        5.8861        5.8861       5.875797       0.33365
  40    0.5894        0.0103        0.0000        5.8803        5.8803       5.869994       0.30857
  39     1.339        0.0103        0.0000        5.8597        5.8597       5.849397       0.23189
  38     1.782        0.0103        0.0000        5.8513        5.8513       5.840972       0.16039
  37     2.292        0.0103        0.0000        5.8431        5.8431       5.832801       0.13533
  36     2.964        0.0103        0.0000        5.8334        5.8334       5.823162       0.12100
  35     3.853        0.0103        0.0000        5.8213        5.8213       5.810986       0.11555
  34     5.035        0.0103        0.0000        5.8052        5.8052       5.794891       0.11498
  33     6.613        0.0103        0.0000        5.7833        5.7834       5.773070       0.11666
  32     8.786        0.0103        0.0000        5.7531        5.7531       5.742868       0.11729
  31     11.80        0.0103        0.0000        5.7090        5.7090       5.698699       0.12366
  30     15.07        0.0103        0.0000        5.6615        5.6615       5.651235       0.12254
  29     18.79        0.0103        0.0000        5.6093        5.6094       5.599099       0.11821
  28     23.16        0.0103        0.0000        5.5524        5.5524       5.542173       0.11008
  27     28.12        0.0103        0.0000        5.4935        5.4935       5.483294       0.10009
  26     33.73        0.0102        0.0000        5.4348        5.4349       5.424605       0.08824
  25     40.54        0.0102        0.0001        5.3707        5.3708       5.360544       0.07948
  24     48.69        0.0102        0.0001        5.2985        5.2985       5.288311       0.07475
  23     57.69        0.0102        0.0001        5.2215        5.2216       5.211372       0.07212
  22     68.43        0.0102        0.0001        5.1318        5.1319       5.121712       0.07048
  21     81.20        0.0102        0.0001        5.0284        5.0285       5.018282       0.06834
  20     96.49        0.0102        0.0001        4.9122        4.9123       4.902148       0.06410
  19     114.6        0.0101        0.0001        4.7780        4.7782       4.768037       0.06262
  18     136.5        0.0101        0.0002        4.6285        4.6287       4.618558       0.05748
  17     162.9        0.0101        0.0002        4.4406        4.4407       4.430646       0.06006
  16     196.4        0.0101        0.0002        4.1548        4.1550       4.144971       0.07191
  15     218.7        0.0100        0.0002        3.9564        3.9566       3.946588       0.07532
  14     243.0        0.0100        0.0002        3.7055        3.7058       3.695748       0.08700
  13     269.0        0.0100        0.0002        3.3399        3.3401       3.330096       0.11862
  12     297.5        0.0100        0.0002        2.8954        2.8956       2.885578       0.13184
  11     328.5        0.0101        0.0002        2.4388        2.4390       2.428980       0.12415
  10     361.9        0.0102        0.0002        2.0269        2.0271       2.016936       0.10425
   9     398.1        0.0103        0.0002        1.6753        1.6755       1.665164       0.08195
   8     437.6        0.0106        0.0002        1.3592        1.3594       1.348726       0.06766
   7     480.5        0.0112        0.0002        1.0616        1.0618       1.050562       0.05856
   6     533.0        0.0124        0.0001        0.7543        0.7544       0.742033       0.04963
   5     589.8        0.0146        0.0001        0.4951        0.4952       0.480637       0.03880
   4     651.6        0.0189        0.0001        0.2943        0.2943       0.275447       0.02806
   3     718.7        0.0274        0.0001        0.1528        0.1529       0.125503       0.01884
   2     792.3        0.0447        0.0000        0.0658        0.0658       0.021153       0.01197
   1     891.5        0.0000        0.0011        0.0000        0.0011       0.001109       0.00171
   0    1013.0        0.0001        0.0003        0.0000        0.0003       0.000200       0.00006



 Wavenumbers:  4000. -  4650. cm-1, ATM      1
 LEVEL PRESSURE   UPWARD FLUX   DIFDOWN FLUX  DIRDOWN FLUX  DOWNWARD FLUX   NET FLUX    HEATING RATE
          mb          W/m2          W/m2          W/m2        W/m2          W/m2       degree/day
  51    .06700        4.0573        0.0000        6.9421        6.9421       2.884735       0.00000
  50    .07753        4.0573        0.0000        6.9421        6.9421       2.884734       0.00079
  49    .09103        4.0573        0.0000        6.9421        6.9421       2.884733       0.00078
  48    0.1069        4.0573        0.0000        6.9421        6.9421       2.884731       0.00076
  47    0.1255        4.0573        0.0000        6.9421        6.9421       2.884729       0.00074
  46    0.1487        4.0573        0.0000        6.9421        6.9421       2.884727       0.00075
  45    0.1794        4.0573        0.0000        6.9421        6.9421       2.884725       0.00077
  44    0.2165        4.0573        0.0000        6.9421        6.9421       2.884721       0.00076
  43    0.2613        4.0573        0.0000        6.9420        6.9420       2.884717       0.00074
  42    0.3336        4.0573        0.0000        6.9420        6.9420       2.884711       0.00076
  41    0.4307        4.0573        0.0000        6.9420        6.9420       2.884702       0.00077
  40    0.5894        4.0573        0.0000        6.9420        6.9420       2.884687       0.00079
  39     1.339        4.0573        0.0000        6.9419        6.9419       2.884598       0.00100
  38     1.782        4.0573        0.0000        6.9418        6.9419       2.884529       0.00132
  37     2.292        4.0573        0.0000        6.9418        6.9418       2.884435       0.00155
  36     2.964        4.0573        0.0000        6.9416        6.9416       2.884296       0.00175
  35     3.853        4.0573        0.0000        6.9414        6.9414       2.884089       0.00196
  34     5.035        4.0573        0.0000        6.9411        6.9411       2.883784       0.00218
  33     6.613        4.0573        0.0000        6.9406        6.9407       2.883336       0.00240
  32     8.786        4.0573        0.0000        6.9399        6.9400       2.882675       0.00257
  31     11.80        4.0573        0.0001        6.9389        6.9389       2.881639       0.00290
  30     15.07        4.0573        0.0001        6.9377        6.9377       2.880426       0.00313
  29     18.79        4.0573        0.0001        6.9362        6.9363       2.878964       0.00331
  28     23.16        4.0573        0.0001        6.9343        6.9344       2.877155       0.00350
  27     28.12        4.0573        0.0001        6.9321        6.9323       2.874974       0.00371
  26     33.73        4.0573        0.0001        6.9294        6.9296       2.872296       0.00403
  25     40.54        4.0573        0.0002        6.9258        6.9260       2.868682       0.00448
  24     48.69        4.0573        0.0002        6.9210        6.9212       2.863894       0.00495
  23     57.69        4.0574        0.0003        6.9154        6.9156       2.858255       0.00529
  22     68.43        4.0574        0.0003        6.9083        6.9086       2.851237       0.00552
  21     81.20        4.0575        0.0004        6.8998        6.9001       2.842642       0.00568
  20     96.49        4.0576        0.0004        6.8894        6.8899       2.832243       0.00574
  19     114.6        4.0578        0.0005        6.8765        6.8770       2.819194       0.00609
  18     136.5        4.0582        0.0006        6.8610        6.8616       2.803411       0.00607
  17     162.9        4.0587        0.0007        6.8417        6.8424       2.783705       0.00630
  16     196.4        4.0596        0.0009        6.8147        6.8155       2.755940       0.00699
  15     218.7        4.0604        0.0010        6.7948        6.7958       2.735404       0.00780
  14     243.0        4.0616        0.0011        6.7698        6.7708       2.709264       0.00907
  13     269.0        4.0635        0.0012        6.7349        6.7360       2.672555       0.01191
  12     297.5        4.0663        0.0013        6.6869        6.6881       2.621840       0.01504
  11     328.5        4.0703        0.0014        6.6194        6.6208       2.550453       0.01941
  10     361.9        4.0757        0.0015        6.5295        6.5310       2.455345       0.02406
   9     398.1        4.0827        0.0017        6.4202        6.4219       2.339190       0.02706
   8     437.6        4.0922        0.0018        6.2962        6.2980       2.205833       0.02851
   7     480.5        4.1054        0.0020        6.1555        6.1575       2.052103       0.03019
   6     533.0        4.1270        0.0021        5.9675        5.9697       1.842620       0.03370
   5     589.8        4.1591        0.0023        5.7368        5.7391       1.579952       0.03899
   4     651.6        4.2071        0.0025        5.4662        5.4687       1.261567       0.04354
   3     718.7        4.2761        0.0026        5.1912        5.1938       0.917760       0.04321
   2     792.3        4.3721        0.0028        4.9395        4.9423       0.570197       0.03986
   1     891.5        0.1349        0.5796        0.0000        0.5796       0.444715       0.01068
   0    1013.0        0.1396        0.5570        0.0000        0.5570       0.417356       0.00190



 Wavenumbers:  4650. -  5150. cm-1, ATM      1
 LEVEL PRESSURE   UPWARD FLUX   DIFDOWN FLUX  DIRDOWN FLUX  DOWNWARD FLUX   NET FLUX    HEATING RATE
          mb          W/m2          W/m2          W/m2        W/m2          W/m2       degree/day
  51    .06700        2.8470        0.0000        6.5710        6.5710       3.724036       0.00000
  50    .07753        2.8470        0.0000        6.5708        6.5708       3.723801       0.18887
  49    .09103        2.8470        0.0000        6.5705        6.5705       3.723507       0.18362
  48    0.1069        2.8470        0.0000        6.5701        6.5701       3.723172       0.17806
  47    0.1255        2.8470        0.0000        6.5697        6.5697       3.722792       0.17238
  46    0.1487        2.8470        0.0000        6.5693        6.5693       3.722318       0.17268
  45    0.1794        2.8470        0.0000        6.5686        6.5686       3.721682       0.17474
  44    0.2165        2.8470        0.0000        6.5679        6.5679       3.720944       0.16788
  43    0.2613        2.8470        0.0000        6.5670        6.5670       3.720091       0.16078
  42    0.3336        2.8470        0.0000        6.5657        6.5657       3.718728       0.15894
  41    0.4307        2.8470        0.0000        6.5640        6.5640       3.717006       0.14971
  40    0.5894        2.8470        0.0000        6.5613        6.5613       3.714390       0.13913
  39     1.339        2.8470        0.0000        6.5516        6.5516       3.704612       0.11008
  38     1.782        2.8470        0.0000        6.5473        6.5473       3.700395       0.08027
  37     2.292        2.8469        0.0000        6.5434        6.5435       3.696508       0.06439
  36     2.964        2.8469        0.0000        6.5395        6.5395       3.692553       0.04965
  35     3.853        2.8469        0.0000        6.5355        6.5356       3.688609       0.03743
  34     5.035        2.8469        0.0000        6.5315        6.5315       3.684604       0.02861
  33     6.613        2.8469        0.0000        6.5271        6.5271       3.680207       0.02351
  32     8.786        2.8469        0.0001        6.5216        6.5216       3.674705       0.02137
  31     11.80        2.8469        0.0001        6.5135        6.5136       3.666615       0.02265
  30     15.07        2.8469        0.0001        6.5041        6.5042       3.657230       0.02423
  29     18.79        2.8470        0.0001        6.4925        6.4926       3.645692       0.02616
  28     23.16        2.8470        0.0002        6.4779        6.4780       3.631069       0.02828
  27     28.12        2.8470        0.0002        6.4599        6.4601       3.613051       0.03063
  26     33.73        2.8471        0.0002        6.4384        6.4386       3.591563       0.03231
  25     40.54        2.8471        0.0003        6.4112        6.4115       3.564358       0.03375
  24     48.69        2.8472        0.0003        6.3775        6.3778       3.530608       0.03493
  23     57.69        2.8474        0.0004        6.3404        6.3407       3.493373       0.03490
  22     68.43        2.8476        0.0004        6.2971        6.2976       3.449986       0.03411
  21     81.20        2.8479        0.0005        6.2483        6.2488       3.400899       0.03244
  20     96.49        2.8483        0.0006        6.1948        6.1954       3.347153       0.02966
  19     114.6        2.8489        0.0007        6.1381        6.1389       3.290004       0.02668
  18     136.5        2.8497        0.0008        6.0790        6.0798       3.230189       0.02300
  17     162.9        2.8508        0.0010        6.0160        6.0170       3.166247       0.02044
  16     196.4        2.8526        0.0012        5.9399        5.9411       3.088485       0.01957
  15     218.7        2.8540        0.0013        5.8896        5.8910       3.036953       0.01957
  14     243.0        2.8559        0.0015        5.8322        5.8336       2.977769       0.02053
  13     269.0        2.8585        0.0016        5.7624        5.7640       2.905465       0.02345
  12     297.5        2.8623        0.0018        5.6767        5.6785       2.816167       0.02648
  11     328.5        2.8675        0.0019        5.5726        5.5745       2.707039       0.02967
  10     361.9        2.8744        0.0021        5.4473        5.4494       2.574975       0.03341
   9     398.1        2.8838        0.0022        5.2995        5.3017       2.417962       0.03658
   8     437.6        2.8963        0.0024        5.1275        5.1299       2.233578       0.03942
   7     480.5        2.9134        0.0026        4.9290        4.9315       2.018117       0.04232
   6     533.0        2.9406        0.0028        4.6794        4.6821       1.741568       0.04449
   5     589.8        2.9786        0.0029        4.4188        4.4217       1.443075       0.04431
   4     651.6        3.0329        0.0031        4.1521        4.1552       1.122329       0.04386
   3     718.7        3.1071        0.0033        3.8929        3.8962       0.789067       0.04188
   2     792.3        3.2072        0.0034        3.6469        3.6503       0.443118       0.03968
   1     891.5        0.0933        0.4108        0.0000        0.4108       0.317543       0.01069
   0    1013.0        0.0977        0.3897        0.0000        0.3897       0.291994       0.00177



 Wavenumbers:  5150. -  6150. cm-1, ATM      1
 LEVEL PRESSURE   UPWARD FLUX   DIFDOWN FLUX  DIRDOWN FLUX  DOWNWARD FLUX   NET FLUX    HEATING RATE
          mb          W/m2          W/m2          W/m2        W/m2          W/m2       degree/day
  51    .06700        7.0182        0.0000       16.4735       16.4735       9.455260       0.00000
  50    .07753        7.0182        0.0000       16.4735       16.4735       9.455225       0.02764
  49    .09103        7.0182        0.0000       16.4734       16.4734       9.455180       0.02814
  48    0.1069        7.0182        0.0000       16.4734       16.4734       9.455126       0.02862
  47    0.1255        7.0182        0.0000       16.4733       16.4733       9.455062       0.02907
  46    0.1487        7.0182        0.0000       16.4732       16.4732       9.454978       0.03063
  45    0.1794        7.0182        0.0000       16.4731       16.4731       9.454859       0.03272
  44    0.2165        7.0182        0.0000       16.4730       16.4730       9.454712       0.03334
  43    0.2613        7.0182        0.0000       16.4728       16.4728       9.454533       0.03379
  42    0.3336        7.0182        0.0000       16.4725       16.4725       9.454227       0.03567
  41    0.4307        7.0182        0.0000       16.4720       16.4720       9.453808       0.03648
  40    0.5894        7.0182        0.0000       16.4713       16.4713       9.453106       0.03732
  39     1.339        7.0182        0.0000       16.4679       16.4679       9.449693       0.03842
  38     1.782        7.0182        0.0001       16.4659       16.4659       9.447691       0.03812
  37     2.292        7.0182        0.0001       16.4635       16.4636       9.445396       0.03802
  36     2.964        7.0182        0.0001       16.4605       16.4606       9.442421       0.03735
  35     3.853        7.0182        0.0001       16.4567       16.4568       9.438559       0.03665
  34     5.035        7.0182        0.0001       16.4516       16.4517       9.433549       0.03579
  33     6.613        7.0182        0.0002       16.4451       16.4453       9.427070       0.03464
  32     8.786        7.0182        0.0003       16.4367       16.4369       9.418731       0.03239
  31     11.80        7.0182        0.0003       16.4254       16.4257       9.407536       0.03134
  30     15.07        7.0182        0.0004       16.4141       16.4146       9.396398       0.02876
  29     18.79        7.0182        0.0006       16.4024       16.4030       9.384815       0.02626
  28     23.16        7.0182        0.0007       16.3900       16.3907       9.372477       0.02386
  27     28.12        7.0182        0.0008       16.3771       16.3779       9.359719       0.02169
  26     33.73        7.0182        0.0010       16.3641       16.3651       9.346875       0.01931
  25     40.54        7.0183        0.0012       16.3502       16.3514       9.333075       0.01712
  24     48.69        7.0184        0.0014       16.3354       16.3368       9.318387       0.01520
  23     57.69        7.0185        0.0017       16.3211       16.3228       9.304230       0.01327
  22     68.43        7.0187        0.0020       16.3062       16.3082       9.289515       0.01157
  21     81.20        7.0190        0.0024       16.2903       16.2927       9.273715       0.01044
  20     96.49        7.0193        0.0028       16.2726       16.2754       9.256138       0.00970
  19     114.6        7.0197        0.0033       16.2521       16.2554       9.235707       0.00954
  18     136.5        7.0202        0.0040       16.2245       16.2285       9.208288       0.01054
  17     162.9        7.0209        0.0047       16.1747       16.1794       9.158560       0.01590
  16     196.4        7.0219        0.0057       16.0518       16.0575       9.035650       0.03094
  15     218.7        7.0226        0.0063       15.8984       15.9046       8.882090       0.05830
  14     243.0        7.0234        0.0069       15.6153       15.6221       8.598698       0.09829
  13     269.0        7.0247        0.0075       15.1390       15.1465       8.121778       0.15471
  12     297.5        7.0265        0.0080       14.5779       14.5859       7.559456       0.16678
  11     328.5        7.0291        0.0086       13.8780       13.8866       6.857480       0.19087
  10     361.9        7.0331        0.0091       13.0814       13.0905       6.057481       0.20241
   9     398.1        7.0387        0.0096       12.2728       12.2824       5.243657       0.18960
   8     437.6        7.0472        0.0100       11.4776       11.4876       4.440399       0.17174
   7     480.5        7.0601        0.0104       10.7300       10.7404       3.680241       0.14929
   6     533.0        7.0833        0.0109       10.0326       10.0435       2.960178       0.11584
   5     589.8        7.1204        0.0115        9.5050        9.5165       2.396161       0.08372
   4     651.6        7.1803        0.0122        9.0814        9.0936       1.913343       0.06603
   3     718.7        7.2725        0.0131        8.7024        8.7155       1.442989       0.05911
   2     792.3        7.4093        0.0140        8.3379        8.3519       0.942579       0.05739
   1     891.5        0.2389        1.0020        0.0000        1.0020       0.763037       0.01528
   0    1013.0        0.2441        0.9738        0.0000        0.9738       0.729663       0.00232



 Wavenumbers:  6150. -  7700. cm-1, ATM      1
 LEVEL PRESSURE   UPWARD FLUX   DIFDOWN FLUX  DIRDOWN FLUX  DOWNWARD FLUX   NET FLUX    HEATING RATE
          mb          W/m2          W/m2          W/m2        W/m2          W/m2       degree/day
  51    .06700       10.9632        0.0000       30.4684       30.4684      19.505150       0.00000
  50    .07753       10.9632        0.0000       30.4683       30.4683      19.505098       0.04144
  49    .09103       10.9632        0.0000       30.4683       30.4683      19.505031       0.04174
  48    0.1069       10.9632        0.0000       30.4682       30.4682      19.504952       0.04202
  47    0.1255       10.9632        0.0000       30.4681       30.4681      19.504859       0.04227
  46    0.1487       10.9632        0.0000       30.4680       30.4680      19.504738       0.04411
  45    0.1794       10.9632        0.0000       30.4678       30.4678      19.504568       0.04669
  44    0.2165       10.9632        0.0000       30.4676       30.4676      19.504361       0.04715
  43    0.2613       10.9632        0.0000       30.4673       30.4673      19.504109       0.04744
  42    0.3336       10.9632        0.0000       30.4669       30.4669      19.503682       0.04974
  41    0.4307       10.9632        0.0000       30.4663       30.4663      19.503101       0.05052
  40    0.5894       10.9632        0.0001       30.4653       30.4653      19.502134       0.05146
  39     1.339       10.9631        0.0002       30.4604       30.4606      19.497450       0.05273
  38     1.782       10.9631        0.0002       30.4576       30.4578      19.494700       0.05235
  37     2.292       10.9630        0.0003       30.4543       30.4546      19.491542       0.05231
  36     2.964       10.9630        0.0004       30.4501       30.4504      19.487434       0.05156
  35     3.853       10.9629        0.0005       30.4445       30.4450      19.482077       0.05084
  34     5.035       10.9628        0.0006       30.4373       30.4379      19.475077       0.05000
  33     6.613       10.9627        0.0008       30.4278       30.4286      19.465929       0.04890
  32     8.786       10.9625        0.0011       30.4154       30.4164      19.453977       0.04642
  31     11.80       10.9622        0.0014       30.3984       30.3998      19.437591       0.04588
  30     15.07       10.9619        0.0018       30.3810       30.3828      19.420876       0.04315
  29     18.79       10.9616        0.0023       30.3623       30.3646      19.402975       0.04059
  28     23.16       10.9612        0.0028       30.3417       30.3445      19.383291       0.03806
  27     28.12       10.9608        0.0034       30.3196       30.3230      19.362189       0.03587
  26     33.73       10.9603        0.0041       30.2965       30.3006      19.340268       0.03296
  25     40.54       10.9597        0.0049       30.2708       30.2756      19.315928       0.03020
  24     48.69       10.9590        0.0059       30.2423       30.2482      19.289147       0.02771
  23     57.69       10.9582        0.0070       30.2139       30.2208      19.262575       0.02491
  22     68.43       10.9573        0.0082       30.1834       30.1916      19.234293       0.02223
  21     81.20       10.9562        0.0098       30.1500       30.1598      19.203554       0.02031
  20     96.49       10.9549        0.0116       30.1126       30.1242      19.169322       0.01889
  19     114.6       10.9534        0.0138       30.0695       30.0833      19.129916       0.01840
  18     136.5       10.9515        0.0164       30.0139       30.0303      19.078727       0.01968
  17     162.9       10.9494        0.0194       29.9225       29.9419      18.992477       0.02757
  16     196.4       10.9467        0.0233       29.7333       29.7567      18.809926       0.04595
  15     218.7       10.9451        0.0259       29.5259       29.5517      18.606620       0.07719
  14     243.0       10.9435        0.0285       29.1375       29.1660      18.222456       0.13324
  13     269.0       10.9424        0.0311       28.3800       28.4111      17.468689       0.24452
  12     297.5       10.9421        0.0335       27.3895       27.4231      16.480906       0.29297
  11     328.5       10.9436        0.0359       26.2257       26.2616      15.318005       0.31619
  10     361.9       10.9477        0.0381       24.8453       24.8834      13.935673       0.34974
   9     398.1       10.9561        0.0401       23.3471       23.3871      12.431015       0.35055
   8     437.6       10.9713        0.0418       21.7966       21.8385      10.867131       0.33437
   7     480.5       10.9986        0.0433       20.1977       20.2410       9.242448       0.31908
   6     533.0       11.0518        0.0449       18.4969       18.5418       7.490085       0.28190
   5     589.8       11.1406        0.0465       16.9754       17.0219       5.881356       0.23879
   4     651.6       11.2877        0.0482       15.6022       15.6503       4.362630       0.20769
   3     718.7       11.5161        0.0500       14.4232       14.4732       2.957083       0.17664
   2     792.3       11.8578        0.0521       13.4386       13.4908       1.632919       0.15187
   1     891.5        0.3547        1.5407        0.0000        1.5407       1.185994       0.03803
   0    1013.0        0.3683        1.4691        0.0000        1.4691       1.100816       0.00591



 Wavenumbers:  7700. -  8050. cm-1, ATM      1
 LEVEL PRESSURE   UPWARD FLUX   DIFDOWN FLUX  DIRDOWN FLUX  DOWNWARD FLUX   NET FLUX    HEATING RATE
          mb          W/m2          W/m2          W/m2        W/m2          W/m2       degree/day
  51    .06700        5.2036        0.0000        7.2006        7.2006       1.996977       0.00000
  50    .07753        5.2036        0.0000        7.2006        7.2006       1.996956       0.01699
  49    .09103        5.2036        0.0000        7.2005        7.2005       1.996929       0.01665
  48    0.1069        5.2036        0.0000        7.2005        7.2005       1.996899       0.01630
  47    0.1255        5.2036        0.0000        7.2005        7.2005       1.996863       0.01595
  46    0.1487        5.2036        0.0000        7.2004        7.2005       1.996819       0.01619
  45    0.1794        5.2036        0.0000        7.2004        7.2004       1.996758       0.01665
  44    0.2165        5.2037        0.0000        7.2003        7.2003       1.996687       0.01634
  43    0.2613        5.2037        0.0000        7.2003        7.2003       1.996602       0.01603
  42    0.3336        5.2037        0.0000        7.2001        7.2001       1.996461       0.01640
  41    0.4307        5.2037        0.0000        7.2000        7.2000       1.996274       0.01622
  40    0.5894        5.2038        0.0000        7.1997        7.1997       1.995970       0.01620
  39     1.339        5.2040        0.0001        7.1984        7.1985       1.994528       0.01623
  38     1.782        5.2041        0.0001        7.1977        7.1978       1.993682       0.01611
  37     2.292        5.2042        0.0001        7.1968        7.1970       1.992702       0.01622
  36     2.964        5.2044        0.0002        7.1957        7.1959       1.991416       0.01614
  35     3.853        5.2047        0.0002        7.1942        7.1944       1.989719       0.01611
  34     5.035        5.2050        0.0003        7.1922        7.1925       1.987464       0.01610
  33     6.613        5.2055        0.0004        7.1896        7.1899       1.984455       0.01609
  32     8.786        5.2061        0.0005        7.1860        7.1865       1.980405       0.01573
  31     11.80        5.2070        0.0006        7.1810        7.1816       1.974621       0.01619
  30     15.07        5.2079        0.0008        7.1755        7.1764       1.968425       0.01600
  29     18.79        5.2090        0.0010        7.1694        7.1704       1.961443       0.01583
  28     23.16        5.2103        0.0012        7.1623        7.1636       1.953313       0.01572
  27     28.12        5.2117        0.0015        7.1542        7.1557       1.944049       0.01575
  26     33.73        5.2133        0.0018        7.1452        7.1470       1.933725       0.01552
  25     40.54        5.2153        0.0021        7.1344        7.1366       1.921313       0.01540
  24     48.69        5.2177        0.0026        7.1215        7.1241       1.906438       0.01539
  23     57.69        5.2203        0.0031        7.1074        7.1105       1.890210       0.01521
  22     68.43        5.2234        0.0036        7.0909        7.0945       1.871034       0.01507
  21     81.20        5.2272        0.0043        7.0713        7.0756       1.848401       0.01496
  20     96.49        5.2318        0.0051        7.0484        7.0535       1.821726       0.01472
  19     114.6        5.2373        0.0060        7.0217        7.0277       1.790454       0.01460
  18     136.5        5.2438        0.0071        6.9906        6.9977       1.753926       0.01405
  17     162.9        5.2517        0.0085        6.9544        6.9629       1.711138       0.01368
  16     196.4        5.2622        0.0102        6.9087        6.9189       1.656734       0.01369
  15     218.7        5.2692        0.0113        6.8794        6.8907       1.621556       0.01336
  14     243.0        5.2769        0.0125        6.8481        6.8606       1.583748       0.01311
  13     269.0        5.2854        0.0138        6.8147        6.8286       1.543133       0.01318
  12     297.5        5.2949        0.0153        6.7791        6.7943       1.499453       0.01295
  11     328.5        5.3054        0.0168        6.7409        6.7577       1.452306       0.01282
  10     361.9        5.3173        0.0184        6.7002        6.7186       1.401337       0.01290
   9     398.1        5.3306        0.0202        6.6563        6.6765       1.345893       0.01292
   8     437.6        5.3457        0.0221        6.6089        6.6310       1.285266       0.01296
   7     480.5        5.3631        0.0241        6.5570        6.5811       1.218027       0.01321
   6     533.0        5.3864        0.0266        6.4915        6.5181       1.131704       0.01389
   5     589.8        5.4141        0.0292        6.4182        6.4475       1.033398       0.01459
   4     651.6        5.4474        0.0321        6.3359        6.3679       0.920570       0.01543
   3     718.7        5.4871        0.0351        6.2441        6.2792       0.792113       0.01614
   2     792.3        5.5337        0.0382        6.1437        6.1820       0.648231       0.01650
   1     891.5        0.1880        0.7749        0.0000        0.7749       0.586837       0.00522
   0    1013.0        0.1910        0.7619        0.0000        0.7619       0.570858       0.00111



 Wavenumbers:  8050. - 12850. cm-1, ATM      1
 LEVEL PRESSURE   UPWARD FLUX   DIFDOWN FLUX  DIRDOWN FLUX  DOWNWARD FLUX   NET FLUX    HEATING RATE
          mb          W/m2          W/m2          W/m2        W/m2          W/m2       degree/day
  51    .06700       67.5931        0.0000      100.8135      100.8135      33.220401       0.00000
  50    .07753       67.5931        0.0000      100.8135      100.8135      33.220401       0.00000
  49    .09103       67.5931        0.0001      100.8134      100.8135      33.220401       0.00000
  48    0.1069       67.5931        0.0001      100.8134      100.8135      33.220401      -0.00000
  47    0.1255       67.5930        0.0002      100.8133      100.8134      33.220401       0.00000
  46    0.1487       67.5930        0.0002      100.8132      100.8134      33.220401      -0.00000
  45    0.1794       67.5930        0.0003      100.8131      100.8134      33.220401       0.00000
  44    0.2165       67.5929        0.0004      100.8129      100.8133      33.220401       0.00000
  43    0.2613       67.5929        0.0005      100.8127      100.8133      33.220401       0.00000
  42    0.3336       67.5928        0.0007      100.8125      100.8132      33.220401       0.00000
  41    0.4307       67.5926        0.0009      100.8121      100.8130      33.220401       0.00000
  40    0.5894       67.5924        0.0014      100.8115      100.8128      33.220401      -0.00000
  39     1.339       67.5914        0.0033      100.8085      100.8118      33.220401       0.00000
  38     1.782       67.5908        0.0044      100.8068      100.8112      33.220401       0.00000
  37     2.292       67.5901        0.0058      100.8047      100.8105      33.220401       0.00000
  36     2.964       67.5892        0.0075      100.8021      100.8096      33.220401      -0.00000
  35     3.853       67.5880        0.0098      100.7986      100.8084      33.220401       0.00000
  34     5.035       67.5864        0.0128      100.7940      100.8068      33.220401      -0.00000
  33     6.613       67.5843        0.0169      100.7878      100.8047      33.220401       0.00000
  32     8.786       67.5814        0.0224      100.7794      100.8018      33.220401       0.00000
  31     11.80       67.5773        0.0303      100.7674      100.7977      33.220401       0.00000
  30     15.07       67.5729        0.0387      100.7546      100.7933      33.220401      -0.00000
  29     18.79       67.5679        0.0483      100.7400      100.7883      33.220401      -0.00000
  28     23.16       67.5620        0.0595      100.7230      100.7824      33.220401       0.00000
  27     28.12       67.5553        0.0722      100.7035      100.7757      33.220401      -0.00000
  26     33.73       67.5478        0.0866      100.6817      100.7682      33.220401       0.00000
  25     40.54       67.5388        0.1039      100.6552      100.7592      33.220401      -0.00000
  24     48.69       67.5278        0.1249      100.6234      100.7482      33.220401      -0.00000
  23     57.69       67.5158        0.1479      100.5883      100.7362      33.220401      -0.00000
  22     68.43       67.5014        0.1754      100.5464      100.7218      33.220401       0.00000
  21     81.20       67.4843        0.2081      100.4965      100.7047      33.220401      -0.00000
  20     96.49       67.4638        0.2472      100.4370      100.6842      33.220401      -0.00000
  19     114.6       67.4396        0.2937      100.3585      100.6522      33.212585       0.00365
  18     136.5       67.4110        0.3490      100.2634      100.6123      33.201347       0.00432
  17     162.9       67.3769        0.4148      100.1407      100.5555      33.178595       0.00727
  16     196.4       67.3329        0.5004       99.9505      100.4509      33.118044       0.01524
  15     218.7       67.3040        0.5567       99.7889      100.3456      33.041551       0.02904
  14     243.0       67.2733        0.6177       99.5472      100.1649      32.891651       0.05199
  13     269.0       67.2419        0.6836       99.1452       99.8288      32.586947       0.09884
  12     297.5       67.2116        0.7544       98.5975       99.3518      32.140245       0.13249
  11     328.5       67.1852        0.8303       97.8659       98.6961      31.510924       0.17111
  10     361.9       67.1669        0.9110       96.8848       97.7958      30.628861       0.22317
   9     398.1       67.1626        0.9965       95.6330       96.6295      29.466916       0.27071
   8     437.6       67.1826        1.0863       94.0655       95.1517      27.969163       0.32023
   7     480.5       67.2477        1.1794       92.0807       93.2601      26.012447       0.38429
   6     533.0       67.4029        1.2899       89.4449       90.7347      23.331846       0.43122
   5     589.8       67.6853        1.4045       86.5544       87.9589      20.273623       0.45394
   4     651.6       68.1684        1.5228       83.4174       84.9402      16.771796       0.47888
   3     718.7       68.9152        1.6454       80.2037       81.8491      12.933945       0.48231
   2     792.3       70.0040        1.7733       77.0811       78.8544       8.850347       0.46834
   1     891.5        2.2811        9.5846        0.0000        9.5846       7.303434       0.13163
   0    1013.0        2.3312        9.2988        0.0000        9.2988       6.967576       0.02332



 Wavenumbers: 12850. - 16000. cm-1, ATM      1
 LEVEL PRESSURE   UPWARD FLUX   DIFDOWN FLUX  DIRDOWN FLUX  DOWNWARD FLUX   NET FLUX    HEATING RATE
          mb          W/m2          W/m2          W/m2        W/m2          W/m2       degree/day
  51    .06700       48.9638        0.0000       63.1686       63.1686      14.204813       0.00000
  50    .07753       48.9637        0.0001       63.1677       63.1678      14.204030       0.62763
  49    .09103       48.9637        0.0001       63.1666       63.1668      14.203053       0.61042
  48    0.1069       48.9637        0.0002       63.1654       63.1656      14.201940       0.59247
  47    0.1255       48.9637        0.0003       63.1640       63.1644      14.200673       0.57451
  46    0.1487       48.9637        0.0005       63.1623       63.1627      14.199090       0.57685
  45    0.1794       48.9636        0.0006       63.1600       63.1606      14.196965       0.58338
  44    0.2165       48.9636        0.0008       63.1573       63.1581      14.194504       0.55997
  43    0.2613       48.9636        0.0011       63.1542       63.1553      14.191659       0.53628
  42    0.3336       48.9637        0.0015       63.1493       63.1508      14.187114       0.52986
  41    0.4307       48.9638        0.0020       63.1431       63.1452      14.181412       0.49580
  40    0.5894       48.9640        0.0029       63.1338       63.1367      14.172732       0.46159
  39     1.339       48.9670        0.0071       63.0956       63.1027      14.135622       0.41779
  38     1.782       48.9702        0.0095       63.0740       63.0836      14.113386       0.42333
  37     2.292       48.9751        0.0124       63.0477       63.0600      14.084959       0.47083
  36     2.964       48.9835        0.0161       63.0095       63.0256      14.042166       0.53718
  35     3.853       48.9973        0.0210       62.9533       62.9743      13.977011       0.61834
  34     5.035       49.0183        0.0275       62.8725       62.9000      13.881757       0.68045
  33     6.613       49.0477        0.0362       62.7621       62.7983      13.750561       0.70138
  32     8.786       49.0860        0.0479       62.6182       62.6662      13.580194       0.66164
  31     11.80       49.1354        0.0646       62.4284       62.4930      13.357607       0.62317
  30     15.07       49.1822        0.0825       62.2426       62.3251      13.142905       0.55432
  29     18.79       49.2296        0.1027       62.0493       62.1520      12.922418       0.49991
  28     23.16       49.2784        0.1262       61.8424       61.9686      12.690200       0.44903
  27     28.12       49.3268        0.1530       61.6278       61.7808      12.454003       0.40152
  26     33.73       49.3703        0.1830       61.4177       61.6007      12.230406       0.33618
  25     40.54       49.4103        0.2192       61.1983       61.4175      12.007149       0.27697
  24     48.69       49.4466        0.2627       60.9680       61.2307      11.784155       0.23076
  23     57.69       49.4747        0.3105       60.7478       61.0583      11.583635       0.18796
  22     68.43       49.4956        0.3674       60.5202       60.8876      11.392036       0.15062
  21     81.20       49.5031        0.4352       60.2938       60.7290      11.225884       0.10979
  20     96.49       49.4961        0.5159       60.0643       60.5802      11.084060       0.07828
  19     114.6       49.4872        0.6124       59.8078       60.4202      10.932950       0.07056
  18     136.5       49.4698        0.7266       59.5157       60.2423      10.772544       0.06168
  17     162.9       49.4427        0.8623       59.1770       60.0394      10.596649       0.05622
  16     196.4       49.3942        1.0379       58.7604       59.7984      10.404211       0.04844
  15     218.7       49.3576        1.1531       58.4948       59.6478      10.290291       0.04325
  14     243.0       49.3158        1.2779       58.2089       59.4869      10.171025       0.04137
  13     269.0       49.2691        1.4131       57.9006       59.3136      10.044578       0.04102
  12     297.5       49.2177        1.5588       57.5668       59.1256       9.907915       0.04053
  11     328.5       49.1634        1.7159       57.2005       58.9164       9.753036       0.04211
  10     361.9       49.1076        1.8847       56.7963       58.6810       9.573468       0.04543
   9     398.1       49.0518        2.0657       56.3475       58.4133       9.361444       0.04940
   8     437.6       48.9996        2.2594       55.8422       58.1016       9.102021       0.05547
   7     480.5       48.9571        2.4658       55.2625       57.7283       8.771205       0.06497
   6     533.0       48.9275        2.7179       54.4972       57.2150       8.287464       0.07782
   5     589.8       48.9246        2.9863       53.6307       56.6170       7.692351       0.08833
   4     651.6       48.9622        3.2703       52.6606       55.9309       6.968711       0.09896
   3     718.7       49.0494        3.5704       51.6100       55.1804       6.130960       0.10528
   2     792.3       49.1986        3.8863       50.5019       54.3882       5.189630       0.10796
   1     891.5        5.7443       10.5033        0.0000       10.5033       4.759039       0.03664
   0    1013.0        5.7857       10.3742        0.0000       10.3742       4.588510       0.01184



 Wavenumbers: 16000. - 22650. cm-1, ATM      1
 LEVEL PRESSURE   UPWARD FLUX   DIFDOWN FLUX  DIRDOWN FLUX  DOWNWARD FLUX   NET FLUX    HEATING RATE
          mb          W/m2          W/m2          W/m2        W/m2          W/m2       degree/day
  51    .06700       83.6694        0.0000      100.7153      100.7153      17.045923       0.00000
  50    .07753       83.6693        0.0003      100.7147      100.7151      17.045802       0.09700
  49    .09103       83.6691        0.0008      100.7140      100.7148      17.045626       0.11002
  48    0.1069       83.6690        0.0012      100.7131      100.7144      17.045391       0.12546
  47    0.1255       83.6688        0.0018      100.7121      100.7139      17.045075       0.14300
  46    0.1487       83.6687        0.0025      100.7108      100.7133      17.044610       0.16946
  45    0.1794       83.6684        0.0035      100.7089      100.7123      17.043884       0.19952
  44    0.2165       83.6682        0.0046      100.7066      100.7111      17.042898       0.22424
  43    0.2613       83.6680        0.0059      100.7037      100.7096      17.041560       0.25210
  42    0.3336       83.6678        0.0082      100.6987      100.7068      17.039018       0.29646
  41    0.4307       83.6677        0.0111      100.6918      100.7029      17.035185       0.33324
  40    0.5894       83.6678        0.0159      100.6797      100.6957      17.027876       0.38870
  39     1.339       83.6743        0.0387      100.6095      100.6482      16.973884       0.60785
  38     1.782       83.6826        0.0521      100.5585      100.6105      16.927903       0.87541
  37     2.292       83.6964        0.0675      100.4903      100.5578      16.861364       1.10206
  36     2.964       83.7210        0.0878      100.3868      100.4746      16.753616       1.35256
  35     3.853       83.7625        0.1146      100.2306      100.3452      16.582762       1.62144
  34     5.035       83.8265        0.1502      100.0045      100.1546      16.328115       1.81909
  33     6.613       83.9167        0.1975       99.6939       99.8914      15.974733       1.88918
  32     8.786       84.0335        0.2612       99.2881       99.5493      15.515774       1.78243
  31     11.80       84.1832        0.3520       98.7496       99.1016      14.918441       1.67235
  30     15.07       84.3236        0.4492       98.2198       98.6690      14.345428       1.47941
  29     18.79       84.4639        0.5586       97.6651       98.2237      13.759791       1.32782
  28     23.16       84.6068        0.6859       97.0671       97.7531      13.146254       1.18638
  27     28.12       84.7456        0.8310       96.4406       97.2716      12.525954       1.05447
  26     33.73       84.8656        0.9928       95.8179       96.8107      11.945118       0.87330
  25     40.54       84.9697        1.1877       95.1548       96.3426      11.372832       0.70998
  24     48.69       85.0557        1.4218       94.4420       95.8638      10.808098       0.58441
  23     57.69       85.1119        1.6780       93.7416       95.4196      10.307613       0.46913
  22     68.43       85.1379        1.9818       92.9954       94.9772       9.839288       0.36817
  21     81.20       85.1125        2.3425       92.2231       94.5656       9.453107       0.25518
  20     96.49       85.0304        2.7704       91.4110       94.1814       9.150999       0.16674
  19     114.6       84.9071        3.2751       90.5070       93.7821       8.875042       0.12885
  18     136.5       84.7442        3.8685       89.4803       93.3487       8.604509       0.10403
  17     162.9       84.5359        4.5683       88.3022       92.8705       8.334553       0.08629
  16     196.4       84.2335        5.4657       86.8606       92.3263       8.092796       0.06085
  15     218.7       84.0240        6.0489       85.9492       91.9981       7.974148       0.04505
  14     243.0       83.7920        6.6773       84.9789       91.6563       7.864262       0.03811
  13     269.0       83.5365        7.3519       83.9493       91.3012       7.764673       0.03231
  12     297.5       83.2571        8.0737       82.8589       90.9326       7.675492       0.02645
  11     328.5       82.9555        8.8451       81.6982       90.5433       7.587829       0.02384
  10     361.9       82.6318        9.6659       80.4669       90.1329       7.501106       0.02194
   9     398.1       82.2855       10.5384       79.1611       89.6995       7.414026       0.02029
   8     437.6       81.9174       11.4627       77.7777       89.2404       7.323082       0.01944
   7     480.5       81.5281       12.4394       76.3136       88.7530       7.224874       0.01929
   6     533.0       81.0577       13.6218       74.5359       88.1577       7.099962       0.02009
   5     589.8       80.5630       14.8723       72.6469       87.5193       6.956246       0.02133
   4     651.6       80.0471       16.1890       70.6456       86.8346       6.787478       0.02308
   3     718.7       79.5109       17.5699       68.5367       86.1066       6.595693       0.02410
   2     792.3       78.9575       19.0099       66.3287       85.3385       6.381009       0.02462
   1     891.5       22.5201       28.7748        0.0000       28.7748       6.254712       0.01075
   0    1013.0       22.4842       28.6532        0.0000       28.6532       6.169040       0.00595



 Wavenumbers: 22650. - 29000. cm-1, ATM      1
 LEVEL PRESSURE   UPWARD FLUX   DIFDOWN FLUX  DIRDOWN FLUX  DOWNWARD FLUX   NET FLUX    HEATING RATE
          mb          W/m2          W/m2          W/m2        W/m2          W/m2       degree/day
  51    .06700       35.5056        0.0000       38.0063       38.0063       2.500733       0.00000
  50    .07753       35.5054        0.0004       38.0057       38.0061       2.500733       0.00000
  49    .09103       35.5052        0.0009       38.0050       38.0059       2.500733       0.00000
  48    0.1069       35.5050        0.0014       38.0042       38.0057       2.500733      -0.00000
  47    0.1255       35.5047        0.0021       38.0033       38.0054       2.500733       0.00000
  46    0.1487       35.5043        0.0029       38.0022       38.0051       2.500733       0.00000
  45    0.1794       35.5039        0.0040       38.0006       38.0046       2.500733      -0.00000
  44    0.2165       35.5033        0.0053       37.9987       38.0041       2.500733       0.00000
  43    0.2613       35.5027        0.0069       37.9965       38.0034       2.500733      -0.00000
  42    0.3336       35.5016        0.0095       37.9928       38.0023       2.500733       0.00000
  41    0.4307       35.5002        0.0129       37.9880       38.0009       2.500733       0.00000
  40    0.5894       35.4978        0.0185       37.9800       37.9985       2.500733      -0.00000
  39     1.339       35.4867        0.0450       37.9425       37.9875       2.500733       0.00000
  38     1.782       35.4802        0.0605       37.9204       37.9809       2.500733       0.00000
  37     2.292       35.4727        0.0785       37.8949       37.9734       2.500733       0.00000
  36     2.964       35.4628        0.1021       37.8614       37.9635       2.500733       0.00000
  35     3.853       35.4498        0.1333       37.8172       37.9505       2.500733      -0.00000
  34     5.035       35.4324        0.1746       37.7586       37.9332       2.500733       0.00000
  33     6.613       35.4093        0.2298       37.6803       37.9101       2.500733      -0.00000
  32     8.786       35.3783        0.3039       37.5750       37.8790       2.500733      -0.00000
  31     11.80       35.3339        0.4098       37.4249       37.8346       2.500733       0.00000
  30     15.07       35.2864        0.5230       37.2642       37.7872       2.500733      -0.00000
  29     18.79       35.2330        0.6504       37.0833       37.7337       2.500733       0.00000
  28     23.16       35.1708        0.7986       36.8730       37.6716       2.500733       0.00000
  27     28.12       35.1001        0.9671       36.6338       37.6008       2.500733       0.00000
  26     33.73       35.0214        1.1544       36.3677       37.5221       2.500733      -0.00000
  25     40.54       34.9270        1.3792       36.0486       37.4277       2.500733       0.00000
  24     48.69       34.8141        1.6476       35.6672       37.3148       2.500733      -0.00000
  23     57.69       34.6913        1.9393       35.2527       37.1920       2.500733       0.00000
  22     68.43       34.5467        2.2825       34.7649       37.0474       2.500733       0.00000
  21     81.20       34.3767        2.6852       34.1922       36.8775       2.500733       0.00000
  20     96.49       34.1776        3.1566       33.5217       36.6783       2.500733       0.00000
  19     114.6       33.9458        3.7041       32.7424       36.4465       2.500733       0.00000
  18     136.5       33.6774        4.3366       31.8416       36.1781       2.500733      -0.00000
  17     162.9       33.3667        5.0667       30.8008       35.8675       2.500733      -0.00000
  16     196.4       32.9777        5.9778       29.5007       35.4784       2.500733       0.00000
  15     218.7       32.7305        6.5546       28.6767       35.2313       2.500733       0.00000
  14     243.0       32.4690        7.1630       27.8068       34.9698       2.500733      -0.00000
  13     269.0       32.1938        7.8012       26.8933       34.6945       2.500733       0.00000
  12     297.5       31.9056        8.4670       25.9393       34.4063       2.500733       0.00000
  11     328.5       31.6043        9.1600       24.9451       34.1051       2.500733      -0.00000
  10     361.9       31.2915        9.8762       23.9160       33.7922       2.500733      -0.00000
   9     398.1       30.9675       10.6141       22.8541       33.4682       2.500733       0.00000
   8     437.6       30.6336       11.3699       21.7645       33.1343       2.500733       0.00000
   7     480.5       30.2912       12.1398       20.6521       32.7919       2.500733       0.00000
   6     533.0       29.8901       13.0339       19.3569       32.3908       2.500733      -0.00000
   5     589.8       29.4816       13.9356       18.0467       31.9823       2.500733       0.00000
   4     651.6       29.0681       14.8372       16.7316       31.5688       2.500733      -0.00000
   3     718.7       28.6523       15.7316       15.4214       31.1530       2.500733       0.00000
   2     792.3       28.2372       16.6103       14.1276       30.7379       2.500733       0.00000
   1     891.5        9.1988       11.6989        0.0000       11.6989       2.500147       0.00005
   0    1013.0        9.1122       11.6124        0.0000       11.6124       2.500147       0.00000



 Wavenumbers: 29000. - 38000. cm-1, ATM      1
 LEVEL PRESSURE   UPWARD FLUX   DIFDOWN FLUX  DIRDOWN FLUX  DOWNWARD FLUX   NET FLUX    HEATING RATE
          mb          W/m2          W/m2          W/m2        W/m2          W/m2       degree/day
  51    .06700        5.1045        0.0000       13.4026       13.4026       8.298124       0.00000
  50    .07753        5.1043        0.0003       13.3983       13.3986       8.294325       3.04460
  49    .09103        5.1040        0.0007       13.3921       13.3928       8.288805       3.44991
  48    0.1069        5.1037        0.0011       13.3840       13.3851       8.281428       3.92705
  47    0.1255        5.1033        0.0016       13.3733       13.3749       8.271582       4.46351
  46    0.1487        5.1029        0.0022       13.3579       13.3601       8.257139       5.26478
  45    0.1794        5.1023        0.0030       13.3340       13.3371       8.234737       6.14974
  44    0.2165        5.1017        0.0040       13.3024       13.3064       8.204716       6.82931
  43    0.2613        5.1009        0.0052       13.2604       13.2656       8.164658       7.55073
  42    0.3336        5.0997        0.0071       13.1833       13.1904       8.090646       8.62917
  41    0.4307        5.0982        0.0095       13.0729       13.0825       7.984264       9.24965
  40    0.5894        5.0958        0.0135       12.8796       12.8930       7.797202       9.94773
  39     1.339        5.0876        0.0298       11.9165       11.9463       6.858719      10.56561
  38     1.782        5.0845        0.0382       11.4399       11.4781       6.393617       8.85480
  37     2.292        5.0822        0.0471       10.9796       11.0267       5.944512       7.43835
  36     2.964        5.0811        0.0581       10.4786       10.5367       5.455604       6.13727
  35     3.853        5.0823        0.0717        9.9429       10.0146       4.932310       4.96616
  34     5.035        5.0864        0.0887        9.4007        9.4894       4.402929       3.78168
  33     6.613        5.0938        0.1102        8.8752        8.9854       3.891636       2.73337
  32     8.786        5.1038        0.1380        8.3786        8.5166       3.412726       1.85991
  31     11.80        5.1163        0.1761        7.8897        8.0658       2.949522       1.29683
  30     15.07        5.1272        0.2155        7.5108        7.7263       2.599091       0.90474
  29     18.79        5.1376        0.2584        7.1776        7.4360       2.298427       0.68170
  28     23.16        5.1474        0.3068        6.8664        7.1732       2.025755       0.52726
  27     28.12        5.1559        0.3602        6.5780        6.9383       1.782348       0.41378
  26     33.73        5.1605        0.4185        6.3195        6.7380       1.577520       0.30796
  25     40.54        5.1601        0.4873        6.0663        6.5536       1.393472       0.22833
  24     48.69        5.1543        0.5680        5.8128        6.3808       1.226504       0.17279
  23     57.69        5.1428        0.6541        5.5777        6.2318       1.089022       0.12887
  22     68.43        5.1234        0.7538        5.3379        6.0917       0.968259       0.09494
  21     81.20        5.0919        0.8695        5.0965        5.9660       0.874123       0.06220
  20     96.49        5.0470        1.0033        4.8476        5.8509       0.803921       0.03875
  19     114.6        4.9921        1.1550        4.5799        5.7349       0.742720       0.02858
  18     136.5        4.9285        1.3247        4.2891        5.6137       0.685258       0.02210
  17     162.9        4.8558        1.5130        3.9732        5.4862       0.630367       0.01755
  16     196.4        4.7636        1.7389        3.6080        5.3470       0.583333       0.01184
  15     218.7        4.7055        1.8767        3.3898        5.2664       0.560892       0.00852
  14     243.0        4.6453        2.0172        3.1686        5.1858       0.540499       0.00707
  13     269.0        4.5831        2.1595        2.9461        5.1056       0.522477       0.00585
  12     297.5        4.5195        2.3024        2.7239        5.0263       0.506853       0.00463
  11     328.5        4.4553        2.4445        2.5029        4.9474       0.492144       0.00400
  10     361.9        4.3909        2.5847        2.2846        4.8693       0.478375       0.00348
   9     398.1        4.3268        2.7216        2.0708        4.7924       0.465540       0.00299
   8     437.6        4.2635        2.8543        1.8626        4.7169       0.453367       0.00260
   7     480.5        4.2015        2.9813        1.6621        4.6434       0.441989       0.00223
   6     533.0        4.1324        3.1185        1.4437        4.5622       0.429783       0.00196
   5     589.8        4.0662        3.2454        1.2390        4.4844       0.418157       0.00173
   4     651.6        4.0034        3.3604        1.0500        4.4104       0.406951       0.00153
   3     718.7        3.9444        3.4627        0.8778        4.3405       0.396129       0.00136
   2     792.3        3.8894        3.5514        0.7237        4.2751       0.385669       0.00120
   1     891.5        1.3808        1.7582        0.0000        1.7582       0.377335       0.00071
   0    1013.0        1.3565        1.7287        0.0000        1.7287       0.372180       0.00036



 Wavenumbers: 38000. - 50000. cm-1, ATM      1
 LEVEL PRESSURE   UPWARD FLUX   DIFDOWN FLUX  DIRDOWN FLUX  DOWNWARD FLUX   NET FLUX    HEATING RATE
          mb          W/m2          W/m2          W/m2        W/m2          W/m2       degree/day
  51    .06700        0.0051        0.0000        0.8267        0.8267       0.821528       0.00000
  50    .07753        0.0051        0.0001        0.8242        0.8243       0.819196       1.86936
  49    .09103        0.0050        0.0002        0.8207        0.8209       0.815872       2.07705
  48    0.1069        0.0049        0.0002        0.8162        0.8164       0.811514       2.31984
  47    0.1255        0.0048        0.0004        0.8103        0.8106       0.805801       2.59006
  46    0.1487        0.0047        0.0005        0.8018        0.8023       0.797567       3.00143
  45    0.1794        0.0045        0.0007        0.7889        0.7896       0.785013       3.44648
  44    0.2165        0.0044        0.0009        0.7720        0.7729       0.768507       3.75474
  43    0.2613        0.0042        0.0011        0.7500        0.7511       0.746955       4.06246
  42    0.3336        0.0039        0.0015        0.7106        0.7121       0.708267       4.51071
  41    0.4307        0.0035        0.0019        0.6566        0.6584       0.654972       4.63387
  40    0.5894        0.0029        0.0024        0.5680        0.5704       0.567464       4.65357
  39     1.339        0.0015        0.0030        0.2422        0.2452       0.243720       3.64476
  38     1.782        0.0010        0.0026        0.1493        0.1519       0.150889       1.76735
  37     2.292        0.0007        0.0022        0.0924        0.0946       0.093932       0.94336
  36     2.964        0.0005        0.0018        0.0539        0.0557       0.055224       0.48589
  35     3.853        0.0003        0.0013        0.0295        0.0308       0.030502       0.23462
  34     5.035        0.0002        0.0010        0.0154        0.0164       0.016181       0.10230
  33     6.613        0.0001        0.0007        0.0073        0.0080       0.007912       0.04420
  32     8.786        0.0000        0.0004        0.0030        0.0034       0.003390       0.01756
  31     11.80        0.0000        0.0003        0.0010        0.0012       0.001199       0.00613
  30     15.07        0.0000        0.0001        0.0003        0.0005       0.000463       0.00190
  29     18.79        0.0000        0.0001        0.0001        0.0002       0.000182       0.00064
  28     23.16        0.0000        0.0000        0.0000        0.0001       0.000071       0.00022
  27     28.12        0.0000        0.0000        0.0000        0.0000       0.000028       0.00007
  26     33.73        0.0000        0.0000        0.0000        0.0000       0.000011       0.00002
  25     40.54        0.0000        0.0000        0.0000        0.0000       0.000005       0.00001
  24     48.69        0.0000        0.0000        0.0000        0.0000       0.000002       0.00000
  23     57.69        0.0000        0.0000        0.0000        0.0000       0.000001       0.00000
  22     68.43        0.0000        0.0000        0.0000        0.0000       0.000000       0.00000
  21     81.20        0.0000        0.0000        0.0000        0.0000       0.000000       0.00000
  20     96.49        0.0000        0.0000        0.0000        0.0000       0.000000       0.00000
  19     114.6        0.0000        0.0000        0.0000        0.0000       0.000000       0.00000
  18     136.5        0.0000        0.0000        0.0000        0.0000       0.000000       0.00000
  17     162.9        0.0000        0.0000        0.0000        0.0000       0.000000       0.00000
  16     196.4        0.0000        0.0000        0.0000        0.0000       0.000000       0.00000
  15     218.7        0.0000        0.0000        0.0000        0.0000       0.000000       0.00000
  14     243.0        0.0000        0.0000        0.0000        0.0000       0.000000       0.00000
  13     269.0        0.0000        0.0000        0.0000        0.0000       0.000000       0.00000
  12     297.5        0.0000        0.0000        0.0000        0.0000       0.000000       0.00000
  11     328.5        0.0000        0.0000        0.0000        0.0000       0.000000       0.00000
  10     361.9        0.0000        0.0000        0.0000        0.0000       0.000000       0.00000
   9     398.1        0.0000        0.0000        0.0000        0.0000       0.000000       0.00000
   8     437.6        0.0000        0.0000        0.0000        0.0000       0.000000       0.00000
   7     480.5        0.0000        0.0000        0.0000        0.0000       0.000000       0.00000
   6     533.0        0.0000        0.0000        0.0000        0.0000       0.000000       0.00000
   5     589.8        0.0000        0.0000        0.0000        0.0000       0.000000       0.00000
   4     651.6        0.0000        0.0000        0.0000        0.0000       0.000000       0.00000
   3     718.7        0.0000        0.0000        0.0000        0.0000       0.000000       0.00000
   2     792.3        0.0000        0.0000        0.0000        0.0000       0.000000       0.00000
   1     891.5        0.0000        0.0000        0.0000        0.0000       0.000000       0.00000
   0    1013.0        0.0000        0.0000        0.0000        0.0000       0.000000       0.00000



 Wavenumbers:   820. -  2600. cm-1, ATM      1
 LEVEL PRESSURE   UPWARD FLUX   DIFDOWN FLUX  DIRDOWN FLUX  DOWNWARD FLUX   NET FLUX    HEATING RATE
          mb          W/m2          W/m2          W/m2        W/m2          W/m2       degree/day
  51    .06700        0.8542        0.0000        3.8670        3.8670       3.012840       0.00000
  50    .07753        0.8542        0.0000        3.8643        3.8643       3.010123       2.17771
  49    .09103        0.8542        0.0000        3.8635        3.8635       3.009313       0.50640
  48    0.1069        0.8542        0.0000        3.8626        3.8626       3.008422       0.47417
  47    0.1255        0.8542        0.0000        3.8616        3.8616       3.007461       0.43561
  46    0.1487        0.8542        0.0000        3.8605        3.8605       3.006351       0.40439
  45    0.1794        0.8542        0.0000        3.8592        3.8592       3.005016       0.36650
  44    0.2165        0.8542        0.0000        3.8578        3.8578       3.003638       0.31348
  43    0.2613        0.8542        0.0000        3.8564        3.8564       3.002178       0.27524
  42    0.3336        0.8542        0.0000        3.8541        3.8541       2.999947       0.26015
  41    0.4307        0.8542        0.0000        3.8512        3.8512       2.997064       0.25065
  40    0.5894        0.8542        0.0000        3.8465        3.8465       2.992337       0.25136
  39     1.339        0.8542        0.0000        3.8251        3.8251       2.970960       0.24067
  38     1.782        0.8542        0.0000        3.8133        3.8133       2.959146       0.22492
  37     2.292        0.8542        0.0000        3.8003        3.8003       2.946083       0.21635
  36     2.964        0.8542        0.0000        3.7841        3.7841       2.929952       0.20249
  35     3.853        0.8542        0.0000        3.7642        3.7642       2.910035       0.18902
  34     5.035        0.8542        0.0000        3.7395        3.7395       2.885341       0.17641
  33     6.613        0.8542        0.0000        3.7090        3.7090       2.854800       0.16327
  32     8.786        0.8542        0.0000        3.6726        3.6726       2.818400       0.14136
  31     11.80        0.8542        0.0000        3.6320        3.6320       2.777796       0.11368
  30     15.07        0.8542        0.0000        3.6016        3.6016       2.747402       0.07847
  29     18.79        0.8542        0.0000        3.5777        3.5777       2.723492       0.05421
  28     23.16        0.8543        0.0000        3.5564        3.5564       2.702124       0.04132
  27     28.12        0.8543        0.0000        3.5348        3.5348       2.680561       0.03666
  26     33.73        0.8543        0.0000        3.5118        3.5118       2.657508       0.03466
  25     40.54        0.8543        0.0000        3.4849        3.4849       2.630597       0.03339
  24     48.69        0.8544        0.0000        3.4537        3.4537       2.599315       0.03237
  23     57.69        0.8544        0.0000        3.4210        3.4210       2.566610       0.03066
  22     68.43        0.8545        0.0000        3.3844        3.3844       2.529985       0.02879
  21     81.20        0.8545        0.0000        3.3441        3.3441       2.489640       0.02666
  20     96.49        0.8546        0.0000        3.2998        3.2998       2.445217       0.02452
  19     114.6        0.8547        0.0000        3.2506        3.2507       2.395998       0.02298
  18     136.5        0.8548        0.0000        3.1936        3.1936       2.338848       0.02198
  17     162.9        0.8550        0.0000        3.1181        3.1181       2.263173       0.02419
  16     196.4        0.8553        0.0000        3.0090        3.0090       2.153653       0.02757
  15     218.7        0.8556        0.0000        2.9420        2.9420       2.086404       0.02553
  14     243.0        0.8560        0.0000        2.8605        2.8605       2.004482       0.02841
  13     269.0        0.8567        0.0000        2.7419        2.7420       1.885296       0.03866
  12     297.5        0.8578        0.0000        2.5729        2.5729       1.715096       0.05048
  11     328.5        0.8596        0.0000        2.3602        2.3602       1.500646       0.05831
  10     361.9        0.8622        0.0000        2.1524        2.1524       1.290196       0.05325
   9     398.1        0.8660        0.0000        1.9974        1.9974       1.131391       0.03700
   8     437.6        0.8713        0.0000        1.8835        1.8835       1.012195       0.02548
   7     480.5        0.8789        0.0000        1.7734        1.7734       0.894578       0.02310
   6     533.0        0.8912        0.0000        1.6397        1.6398       0.748559       0.02349
   5     589.8        0.9089        0.0000        1.5068        1.5069       0.597980       0.02235
   4     651.6        0.9350        0.0000        1.3807        1.3807       0.445749       0.02082
   3     718.7        0.9699        0.0000        1.2680        1.2681       0.298166       0.01855
   2     792.3        1.0137        0.0000        1.1659        1.1660       0.152241       0.01674
   1     891.5        0.0250        0.1210        0.0000        0.1210       0.096005       0.00479
   0    1013.0        0.0275        0.1096        0.0000        0.1096       0.082102       0.00097

  Modules and versions used in this calculation:

       rrtmg_sw.1col.f90:  $Revision$                    rrtmg_sw_init.f90:  $Revision$        
     rrtmgsw_cldprop.f90:  $Revision$                  rrtmgsw_cldprmc.f90:  NOT USED          
     rrtmg_sw_reftra.f90:  $Revision$                  rrtmg_sw_spcvrt.f90:  NOT USED          
     rrtmg_sw_spcvmc.f90:  NOT USED                    rrtmgsw_setcoef.f90:  NOT USED          
     rrtmg_sw_taumol.f90:  $Revision$                  rrtmg_sw_vrtqdr.f90:  NOT USED          
                rrtatm.f:  NOT USED                             util_xxx.f:  NOT USED          
                 extra.f:  NOT USED                       rrtmg_sw_k_g.f90:  $Revision$        

