

 Wavenumbers:   820. - 50000. cm-1, ATM      1
 LEVEL PRESSURE   UPWARD FLUX   DIFDOWN FLUX  DIRDOWN FLUX  DOWNWARD FLUX   NET FLUX    HEATING RATE
          mb          W/m2          W/m2          W/m2        W/m2          W/m2       degree/day
  51    .06700      248.2993        0.0000      397.8738      397.8738     149.574475       0.00000
  50    .07753      248.2987        0.0012      397.8577      397.8589     149.560185      11.45357
  49    .09103      248.2980        0.0026      397.8418      397.8445     149.546499       8.55447
  48    0.1069      248.2971        0.0043      397.8230      397.8273     149.530153       8.70066
  47    0.1255      248.2962        0.0062      397.7997      397.8059     149.509714       9.26603
  46    0.1487      248.2950        0.0087      397.7676      397.7763     149.481263      10.37096
  45    0.1794      248.2935        0.0120      397.7205      397.7325     149.438980      11.60761
  44    0.2165      248.2918        0.0159      397.6602      397.6762     149.384345      12.42855
  43    0.2613      248.2899        0.0205      397.5829      397.6034     149.313566      13.34149
  42    0.3336      248.2868        0.0281      397.4449      397.4730     149.186163      14.85396
  41    0.4307      248.2831        0.0381      397.2524      397.2905     149.007348      15.54751
  40    0.5894      248.2776        0.0541      396.9253      396.9794     148.701737      16.25202
  39     1.339      248.2632        0.1257      395.4254      395.5510     147.287807      15.91829
  38     1.782      248.2623        0.1658      394.7288      394.8945     146.632250      12.48075
  37     2.292      248.2679        0.2114      394.0572      394.2686     146.000676      10.46050
  36     2.964      248.2852        0.2707      393.3007      393.5714     145.286196       8.96889
  35     3.853      248.3218        0.3482      392.4318      392.7800     144.458222       7.85762
  34     5.035      248.3840        0.4501      391.4441      391.8942     143.510242       6.77198
  33     6.613      248.4746        0.5852      390.3268      390.9119     142.437373       5.73556
  32     8.786      248.5912        0.7658      389.0624      389.8282     141.236970       4.66193
  31     11.80      248.7350        1.0221      387.5500      388.5721     139.837057       3.91931
  30     15.07      248.8624        1.2951      386.1556      387.4507     138.588233       3.22422
  29     18.79      248.9823        1.6010      384.7502      386.3512     137.368875       2.76466
  28     23.16      249.0946        1.9554      383.2686      385.2241     136.129481       2.39659
  27     28.12      249.1905        2.3575      381.7329      384.0903     134.899791       2.09039
  26     33.73      249.2504        2.8041      380.1982      383.0022     133.751792       1.72605
  25     40.54      249.2678        3.3396      378.5384      381.8780     132.610267       1.41619
  24     48.69      249.2360        3.9796      376.7214      380.7011     131.465072       1.18510
  23     57.69      249.1507        4.6760      374.8959      379.5719     130.421223       0.97845
  22     68.43      248.9949        5.4969      372.8999      378.3968     129.401902       0.80132
  21     81.20      248.7347        6.4645      370.7496      377.2141     128.479404       0.60957
  20     96.49      248.3574        7.6028      368.4056      376.0084     127.651040       0.45720
  19     114.6      247.8881        8.9325      365.7513      374.6837     126.795629       0.39942
  18     136.5      247.3179       10.4767      362.7231      373.1998     125.881830       0.35138
  17     162.9      246.6324       12.2718      359.1748      371.4465     124.814187       0.34126
  16     196.4      245.7177       14.5351      354.5718      369.1069     123.389150       0.35870
  15     218.7      245.1141       15.9827      351.4437      367.4264     122.312279       0.40885
  14     243.0      244.4639       17.5224      347.7111      365.2336     120.769661       0.53503
  13     269.0      243.7694       19.1525      342.9441      362.0966     118.327190       0.79233
  12     297.5      243.0342       20.8707      337.4137      358.2844     115.250180       0.91261
  11     328.5      242.2661       22.6786      331.1302      353.8089     111.542781       1.00803
  10     361.9      241.4740       24.5708      324.1219      348.6927     107.218732       1.09403
   9     398.1      240.6671       26.5466      316.6066      343.1532     102.486085       1.10260
   8     437.6      239.8646       28.6013      308.5895      337.1908      97.326165       1.10322
   7     480.5      239.1016       30.7291      299.9349      330.6640      91.562372       1.13199
   6     533.0      238.3199       33.2491      289.7021      322.9512      84.631280       1.11499
   5     589.8      237.7029       35.8496      279.3388      315.1884      77.485499       1.06067
   4     651.6      237.3706       38.5184      268.7786      307.2970      69.926425       1.03372
   3     718.7      237.4234       41.2464      258.2837      299.5301      62.106667       0.98273
   2     792.3      237.9920       44.0195      248.0774      292.0969      54.104918       0.91771
   1     891.5       73.1516      123.1703        0.0455      123.2158      50.064229       0.34384
   0    1013.0       73.2432      121.2311        0.0428      121.2739      48.030725       0.14120



 Wavenumbers:  2600. -  3250. cm-1, ATM      1
 LEVEL PRESSURE   UPWARD FLUX   DIFDOWN FLUX  DIRDOWN FLUX  DOWNWARD FLUX   NET FLUX    HEATING RATE
          mb          W/m2          W/m2          W/m2        W/m2          W/m2       degree/day
  51    .06700        0.9693        0.0000        3.5066        3.5066       2.537288       0.00000
  50    .07753        0.9693        0.0000        3.5066        3.5066       2.537280       0.00640
  49    .09103        0.9693        0.0000        3.5066        3.5066       2.537270       0.00627
  48    0.1069        0.9693        0.0000        3.5066        3.5066       2.537259       0.00613
  47    0.1255        0.9693        0.0000        3.5066        3.5066       2.537245       0.00599
  46    0.1487        0.9693        0.0000        3.5066        3.5066       2.537229       0.00607
  45    0.1794        0.9693        0.0000        3.5065        3.5065       2.537206       0.00624
  44    0.2165        0.9693        0.0000        3.5065        3.5065       2.537179       0.00611
  43    0.2613        0.9693        0.0000        3.5065        3.5065       2.537147       0.00598
  42    0.3336        0.9693        0.0000        3.5064        3.5064       2.537095       0.00615
  41    0.4307        0.9693        0.0000        3.5064        3.5064       2.537024       0.00618
  40    0.5894        0.9693        0.0000        3.5062        3.5062       2.536905       0.00633
  39     1.339        0.9693        0.0000        3.5055        3.5055       2.536206       0.00787
  38     1.782        0.9693        0.0000        3.5050        3.5050       2.535675       0.01011
  37     2.292        0.9693        0.0000        3.5043        3.5043       2.534982       0.01147
  36     2.964        0.9693        0.0000        3.5033        3.5033       2.533991       0.01245
  35     3.853        0.9693        0.0000        3.5019        3.5019       2.532614       0.01307
  34     5.035        0.9693        0.0000        3.5001        3.5001       2.530753       0.01329
  33     6.613        0.9693        0.0000        3.4977        3.4977       2.528343       0.01288
  32     8.786        0.9693        0.0000        3.4947        3.4947       2.525372       0.01154
  31     11.80        0.9693        0.0000        3.4911        3.4911       2.521736       0.01018
  30     15.07        0.9693        0.0000        3.4878        3.4878       2.518514       0.00832
  29     18.79        0.9693        0.0000        3.4848        3.4848       2.515449       0.00695
  28     23.16        0.9693        0.0000        3.4816        3.4816       2.512227       0.00623
  27     28.12        0.9693        0.0000        3.4779        3.4779       2.508607       0.00616
  26     33.73        0.9693        0.0000        3.4735        3.4735       2.504136       0.00672
  25     40.54        0.9693        0.0000        3.4671        3.4672       2.497804       0.00786
  24     48.69        0.9694        0.0000        3.4582        3.4583       2.488899       0.00921
  23     57.69        0.9694        0.0000        3.4472        3.4472       2.477838       0.01037
  22     68.43        0.9694        0.0000        3.4329        3.4329       2.463558       0.01123
  21     81.20        0.9694        0.0000        3.4152        3.4152       2.445801       0.01173
  20     96.49        0.9695        0.0000        3.3940        3.3941       2.424617       0.01169
  19     114.6        0.9695        0.0000        3.3692        3.3692       2.399670       0.01165
  18     136.5        0.9696        0.0001        3.3419        3.3420       2.372371       0.01050
  17     162.9        0.9698        0.0001        3.3129        3.3129       2.343172       0.00933
  16     196.4        0.9700        0.0001        3.2793        3.2794       2.309372       0.00851
  15     218.7        0.9703        0.0001        3.2578        3.2579       2.287535       0.00829
  14     243.0        0.9707        0.0001        3.2320        3.2321       2.261316       0.00909
  13     269.0        0.9714        0.0001        3.1968        3.1969       2.225505       0.01162
  12     297.5        0.9725        0.0001        3.1489        3.1491       2.176554       0.01452
  11     328.5        0.9741        0.0001        3.0821        3.0822       2.108052       0.01863
  10     361.9        0.9765        0.0001        2.9902        2.9904       2.013836       0.02384
   9     398.1        0.9800        0.0001        2.8715        2.8716       1.891623       0.02847
   8     437.6        0.9850        0.0002        2.7276        2.7278       1.742782       0.03182
   7     480.5        0.9926        0.0002        2.5595        2.5597       1.567118       0.03450
   6     533.0        1.0053        0.0002        2.3617        2.3619       1.356598       0.03387
   5     589.8        1.0241        0.0002        2.1649        2.1651       1.141009       0.03200
   4     651.6        1.0521        0.0002        1.9608        1.9609       0.908851       0.03175
   3     718.7        1.0922        0.0002        1.7593        1.7595       0.667266       0.03036
   2     792.3        1.1485        0.0002        1.5761        1.5762       0.427731       0.02747
   1     891.5        0.0829        0.4002        0.0003        0.4005       0.317584       0.00937
   0    1013.0        0.0906        0.3612        0.0002        0.3614       0.270803       0.00325



 Wavenumbers:  3250. -  4000. cm-1, ATM      1
 LEVEL PRESSURE   UPWARD FLUX   DIFDOWN FLUX  DIRDOWN FLUX  DOWNWARD FLUX   NET FLUX    HEATING RATE
          mb          W/m2          W/m2          W/m2        W/m2          W/m2       degree/day
  51    .06700        0.0076        0.0000        5.9117        5.9117       5.904010       0.00000
  50    .07753        0.0076        0.0000        5.9075        5.9075       5.899820       3.35808
  49    .09103        0.0076        0.0000        5.9050        5.9050       5.897378       1.52677
  48    0.1069        0.0076        0.0000        5.9032        5.9032       5.895511       0.99346
  47    0.1255        0.0076        0.0000        5.9014        5.9014       5.893753       0.79708
  46    0.1487        0.0076        0.0000        5.8995        5.8995       5.891864       0.68848
  45    0.1794        0.0076        0.0000        5.8974        5.8974       5.889716       0.58983
  44    0.2165        0.0076        0.0000        5.8952        5.8952       5.887599       0.48155
  43    0.2613        0.0076        0.0000        5.8931        5.8931       5.885440       0.40696
  42    0.3336        0.0076        0.0000        5.8899        5.8899       5.882282       0.36820
  41    0.4307        0.0076        0.0000        5.8861        5.8861       5.878445       0.33365
  40    0.5894        0.0076        0.0000        5.8803        5.8803       5.872642       0.30857
  39     1.339        0.0076        0.0000        5.8597        5.8597       5.852044       0.23189
  38     1.782        0.0076        0.0000        5.8513        5.8513       5.843620       0.16039
  37     2.292        0.0076        0.0000        5.8431        5.8431       5.835449       0.13533
  36     2.964        0.0076        0.0000        5.8334        5.8334       5.825809       0.12100
  35     3.853        0.0076        0.0000        5.8213        5.8213       5.813634       0.11555
  34     5.035        0.0076        0.0000        5.8052        5.8052       5.797538       0.11498
  33     6.613        0.0076        0.0000        5.7833        5.7834       5.775717       0.11666
  32     8.786        0.0076        0.0000        5.7531        5.7531       5.745516       0.11729
  31     11.80        0.0076        0.0000        5.7090        5.7090       5.701347       0.12366
  30     15.07        0.0076        0.0000        5.6615        5.6615       5.653882       0.12254
  29     18.79        0.0076        0.0000        5.6093        5.6094       5.601747       0.11821
  28     23.16        0.0076        0.0000        5.5524        5.5524       5.544821       0.11008
  27     28.12        0.0076        0.0000        5.4935        5.4935       5.485942       0.10009
  26     33.73        0.0076        0.0000        5.4348        5.4349       5.427253       0.08824
  25     40.54        0.0076        0.0001        5.3707        5.3708       5.363192       0.07948
  24     48.69        0.0076        0.0001        5.2985        5.2985       5.290958       0.07475
  23     57.69        0.0076        0.0001        5.2215        5.2216       5.214020       0.07212
  22     68.43        0.0076        0.0001        5.1318        5.1319       5.124359       0.07048
  21     81.20        0.0075        0.0001        5.0284        5.0285       5.020930       0.06834
  20     96.49        0.0075        0.0001        4.9122        4.9123       4.904796       0.06410
  19     114.6        0.0075        0.0001        4.7780        4.7782       4.770685       0.06262
  18     136.5        0.0075        0.0002        4.6285        4.6287       4.621206       0.05748
  17     162.9        0.0074        0.0002        4.4406        4.4407       4.433294       0.06006
  16     196.4        0.0074        0.0002        4.1548        4.1550       4.147619       0.07191
  15     218.7        0.0074        0.0002        3.9564        3.9566       3.949237       0.07532
  14     243.0        0.0074        0.0002        3.7055        3.7058       3.698398       0.08700
  13     269.0        0.0074        0.0002        3.3399        3.3401       3.332750       0.11861
  12     297.5        0.0074        0.0002        2.8954        2.8956       2.888239       0.13184
  11     328.5        0.0074        0.0002        2.4388        2.4390       2.431657       0.12414
  10     361.9        0.0075        0.0002        2.0269        2.0271       2.019641       0.10424
   9     398.1        0.0076        0.0002        1.6753        1.6755       1.667919       0.08194
   8     437.6        0.0078        0.0002        1.3592        1.3594       1.351566       0.06764
   7     480.5        0.0082        0.0002        1.0616        1.0618       1.053559       0.05853
   6     533.0        0.0091        0.0001        0.7543        0.7544       0.745350       0.04958
   5     589.8        0.0107        0.0001        0.4951        0.4952       0.484545       0.03871
   4     651.6        0.0138        0.0001        0.2943        0.2943       0.280507       0.02790
   3     718.7        0.0200        0.0001        0.1528        0.1529       0.132830       0.01856
   2     792.3        0.0327        0.0000        0.0658        0.0658       0.033127       0.01143
   1     891.5        0.0001        0.0051        0.0000        0.0051       0.005016       0.00239
   0    1013.0        0.0003        0.0012        0.0000        0.0012       0.000905       0.00029



 Wavenumbers:  4000. -  4650. cm-1, ATM      1
 LEVEL PRESSURE   UPWARD FLUX   DIFDOWN FLUX  DIRDOWN FLUX  DOWNWARD FLUX   NET FLUX    HEATING RATE
          mb          W/m2          W/m2          W/m2        W/m2          W/m2       degree/day
  51    .06700        3.4659        0.0000        6.9421        6.9421       3.476201       0.00000
  50    .07753        3.4659        0.0000        6.9421        6.9421       3.476200       0.00079
  49    .09103        3.4659        0.0000        6.9421        6.9421       3.476199       0.00078
  48    0.1069        3.4659        0.0000        6.9421        6.9421       3.476197       0.00076
  47    0.1255        3.4659        0.0000        6.9421        6.9421       3.476196       0.00074
  46    0.1487        3.4659        0.0000        6.9421        6.9421       3.476194       0.00075
  45    0.1794        3.4659        0.0000        6.9421        6.9421       3.476191       0.00077
  44    0.2165        3.4659        0.0000        6.9421        6.9421       3.476188       0.00076
  43    0.2613        3.4659        0.0000        6.9420        6.9420       3.476184       0.00074
  42    0.3336        3.4659        0.0000        6.9420        6.9420       3.476177       0.00076
  41    0.4307        3.4659        0.0000        6.9420        6.9420       3.476168       0.00077
  40    0.5894        3.4659        0.0000        6.9420        6.9420       3.476153       0.00079
  39     1.339        3.4659        0.0000        6.9419        6.9419       3.476065       0.00100
  38     1.782        3.4659        0.0000        6.9418        6.9419       3.475995       0.00132
  37     2.292        3.4659        0.0000        6.9418        6.9418       3.475902       0.00155
  36     2.964        3.4659        0.0000        6.9416        6.9416       3.475762       0.00175
  35     3.853        3.4659        0.0000        6.9414        6.9414       3.475555       0.00196
  34     5.035        3.4659        0.0000        6.9411        6.9411       3.475251       0.00218
  33     6.613        3.4658        0.0000        6.9406        6.9407       3.474803       0.00240
  32     8.786        3.4658        0.0000        6.9399        6.9400       3.474142       0.00257
  31     11.80        3.4658        0.0001        6.9389        6.9389       3.473106       0.00290
  30     15.07        3.4658        0.0001        6.9377        6.9377       3.471894       0.00313
  29     18.79        3.4658        0.0001        6.9362        6.9363       3.470433       0.00331
  28     23.16        3.4658        0.0001        6.9343        6.9344       3.468625       0.00350
  27     28.12        3.4658        0.0001        6.9321        6.9323       3.466446       0.00371
  26     33.73        3.4658        0.0001        6.9294        6.9296       3.463770       0.00402
  25     40.54        3.4658        0.0002        6.9258        6.9260       3.460161       0.00448
  24     48.69        3.4658        0.0002        6.9210        6.9212       3.455380       0.00495
  23     57.69        3.4659        0.0002        6.9154        6.9156       3.449750       0.00528
  22     68.43        3.4659        0.0003        6.9083        6.9086       3.442746       0.00551
  21     81.20        3.4660        0.0003        6.8998        6.9001       3.434171       0.00567
  20     96.49        3.4661        0.0004        6.8894        6.8899       3.423801       0.00572
  19     114.6        3.4662        0.0005        6.8765        6.8770       3.410795       0.00607
  18     136.5        3.4665        0.0006        6.8610        6.8616       3.395074       0.00605
  17     162.9        3.4669        0.0007        6.8417        6.8424       3.375461       0.00627
  16     196.4        3.4676        0.0008        6.8147        6.8155       3.347857       0.00695
  15     218.7        3.4683        0.0009        6.7948        6.7958       3.327460       0.00774
  14     243.0        3.4693        0.0010        6.7698        6.7708       3.301517       0.00900
  13     269.0        3.4709        0.0011        6.7349        6.7360       3.265118       0.01181
  12     297.5        3.4732        0.0012        6.6869        6.6881       3.214863       0.01491
  11     328.5        3.4766        0.0014        6.6194        6.6207       3.144125       0.01923
  10     361.9        3.4811        0.0015        6.5295        6.5309       3.049875       0.02385
   9     398.1        3.4870        0.0016        6.4202        6.4218       2.934856       0.02680
   8     437.6        3.4949        0.0018        6.2962        6.2979       2.803031       0.02818
   7     480.5        3.5059        0.0019        6.1555        6.1574       2.651458       0.02977
   6     533.0        3.5240        0.0021        5.9675        5.9696       2.445548       0.03312
   5     589.8        3.5508        0.0022        5.7368        5.7390       2.188210       0.03820
   4     651.6        3.5907        0.0024        5.4662        5.4686       1.877918       0.04243
   3     718.7        3.6478        0.0025        5.1912        5.1937       1.545971       0.04172
   2     792.3        3.7267        0.0027        4.9395        4.9422       1.215479       0.03790
   1     891.5        0.3176        1.3750        0.0009        1.3759       1.058253       0.01338
   0    1013.0        0.3300        1.3151        0.0008        1.3159       0.985996       0.00502



 Wavenumbers:  4650. -  5150. cm-1, ATM      1
 LEVEL PRESSURE   UPWARD FLUX   DIFDOWN FLUX  DIRDOWN FLUX  DOWNWARD FLUX   NET FLUX    HEATING RATE
          mb          W/m2          W/m2          W/m2        W/m2          W/m2       degree/day
  51    .06700        2.4269        0.0000        6.5710        6.5710       4.144054       0.00000
  50    .07753        2.4269        0.0000        6.5708        6.5708       4.143818       0.18887
  49    .09103        2.4269        0.0000        6.5705        6.5705       4.143524       0.18362
  48    0.1069        2.4269        0.0000        6.5701        6.5701       4.143190       0.17806
  47    0.1255        2.4269        0.0000        6.5697        6.5697       4.142810       0.17238
  46    0.1487        2.4269        0.0000        6.5693        6.5693       4.142336       0.17268
  45    0.1794        2.4269        0.0000        6.5686        6.5686       4.141699       0.17474
  44    0.2165        2.4269        0.0000        6.5679        6.5679       4.140961       0.16788
  43    0.2613        2.4269        0.0000        6.5670        6.5670       4.140108       0.16078
  42    0.3336        2.4269        0.0000        6.5657        6.5657       4.138745       0.15894
  41    0.4307        2.4269        0.0000        6.5640        6.5640       4.137023       0.14971
  40    0.5894        2.4269        0.0000        6.5613        6.5613       4.134407       0.13913
  39     1.339        2.4269        0.0000        6.5516        6.5516       4.124629       0.11008
  38     1.782        2.4269        0.0000        6.5473        6.5473       4.120413       0.08027
  37     2.292        2.4269        0.0000        6.5434        6.5435       4.116526       0.06438
  36     2.964        2.4269        0.0000        6.5395        6.5395       4.112571       0.04965
  35     3.853        2.4269        0.0000        6.5355        6.5356       4.108627       0.03743
  34     5.035        2.4269        0.0000        6.5315        6.5315       4.104623       0.02860
  33     6.613        2.4269        0.0000        6.5271        6.5271       4.100226       0.02351
  32     8.786        2.4269        0.0001        6.5216        6.5216       4.094726       0.02136
  31     11.80        2.4269        0.0001        6.5135        6.5136       4.086638       0.02264
  30     15.07        2.4269        0.0001        6.5041        6.5042       4.077257       0.02422
  29     18.79        2.4269        0.0001        6.4925        6.4926       4.065724       0.02615
  28     23.16        2.4269        0.0001        6.4779        6.4780       4.051107       0.02826
  27     28.12        2.4270        0.0002        6.4599        6.4601       4.033098       0.03061
  26     33.73        2.4270        0.0002        6.4384        6.4386       4.011622       0.03229
  25     40.54        2.4270        0.0003        6.4112        6.4115       3.984434       0.03373
  24     48.69        2.4271        0.0003        6.3775        6.3778       3.950708       0.03490
  23     57.69        2.4272        0.0004        6.3404        6.3407       3.913504       0.03487
  22     68.43        2.4274        0.0004        6.2971        6.2976       3.870158       0.03408
  21     81.20        2.4276        0.0005        6.2483        6.2488       3.821130       0.03240
  20     96.49        2.4280        0.0006        6.1948        6.1954       3.767465       0.02962
  19     114.6        2.4284        0.0007        6.1381        6.1388       3.710426       0.02663
  18     136.5        2.4291        0.0008        6.0790        6.0798       3.650762       0.02294
  17     162.9        2.4300        0.0010        6.0160        6.0170       3.587031       0.02037
  16     196.4        2.4314        0.0012        5.9399        5.9410       3.509595       0.01949
  15     218.7        2.4326        0.0013        5.8896        5.8909       3.458317       0.01947
  14     243.0        2.4341        0.0014        5.8322        5.8336       3.399465       0.02041
  13     269.0        2.4363        0.0016        5.7624        5.7640       3.327626       0.02330
  12     297.5        2.4395        0.0017        5.6767        5.6784       3.238979       0.02629
  11     328.5        2.4437        0.0019        5.5726        5.5745       3.130732       0.02943
  10     361.9        2.4495        0.0020        5.4473        5.4493       2.999853       0.03311
   9     398.1        2.4572        0.0022        5.2995        5.3017       2.844425       0.03621
   8     437.6        2.4676        0.0023        5.1275        5.1298       2.662166       0.03897
   7     480.5        2.4819        0.0025        4.9290        4.9315       2.449609       0.04175
   6     533.0        2.5044        0.0027        4.6794        4.6821       2.177666       0.04375
   5     589.8        2.5360        0.0028        4.4188        4.4216       1.885647       0.04335
   4     651.6        2.5809        0.0030        4.1521        4.1551       1.574159       0.04260
   3     718.7        2.6424        0.0032        3.8929        3.8961       1.253663       0.04028
   2     792.3        2.7251        0.0033        3.6469        3.6502       0.925085       0.03768
   1     891.5        0.2223        0.9893        0.0006        0.9899       0.767653       0.01340
   0    1013.0        0.2339        0.9324        0.0006        0.9330       0.699028       0.00476



 Wavenumbers:  5150. -  6150. cm-1, ATM      1
 LEVEL PRESSURE   UPWARD FLUX   DIFDOWN FLUX  DIRDOWN FLUX  DOWNWARD FLUX   NET FLUX    HEATING RATE
          mb          W/m2          W/m2          W/m2        W/m2          W/m2       degree/day
  51    .06700        6.0058        0.0000       16.4735       16.4735      10.467720       0.00000
  50    .07753        6.0058        0.0000       16.4735       16.4735      10.467686       0.02764
  49    .09103        6.0058        0.0000       16.4734       16.4734      10.467641       0.02813
  48    0.1069        6.0058        0.0000       16.4734       16.4734      10.467587       0.02862
  47    0.1255        6.0058        0.0000       16.4733       16.4733      10.467523       0.02907
  46    0.1487        6.0058        0.0000       16.4732       16.4732      10.467439       0.03062
  45    0.1794        6.0058        0.0000       16.4731       16.4731      10.467320       0.03271
  44    0.2165        6.0058        0.0000       16.4730       16.4730      10.467173       0.03333
  43    0.2613        6.0058        0.0000       16.4728       16.4728      10.466994       0.03378
  42    0.3336        6.0058        0.0000       16.4725       16.4725      10.466688       0.03567
  41    0.4307        6.0058        0.0000       16.4720       16.4720      10.466269       0.03648
  40    0.5894        6.0058        0.0000       16.4713       16.4713      10.465567       0.03731
  39     1.339        6.0058        0.0000       16.4679       16.4679      10.462155       0.03841
  38     1.782        6.0058        0.0000       16.4659       16.4659      10.460154       0.03811
  37     2.292        6.0058        0.0001       16.4635       16.4636      10.457859       0.03800
  36     2.964        6.0057        0.0001       16.4605       16.4606      10.454885       0.03733
  35     3.853        6.0057        0.0001       16.4567       16.4568      10.451025       0.03663
  34     5.035        6.0057        0.0001       16.4516       16.4517      10.446018       0.03577
  33     6.613        6.0057        0.0002       16.4451       16.4453      10.439542       0.03462
  32     8.786        6.0057        0.0003       16.4367       16.4369      10.431208       0.03237
  31     11.80        6.0057        0.0003       16.4254       16.4257      10.420022       0.03132
  30     15.07        6.0057        0.0004       16.4141       16.4146      10.408894       0.02873
  29     18.79        6.0056        0.0005       16.4024       16.4030      10.397323       0.02623
  28     23.16        6.0056        0.0007       16.3900       16.3906      10.384999       0.02383
  27     28.12        6.0056        0.0008       16.3771       16.3779      10.372259       0.02166
  26     33.73        6.0056        0.0010       16.3641       16.3651      10.359439       0.01928
  25     40.54        6.0057        0.0012       16.3502       16.3513      10.345669       0.01708
  24     48.69        6.0057        0.0014       16.3354       16.3367      10.331023       0.01516
  23     57.69        6.0058        0.0016       16.3211       16.3227      10.316915       0.01322
  22     68.43        6.0059        0.0020       16.3062       16.3082      10.302264       0.01152
  21     81.20        6.0061        0.0023       16.2903       16.2926      10.286543       0.01039
  20     96.49        6.0063        0.0027       16.2726       16.2754      10.269064       0.00965
  19     114.6        6.0066        0.0033       16.2521       16.2553      10.248753       0.00948
  18     136.5        6.0069        0.0039       16.2245       16.2284      10.221482       0.01049
  17     162.9        6.0074        0.0046       16.1747       16.1793      10.171937       0.01584
  16     196.4        6.0081        0.0055       16.0518       16.0574      10.049282       0.03087
  15     218.7        6.0086        0.0061       15.8984       15.9045       9.895899       0.05823
  14     243.0        6.0093        0.0067       15.6153       15.6220       9.612720       0.09822
  13     269.0        6.0102        0.0073       15.1390       15.1463       9.136076       0.15462
  12     297.5        6.0116        0.0078       14.5779       14.5857       8.574126       0.16667
  11     328.5        6.0137        0.0084       13.8780       13.8864       7.872673       0.19072
  10     361.9        6.0169        0.0089       13.0814       13.0903       7.073419       0.20222
   9     398.1        6.0215        0.0093       12.2728       12.2821       6.260654       0.18936
   8     437.6        6.0283        0.0097       11.4776       11.4873       5.458942       0.17141
   7     480.5        6.0389        0.0101       10.7300       10.7400       4.701153       0.14883
   6     533.0        6.0578        0.0105       10.0326       10.0432       3.985328       0.11515
   5     589.8        6.0881        0.0111        9.5050        9.5162       3.428099       0.08271
   4     651.6        6.1369        0.0118        9.0814        9.0932       2.956317       0.06452
   3     718.7        6.2119        0.0126        8.7024        8.7150       2.503103       0.05696
   2     792.3        6.3230        0.0135        8.3379        8.3514       2.028385       0.05444
   1     891.5        0.5556        2.3527        0.0015        2.3542       1.798618       0.01955
   0    1013.0        0.5699        2.2716        0.0014        2.2731       1.703140       0.00663



 Wavenumbers:  6150. -  7700. cm-1, ATM      1
 LEVEL PRESSURE   UPWARD FLUX   DIFDOWN FLUX  DIRDOWN FLUX  DOWNWARD FLUX   NET FLUX    HEATING RATE
          mb          W/m2          W/m2          W/m2        W/m2          W/m2       degree/day
  51    .06700        9.3577        0.0000       30.4684       30.4684      21.110703       0.00000
  50    .07753        9.3577        0.0000       30.4683       30.4683      21.110651       0.04144
  49    .09103        9.3577        0.0000       30.4683       30.4683      21.110585       0.04174
  48    0.1069        9.3577        0.0000       30.4682       30.4682      21.110506       0.04202
  47    0.1255        9.3577        0.0000       30.4681       30.4681      21.110412       0.04227
  46    0.1487        9.3577        0.0000       30.4680       30.4680      21.110291       0.04411
  45    0.1794        9.3577        0.0000       30.4678       30.4678      21.110121       0.04669
  44    0.2165        9.3577        0.0000       30.4676       30.4676      21.109914       0.04715
  43    0.2613        9.3577        0.0000       30.4673       30.4673      21.109662       0.04744
  42    0.3336        9.3577        0.0000       30.4669       30.4669      21.109236       0.04974
  41    0.4307        9.3576        0.0000       30.4663       30.4663      21.108655       0.05052
  40    0.5894        9.3576        0.0001       30.4653       30.4653      21.107687       0.05146
  39     1.339        9.3576        0.0002       30.4604       30.4606      21.103003       0.05273
  38     1.782        9.3575        0.0002       30.4576       30.4578      21.100254       0.05235
  37     2.292        9.3575        0.0003       30.4543       30.4546      21.097095       0.05231
  36     2.964        9.3574        0.0003       30.4501       30.4504      21.092988       0.05156
  35     3.853        9.3573        0.0005       30.4445       30.4450      21.087630       0.05084
  34     5.035        9.3572        0.0006       30.4373       30.4379      21.080631       0.05000
  33     6.613        9.3571        0.0008       30.4278       30.4286      21.071483       0.04890
  32     8.786        9.3569        0.0010       30.4154       30.4164      21.059530       0.04642
  31     11.80        9.3566        0.0014       30.3984       30.3998      21.043144       0.04588
  30     15.07        9.3563        0.0018       30.3810       30.3828      21.026430       0.04315
  29     18.79        9.3560        0.0022       30.3623       30.3645      21.008529       0.04059
  28     23.16        9.3556        0.0027       30.3417       30.3444      20.988845       0.03806
  27     28.12        9.3552        0.0033       30.3196       30.3229      20.967744       0.03587
  26     33.73        9.3547        0.0040       30.2965       30.3005      20.945823       0.03296
  25     40.54        9.3541        0.0048       30.2708       30.2755      20.921484       0.03020
  24     48.69        9.3533        0.0058       30.2423       30.2480      20.894704       0.02771
  23     57.69        9.3525        0.0068       30.2139       30.2207      20.868133       0.02491
  22     68.43        9.3516        0.0081       30.1834       30.1914      20.839853       0.02223
  21     81.20        9.3505        0.0096       30.1500       30.1596      20.809116       0.02031
  20     96.49        9.3491        0.0114       30.1126       30.1240      20.774887       0.01889
  19     114.6        9.3475        0.0135       30.0695       30.0830      20.735485       0.01840
  18     136.5        9.3456        0.0160       30.0139       30.0299      20.684303       0.01968
  17     162.9        9.3434        0.0190       29.9225       29.9415      20.598069       0.02756
  16     196.4        9.3406        0.0229       29.7333       29.7562      20.415553       0.04594
  15     218.7        9.3389        0.0253       29.5259       29.5512      20.212284       0.07717
  14     243.0        9.3372        0.0279       29.1375       29.1654      19.828191       0.13322
  13     269.0        9.3358        0.0304       28.3800       28.4104      19.074589       0.24446
  12     297.5        9.3352        0.0328       27.3895       27.4223      18.087143       0.29287
  11     328.5        9.3359        0.0351       26.2257       26.2608      16.924879       0.31602
  10     361.9        9.3389        0.0372       24.8453       24.8825      15.543674       0.34946
   9     398.1        9.3453        0.0391       23.3471       23.3862      14.040893       0.35011
   8     437.6        9.3573        0.0408       21.7966       21.8374      12.480111       0.33370
   7     480.5        9.3792        0.0422       20.1977       20.2399      10.860693       0.31805
   6     533.0        9.4223        0.0436       18.4969       18.5406       9.118321       0.28029
   5     589.8        9.4944        0.0451       16.9754       17.0205       7.526075       0.23634
   4     651.6        9.6142        0.0467       15.6022       15.6488       6.034632       0.20396
   3     718.7        9.7997        0.0483       14.4232       14.4715       4.671846       0.17126
   2     792.3       10.0759        0.0503       13.4386       13.4889       3.413008       0.14437
   1     891.5        0.8342        3.6738        0.0024        3.6762       2.842051       0.04859
   0    1013.0        0.8712        3.4725        0.0022        3.4746       2.603434       0.01657



 Wavenumbers:  7700. -  8050. cm-1, ATM      1
 LEVEL PRESSURE   UPWARD FLUX   DIFDOWN FLUX  DIRDOWN FLUX  DOWNWARD FLUX   NET FLUX    HEATING RATE
          mb          W/m2          W/m2          W/m2        W/m2          W/m2       degree/day
  51    .06700        4.4644        0.0000        7.2006        7.2006       2.736194       0.00000
  50    .07753        4.4644        0.0000        7.2006        7.2006       2.736173       0.01659
  49    .09103        4.4644        0.0000        7.2005        7.2005       2.736147       0.01626
  48    0.1069        4.4644        0.0000        7.2005        7.2005       2.736117       0.01592
  47    0.1255        4.4644        0.0000        7.2005        7.2005       2.736083       0.01557
  46    0.1487        4.4644        0.0000        7.2004        7.2005       2.736040       0.01580
  45    0.1794        4.4644        0.0000        7.2004        7.2004       2.735980       0.01626
  44    0.2165        4.4644        0.0000        7.2003        7.2003       2.735910       0.01595
  43    0.2613        4.4644        0.0000        7.2003        7.2003       2.735827       0.01565
  42    0.3336        4.4645        0.0000        7.2001        7.2001       2.735690       0.01602
  41    0.4307        4.4645        0.0000        7.2000        7.2000       2.735508       0.01584
  40    0.5894        4.4645        0.0000        7.1997        7.1997       2.735210       0.01582
  39     1.339        4.4647        0.0001        7.1984        7.1985       2.733803       0.01584
  38     1.782        4.4648        0.0001        7.1977        7.1978       2.732977       0.01573
  37     2.292        4.4649        0.0001        7.1968        7.1969       2.732020       0.01584
  36     2.964        4.4651        0.0002        7.1957        7.1959       2.730765       0.01576
  35     3.853        4.4653        0.0002        7.1942        7.1944       2.729107       0.01573
  34     5.035        4.4656        0.0003        7.1922        7.1925       2.726907       0.01572
  33     6.613        4.4660        0.0003        7.1896        7.1899       2.723969       0.01570
  32     8.786        4.4665        0.0004        7.1860        7.1865       2.720016       0.01535
  31     11.80        4.4672        0.0006        7.1810        7.1816       2.714371       0.01580
  30     15.07        4.4680        0.0008        7.1755        7.1763       2.708324       0.01561
  29     18.79        4.4689        0.0010        7.1694        7.1704       2.701511       0.01545
  28     23.16        4.4699        0.0012        7.1623        7.1635       2.693580       0.01534
  27     28.12        4.4711        0.0014        7.1542        7.1557       2.684543       0.01536
  26     33.73        4.4725        0.0017        7.1452        7.1470       2.674474       0.01514
  25     40.54        4.4741        0.0021        7.1344        7.1365       2.662372       0.01501
  24     48.69        4.4761        0.0025        7.1215        7.1240       2.647872       0.01500
  23     57.69        4.4783        0.0029        7.1074        7.1104       2.632059       0.01482
  22     68.43        4.4810        0.0035        7.0909        7.0944       2.613381       0.01468
  21     81.20        4.4841        0.0041        7.0713        7.0755       2.591344       0.01456
  20     96.49        4.4880        0.0049        7.0484        7.0533       2.565386       0.01433
  19     114.6        4.4925        0.0058        7.0217        7.0275       2.534973       0.01420
  18     136.5        4.4980        0.0069        6.9906        6.9975       2.499475       0.01365
  17     162.9        4.5046        0.0082        6.9544        6.9626       2.457932       0.01328
  16     196.4        4.5134        0.0098        6.9087        6.9186       2.405169       0.01328
  15     218.7        4.5193        0.0109        6.8794        6.8903       2.371085       0.01294
  14     243.0        4.5257        0.0121        6.8481        6.8602       2.334486       0.01269
  13     269.0        4.5329        0.0134        6.8147        6.8281       2.295205       0.01274
  12     297.5        4.5408        0.0147        6.7791        6.7938       2.253002       0.01252
  11     328.5        4.5496        0.0162        6.7409        6.7571       2.207499       0.01237
  10     361.9        4.5596        0.0178        6.7002        6.7179       2.158368       0.01243
   9     398.1        4.5708        0.0195        6.6563        6.6758       2.104990       0.01244
   8     437.6        4.5835        0.0213        6.6089        6.6302       2.046697       0.01246
   7     480.5        4.5981        0.0232        6.5570        6.5802       1.982138       0.01268
   6     533.0        4.6177        0.0256        6.4915        6.5171       1.899387       0.01331
   5     589.8        4.6411        0.0282        6.4182        6.4464       1.805317       0.01396
   4     651.6        4.6692        0.0309        6.3359        6.3668       1.697560       0.01474
   3     718.7        4.7028        0.0338        6.2441        6.2779       1.575137       0.01539
   2     792.3        4.7422        0.0368        6.1437        6.1805       1.438329       0.01569
   1     891.5        0.4372        1.8011        0.0012        1.8023       1.365049       0.00624
   0    1013.0        0.4442        1.7704        0.0011        1.7715       1.327335       0.00262



 Wavenumbers:  8050. - 12850. cm-1, ATM      1
 LEVEL PRESSURE   UPWARD FLUX   DIFDOWN FLUX  DIRDOWN FLUX  DOWNWARD FLUX   NET FLUX    HEATING RATE
          mb          W/m2          W/m2          W/m2        W/m2          W/m2       degree/day
  51    .06700       57.9208        0.0000      100.8135      100.8135      42.892701       0.00000
  50    .07753       57.9208        0.0000      100.8135      100.8135      42.892701       0.00000
  49    .09103       57.9208        0.0001      100.8134      100.8135      42.892701      -0.00000
  48    0.1069       57.9208        0.0001      100.8134      100.8135      42.892701      -0.00000
  47    0.1255       57.9207        0.0001      100.8133      100.8134      42.892701       0.00000
  46    0.1487       57.9207        0.0002      100.8132      100.8134      42.892701      -0.00000
  45    0.1794       57.9207        0.0003      100.8131      100.8134      42.892701       0.00000
  44    0.2165       57.9206        0.0004      100.8129      100.8133      42.892701      -0.00000
  43    0.2613       57.9205        0.0005      100.8127      100.8132      42.892701       0.00000
  42    0.3336       57.9204        0.0007      100.8125      100.8131      42.892701       0.00000
  41    0.4307       57.9203        0.0009      100.8121      100.8130      42.892701      -0.00000
  40    0.5894       57.9201        0.0013      100.8115      100.8128      42.892701      -0.00000
  39     1.339       57.9190        0.0032      100.8085      100.8117      42.892701       0.00000
  38     1.782       57.9183        0.0043      100.8068      100.8110      42.892701       0.00000
  37     2.292       57.9176        0.0056      100.8047      100.8103      42.892701      -0.00000
  36     2.964       57.9166        0.0072      100.8021      100.8093      42.892701      -0.00000
  35     3.853       57.9154        0.0095      100.7986      100.8081      42.892701       0.00000
  34     5.035       57.9137        0.0124      100.7940      100.8064      42.892701      -0.00000
  33     6.613       57.9114        0.0163      100.7878      100.8041      42.892701       0.00000
  32     8.786       57.9083        0.0216      100.7794      100.8010      42.892701       0.00000
  31     11.80       57.9040        0.0292      100.7674      100.7967      42.892701      -0.00000
  30     15.07       57.8993        0.0374      100.7546      100.7920      42.892701       0.00000
  29     18.79       57.8939        0.0466      100.7400      100.7866      42.892701      -0.00000
  28     23.16       57.8877        0.0574      100.7230      100.7804      42.892701      -0.00000
  27     28.12       57.8806        0.0698      100.7035      100.7733      42.892701       0.00000
  26     33.73       57.8726        0.0836      100.6817      100.7653      42.892701       0.00000
  25     40.54       57.8629        0.1004      100.6552      100.7556      42.892701       0.00000
  24     48.69       57.8513        0.1206      100.6234      100.7440      42.892701      -0.00000
  23     57.69       57.8384        0.1429      100.5883      100.7311      42.892701       0.00000
  22     68.43       57.8231        0.1694      100.5464      100.7158      42.892701       0.00000
  21     81.20       57.8049        0.2010      100.4965      100.6976      42.892701      -0.00000
  20     96.49       57.7831        0.2388      100.4370      100.6758      42.892701       0.00000
  19     114.6       57.7573        0.2837      100.3585      100.6422      42.884913       0.00364
  18     136.5       57.7267        0.3371      100.2634      100.6004      42.873712       0.00431
  17     162.9       57.6903        0.4007      100.1407      100.5413      42.851024       0.00725
  16     196.4       57.6432        0.4833       99.9505      100.4338      42.790592       0.01521
  15     218.7       57.6124        0.5376       99.7889      100.3266      42.714201       0.02900
  14     243.0       57.5793        0.5966       99.5472      100.1438      42.564509       0.05192
  13     269.0       57.5451        0.6602       99.1452       99.8054      42.260353       0.09867
  12     297.5       57.5111        0.7285       98.5975       99.3259      41.814830       0.13214
  11     328.5       57.4797        0.8016       97.8659       98.6675      41.187819       0.17048
  10     361.9       57.4543        0.8795       96.8848       97.7643      40.309919       0.22212
   9     398.1       57.4398        0.9618       95.6330       96.5948      39.154980       0.26907
   8     437.6       57.4448        1.0482       94.0655       95.1137      37.668874       0.31774
   7     480.5       57.4864        1.1377       92.0807       93.2184      35.731990       0.38040
   6     533.0       57.6000        1.2437       89.4449       90.6886      33.088543       0.42525
   5     589.8       57.8178        1.3536       86.5544       87.9080      30.090164       0.44506
   4     651.6       58.2000        1.4667       83.4174       84.8841      26.684091       0.46579
   3     718.7       58.7974        1.5839       80.2037       81.7875      22.990118       0.46423
   2     792.3       59.6723        1.7058       77.0811       78.7869      19.114586       0.44448
   1     891.5        5.3150       22.4787        0.0142       22.4928      17.177797       0.16481
   0    1013.0        5.4481       21.7153        0.0133       21.7286      16.280496       0.06230



 Wavenumbers: 12850. - 16000. cm-1, ATM      1
 LEVEL PRESSURE   UPWARD FLUX   DIFDOWN FLUX  DIRDOWN FLUX  DOWNWARD FLUX   NET FLUX    HEATING RATE
          mb          W/m2          W/m2          W/m2        W/m2          W/m2       degree/day
  51    .06700       44.1979        0.0000       63.1686       63.1686      18.970657       0.00000
  50    .07753       44.1979        0.0001       63.1677       63.1678      18.969875       0.62671
  49    .09103       44.1979        0.0001       63.1666       63.1668      18.968900       0.60936
  48    0.1069       44.1978        0.0002       63.1654       63.1656      18.967789       0.59127
  47    0.1255       44.1978        0.0003       63.1640       63.1643      18.966525       0.57314
  46    0.1487       44.1978        0.0004       63.1623       63.1627      18.964947       0.57522
  45    0.1794       44.1978        0.0006       63.1600       63.1606      18.962829       0.58147
  44    0.2165       44.1977        0.0008       63.1573       63.1581      18.960377       0.55782
  43    0.2613       44.1977        0.0011       63.1542       63.1553      18.957545       0.53386
  42    0.3336       44.1977        0.0015       63.1493       63.1507      18.953024       0.52702
  41    0.4307       44.1978        0.0020       63.1431       63.1451      18.947359       0.49260
  40    0.5894       44.1979        0.0028       63.1338       63.1367      18.938749       0.45787
  39     1.339       44.2003        0.0069       63.0956       63.1025      18.902157       0.41196
  38     1.782       44.2030        0.0093       63.0740       63.0833      18.880363       0.41493
  37     2.292       44.2072        0.0121       63.0477       63.0597      18.852575       0.46024
  36     2.964       44.2144        0.0157       63.0095       63.0252      18.810819       0.52417
  35     3.853       44.2264        0.0205       62.9533       62.9737      18.747309       0.60272
  34     5.035       44.2448        0.0268       62.8725       62.8994      18.654512       0.66290
  33     6.613       44.2707        0.0353       62.7621       62.7974      18.526738       0.68308
  32     8.786       44.3041        0.0467       62.6182       62.6650      18.360837       0.64430
  31     11.80       44.3473        0.0630       62.4284       62.4914      18.144098       0.60680
  30     15.07       44.3880        0.0805       62.2426       62.3231      17.935046       0.53973
  29     18.79       44.4291        0.1001       62.0493       62.1494      17.720378       0.48672
  28     23.16       44.4712        0.1231       61.8424       61.9655      17.494303       0.43716
  27     28.12       44.5127        0.1492       61.6278       61.7770      17.264367       0.39088
  26     33.73       44.5494        0.1784       61.4177       61.5961      17.046687       0.32729
  25     40.54       44.5827        0.2137       61.1983       61.4120      16.829314       0.26968
  24     48.69       44.6119        0.2561       60.9680       61.2241      16.612184       0.22470
  23     57.69       44.6336        0.3027       60.7478       61.0505      16.416917       0.18303
  22     68.43       44.6480        0.3581       60.5202       60.8783      16.230285       0.14672
  21     81.20       44.6497        0.4241       60.2938       60.7180      16.068280       0.10705
  20     96.49       44.6373        0.5028       60.0643       60.5671      15.929763       0.07645
  19     114.6       44.6222        0.5967       59.8078       60.4045      15.782297       0.06886
  18     136.5       44.5981        0.7079       59.5157       60.2237      15.625535       0.06028
  17     162.9       44.5637        0.8400       59.1770       60.0171      15.453368       0.05503
  16     196.4       44.5069        1.0109       58.7604       59.7714      15.264458       0.04755
  15     218.7       44.4653        1.1229       58.4948       59.6177      15.152397       0.04255
  14     243.0       44.4184        1.2444       58.2089       59.4533      15.034974       0.04073
  13     269.0       44.3660        1.3759       57.9006       59.2764      14.910399       0.04041
  12     297.5       44.3087        1.5176       57.5668       59.0844      14.775716       0.03995
  11     328.5       44.2477        1.6704       57.2005       58.8709      14.623170       0.04148
  10     361.9       44.1843        1.8344       56.7963       58.6308      14.446478       0.04471
   9     398.1       44.1198        2.0104       56.3475       58.3579      14.238132       0.04854
   8     437.6       44.0571        2.1986       55.8422       58.0408      13.983660       0.05441
   7     480.5       44.0016        2.3990       55.2625       57.6616      13.659905       0.06358
   6     533.0       43.9531        2.6437       54.4972       57.1409      13.187820       0.07594
   5     589.8       43.9258        2.9042       53.6307       56.5349      12.609100       0.08590
   4     651.6       43.9317        3.1797       52.6606       55.8402      11.908568       0.09580
   3     718.7       43.9784        3.4705       51.6100       55.0805      11.102132       0.10135
   2     792.3       44.0761        3.7765       50.5019       54.2784      10.202285       0.10320
   1     891.5       11.6104       21.2620        0.0095       21.2714       9.660996       0.04606
   0    1013.0       11.7044       20.9774        0.0091       20.9865       9.282106       0.02631



 Wavenumbers: 16000. - 22650. cm-1, ATM      1
 LEVEL PRESSURE   UPWARD FLUX   DIFDOWN FLUX  DIRDOWN FLUX  DOWNWARD FLUX   NET FLUX    HEATING RATE
          mb          W/m2          W/m2          W/m2        W/m2          W/m2       degree/day
  51    .06700       79.8540        0.0000      100.7153      100.7153      20.861353       0.00000
  50    .07753       79.8538        0.0003      100.7147      100.7151      20.861234       0.09558
  49    .09103       79.8537        0.0007      100.7140      100.7147      20.861061       0.10841
  48    0.1069       79.8535        0.0012      100.7131      100.7144      20.860828       0.12362
  47    0.1255       79.8534        0.0018      100.7121      100.7139      20.860518       0.14091
  46    0.1487       79.8532        0.0025      100.7108      100.7132      20.860059       0.16697
  45    0.1794       79.8529        0.0034      100.7089      100.7123      20.859343       0.19660
  44    0.2165       79.8527        0.0045      100.7066      100.7111      20.858372       0.22095
  43    0.2613       79.8525        0.0059      100.7037      100.7095      20.857054       0.24840
  42    0.3336       79.8522        0.0081      100.6987      100.7067      20.854549       0.29211
  41    0.4307       79.8520        0.0110      100.6918      100.7027      20.850772       0.32836
  40    0.5894       79.8519        0.0157      100.6797      100.6955      20.843570       0.38300
  39     1.339       79.8573        0.0382      100.6095      100.6477      20.790370       0.59894
  38     1.782       79.8648        0.0514      100.5585      100.6099      20.745063       0.86257
  37     2.292       79.8775        0.0667      100.4903      100.5570      20.679501       1.08588
  36     2.964       79.9002        0.0868      100.3868      100.4735      20.573338       1.33267
  35     3.853       79.9388        0.1132      100.2306      100.3438      20.404999       1.59756
  34     5.035       79.9987        0.1483      100.0045      100.1528      20.154114       1.79222
  33     6.613       80.0830        0.1951       99.6939       99.8889      19.805970       1.86117
  32     8.786       80.1922        0.2580       99.2881       99.5460      19.353851       1.75587
  31     11.80       80.3318        0.3476       98.7496       99.0973      18.765480       1.64725
  30     15.07       80.4623        0.4436       98.2198       98.6634      18.201130       1.45704
  29     18.79       80.5923        0.5516       97.6651       98.2167      17.624415       1.30759
  28     23.16       80.7242        0.6773       97.0671       97.7445      17.020300       1.16816
  27     28.12       80.8515        0.8205       96.4406       97.2611      16.409608       1.03814
  26     33.73       80.9603        0.9803       95.8179       96.7982      15.837843       0.85966
  25     40.54       81.0529        1.1727       95.1548       96.3275      15.274572       0.69880
  24     48.69       81.1269        1.4037       94.4420       95.8457      14.718812       0.57512
  23     57.69       81.1717        1.6565       93.7416       95.3981      14.226351       0.46161
  22     68.43       81.1860        1.9563       92.9954       94.9516      13.765598       0.36221
  21     81.20       81.1496        2.3121       92.2231       94.5353      13.385715       0.25102
  20     96.49       81.0567        2.7343       91.4110       94.1452      13.088574       0.16400
  19     114.6       80.9219        3.2321       90.5070       93.7391      12.817174       0.12672
  18     136.5       80.7464        3.8173       89.4803       93.2975      12.551149       0.10229
  17     162.9       80.5237        4.5073       88.3022       92.8095      12.285738       0.08484
  16     196.4       80.2045        5.3919       86.8606       92.2526      12.048101       0.05982
  15     218.7       79.9844        5.9667       85.9492       91.9159      11.931497       0.04427
  14     243.0       79.7414        6.5859       84.9789       91.5649      11.823522       0.03745
  13     269.0       79.4742        7.2506       83.9493       91.1998      11.725684       0.03174
  12     297.5       79.1823        7.9614       82.8589       90.8204      11.638093       0.02598
  11     328.5       78.8673        8.7211       81.6982       90.4193      11.552019       0.02340
  10     361.9       78.5292        9.5292       80.4669       89.9961      11.466901       0.02154
   9     398.1       78.1675       10.3878       79.1611       89.5489      11.381471       0.01990
   8     437.6       77.7827       11.2972       77.7777       89.0750      11.292302       0.01906
   7     480.5       77.3754       12.2578       76.3136       88.5715      11.196085       0.01890
   6     533.0       76.8824       13.4204       74.5359       87.9562      11.073817       0.01967
   5     589.8       76.3628       14.6492       72.6469       87.2961      10.933297       0.02086
   4     651.6       75.8194       15.9423       70.6456       86.5879      10.768495       0.02254
   3     718.7       75.2529       17.2977       68.5367       85.8344      10.581476       0.02350
   2     792.3       74.6663       18.7100       66.3287       85.0387      10.372410       0.02398
   1     891.5       36.7436       46.9471        0.0123       46.9593      10.215752       0.01333
   0    1013.0       36.6891       46.7437        0.0116       46.7553      10.066175       0.01039



 Wavenumbers: 22650. - 29000. cm-1, ATM      1
 LEVEL PRESSURE   UPWARD FLUX   DIFDOWN FLUX  DIRDOWN FLUX  DOWNWARD FLUX   NET FLUX    HEATING RATE
          mb          W/m2          W/m2          W/m2        W/m2          W/m2       degree/day
  51    .06700       33.9908        0.0000       38.0063       38.0063       4.015531       0.00000
  50    .07753       33.9906        0.0004       38.0057       38.0061       4.015531       0.00000
  49    .09103       33.9904        0.0009       38.0050       38.0059       4.015531      -0.00000
  48    0.1069       33.9901        0.0014       38.0042       38.0057       4.015531      -0.00000
  47    0.1255       33.9899        0.0021       38.0033       38.0054       4.015531       0.00000
  46    0.1487       33.9895        0.0029       38.0022       38.0050       4.015531      -0.00000
  45    0.1794       33.9890        0.0040       38.0006       38.0046       4.015531       0.00000
  44    0.2165       33.9885        0.0053       37.9987       38.0040       4.015531      -0.00000
  43    0.2613       33.9878        0.0068       37.9965       38.0033       4.015531       0.00000
  42    0.3336       33.9867        0.0094       37.9928       38.0022       4.015531       0.00000
  41    0.4307       33.9852        0.0127       37.9880       38.0007       4.015531       0.00000
  40    0.5894       33.9828        0.0183       37.9800       37.9983       4.015531      -0.00000
  39     1.339       33.9714        0.0444       37.9425       37.9869       4.015531       0.00000
  38     1.782       33.9647        0.0598       37.9204       37.9802       4.015531      -0.00000
  37     2.292       33.9569        0.0775       37.8949       37.9724       4.015531       0.00000
  36     2.964       33.9467        0.1008       37.8614       37.9623       4.015531      -0.00000
  35     3.853       33.9333        0.1316       37.8172       37.9488       4.015531       0.00000
  34     5.035       33.9155        0.1724       37.7586       37.9310       4.015531      -0.00000
  33     6.613       33.8917        0.2269       37.6803       37.9072       4.015531      -0.00000
  32     8.786       33.8597        0.3002       37.5750       37.8752       4.015531       0.00000
  31     11.80       33.8140        0.4047       37.4249       37.8295       4.015531       0.00000
  30     15.07       33.7651        0.5165       37.2642       37.7806       4.015531       0.00000
  29     18.79       33.7101        0.6423       37.0833       37.7256       4.015531       0.00000
  28     23.16       33.6460        0.7886       36.8730       37.6616       4.015531      -0.00000
  27     28.12       33.5731        0.9549       36.6338       37.5887       4.015531       0.00000
  26     33.73       33.4920        1.1399       36.3677       37.5076       4.015531       0.00000
  25     40.54       33.3947        1.3617       36.0486       37.4102       4.015531       0.00000
  24     48.69       33.2783        1.6266       35.6672       37.2938       4.015531       0.00000
  23     57.69       33.1516        1.9144       35.2527       37.1671       4.015531      -0.00000
  22     68.43       33.0023        2.2529       34.7649       37.0179       4.015531       0.00000
  21     81.20       32.8269        2.6502       34.1922       36.8424       4.015531       0.00000
  20     96.49       32.6211        3.1149       33.5217       36.6366       4.015531      -0.00000
  19     114.6       32.3814        3.6546       32.7424       36.3969       4.015531      -0.00000
  18     136.5       32.1037        4.2777       31.8416       36.1193       4.015531       0.00000
  17     162.9       31.7819        4.9966       30.8008       35.7974       4.015531      -0.00000
  16     196.4       31.3783        5.8932       29.5007       35.3938       4.015531       0.00000
  15     218.7       31.1216        6.4604       28.6767       35.1371       4.015531      -0.00000
  14     243.0       30.8496        7.0584       27.8068       34.8652       4.015531       0.00000
  13     269.0       30.5630        7.6852       26.8933       34.5786       4.015531      -0.00000
  12     297.5       30.2625        8.3387       25.9393       34.2780       4.015531       0.00000
  11     328.5       29.9479        9.0183       24.9451       33.9634       4.015531       0.00000
  10     361.9       29.6206        9.7201       23.9160       33.6362       4.015531      -0.00000
   9     398.1       29.2810       10.4424       22.8541       33.2965       4.015531       0.00000
   8     437.6       28.9302       11.1813       21.7645       32.9457       4.015531       0.00000
   7     480.5       28.5695       11.9329       20.6521       32.5851       4.015531      -0.00000
   6     533.0       28.1459       12.8045       19.3569       32.1614       4.015531      -0.00000
   5     589.8       27.7127       13.6815       18.0467       31.7283       4.015531       0.00000
   4     651.6       27.2726       14.5565       16.7316       31.2881       4.015531      -0.00000
   3     718.7       26.8278       15.4219       15.4214       30.8433       4.015531       0.00000
   2     792.3       26.3813       16.2692       14.1276       30.3968       4.015531      -0.00000
   1     891.5       14.7736       18.7865        0.0024       18.7889       4.015314       0.00002
   0    1013.0       14.6347       18.6480        0.0021       18.6501       4.015314      -0.00000



 Wavenumbers: 29000. - 38000. cm-1, ATM      1
 LEVEL PRESSURE   UPWARD FLUX   DIFDOWN FLUX  DIRDOWN FLUX  DOWNWARD FLUX   NET FLUX    HEATING RATE
          mb          W/m2          W/m2          W/m2        W/m2          W/m2       degree/day
  51    .06700        4.9095        0.0000       13.4026       13.4026       8.493053       0.00000
  50    .07753        4.9093        0.0003       13.3983       13.3986       8.489254       3.04441
  49    .09103        4.9091        0.0007       13.3921       13.3928       8.483735       3.44970
  48    0.1069        4.9088        0.0011       13.3840       13.3851       8.476358       3.92680
  47    0.1255        4.9084        0.0016       13.3733       13.3749       8.466513       4.46321
  46    0.1487        4.9080        0.0022       13.3579       13.3600       8.452071       5.26443
  45    0.1794        4.9074        0.0030       13.3340       13.3371       8.429671       6.14932
  44    0.2165        4.9067        0.0040       13.3024       13.3064       8.399652       6.82883
  43    0.2613        4.9060        0.0052       13.2604       13.2656       8.359597       7.55018
  42    0.3336        4.9047        0.0070       13.1833       13.1903       8.285590       8.62850
  41    0.4307        4.9032        0.0095       13.0729       13.0824       8.179217       9.24889
  40    0.5894        4.9008        0.0134       12.8796       12.8930       7.992172       9.94682
  39     1.339        4.8924        0.0297       11.9165       11.9462       7.053819      10.56415
  38     1.782        4.8891        0.0380       11.4399       11.4779       6.588826       8.85271
  37     2.292        4.8866        0.0469       10.9796       11.0265       6.139876       7.43578
  36     2.964        4.8852        0.0578       10.4786       10.5364       5.651216       6.13417
  35     3.853        4.8859        0.0713        9.9429       10.0142       5.128308       4.96249
  34     5.035        4.8893        0.0881        9.4007        9.4888       4.599497       3.77761
  33     6.613        4.8957        0.1094        8.8752        8.9847       4.088991       2.72917
  32     8.786        4.9045        0.1370        8.3786        8.5156       3.611103       1.85594
  31     11.80        4.9152        0.1748        7.8897        8.0644       3.149238       1.29308
  30     15.07        4.9245        0.2138        7.5108        7.7246       2.800112       0.90138
  29     18.79        4.9331        0.2563        7.1776        7.4339       2.500806       0.67862
  28     23.16        4.9410        0.3041        6.8664        7.1706       2.229590       0.52444
  27     28.12        4.9474        0.3570        6.5780        6.9351       1.987696       0.41120
  26     33.73        4.9498        0.4147        6.3195        6.7342       1.784328       0.30577
  25     40.54        4.9472        0.4827        6.0663        6.5490       1.601763       0.22649
  24     48.69        4.9389        0.5624        5.8128        6.3752       1.436308       0.17122
  23     57.69        4.9249        0.6474        5.5777        6.2251       1.300213       0.12757
  22     68.43        4.9029        0.7458        5.3379        6.0837       1.180793       0.09388
  21     81.20        4.8687        0.8600        5.0965        5.9565       1.087804       0.06145
  20     96.49        4.8210        0.9919        4.8476        5.8396       1.018530       0.03823
  19     114.6        4.7630        1.1414        4.5799        5.7212       0.958205       0.02817
  18     136.5        4.6958        1.3083        4.2891        5.5974       0.901637       0.02175
  17     162.9        4.6190        1.4935        3.9732        5.4666       0.847681       0.01725
  16     196.4        4.5217        1.7152        3.6080        5.3232       0.801530       0.01162
  15     218.7        4.4603        1.8501        3.3898        5.2399       0.779546       0.00835
  14     243.0        4.3965        1.9876        3.1686        5.1561       0.759595       0.00692
  13     269.0        4.3306        2.1265        2.9461        5.0726       0.741990       0.00571
  12     297.5        4.2630        2.2658        2.7239        4.9897       0.726751       0.00452
  11     328.5        4.1944        2.4040        2.5029        4.9068       0.712429       0.00389
  10     361.9        4.1254        2.5398        2.2846        4.8244       0.699047       0.00339
   9     398.1        4.0563        2.6721        2.0708        4.7429       0.686598       0.00290
   8     437.6        3.9875        2.7998        1.8626        4.6624       0.674817       0.00252
   7     480.5        3.9197        2.9214        1.6621        4.5835       0.663832       0.00216
   6     533.0        3.8434        3.0518        1.4437        4.4955       0.652080       0.00189
   5     589.8        3.7694        3.1713        1.2390        4.4103       0.640923       0.00166
   4     651.6        3.6981        3.2783        1.0500        4.3283       0.630207       0.00147
   3     718.7        3.6298        3.3719        0.8778        4.2497       0.619897       0.00130
   2     792.3        3.5648        3.4511        0.7237        4.1748       0.609973       0.00114
   1     891.5        2.1973        2.7977        0.0001        2.7978       0.600523       0.00080
   0    1013.0        2.1585        2.7507        0.0001        2.7507       0.592231       0.00058



 Wavenumbers: 38000. - 50000. cm-1, ATM      1
 LEVEL PRESSURE   UPWARD FLUX   DIFDOWN FLUX  DIRDOWN FLUX  DOWNWARD FLUX   NET FLUX    HEATING RATE
          mb          W/m2          W/m2          W/m2        W/m2          W/m2       degree/day
  51    .06700        0.0051        0.0000        0.8267        0.8267       0.821528       0.00000
  50    .07753        0.0051        0.0001        0.8242        0.8243       0.819196       1.86936
  49    .09103        0.0050        0.0002        0.8207        0.8209       0.815872       2.07705
  48    0.1069        0.0049        0.0002        0.8162        0.8164       0.811514       2.31984
  47    0.1255        0.0048        0.0004        0.8103        0.8106       0.805801       2.59006
  46    0.1487        0.0047        0.0005        0.8018        0.8023       0.797567       3.00143
  45    0.1794        0.0045        0.0007        0.7889        0.7896       0.785013       3.44648
  44    0.2165        0.0044        0.0009        0.7720        0.7729       0.768507       3.75474
  43    0.2613        0.0042        0.0011        0.7500        0.7511       0.746955       4.06246
  42    0.3336        0.0039        0.0015        0.7106        0.7121       0.708267       4.51071
  41    0.4307        0.0035        0.0019        0.6566        0.6584       0.654972       4.63387
  40    0.5894        0.0029        0.0024        0.5680        0.5704       0.567464       4.65357
  39     1.339        0.0015        0.0030        0.2422        0.2452       0.243720       3.64476
  38     1.782        0.0010        0.0026        0.1493        0.1519       0.150889       1.76735
  37     2.292        0.0007        0.0022        0.0924        0.0946       0.093932       0.94336
  36     2.964        0.0005        0.0018        0.0539        0.0557       0.055224       0.48589
  35     3.853        0.0003        0.0013        0.0295        0.0308       0.030502       0.23462
  34     5.035        0.0002        0.0010        0.0154        0.0164       0.016181       0.10230
  33     6.613        0.0001        0.0007        0.0073        0.0080       0.007912       0.04420
  32     8.786        0.0000        0.0004        0.0030        0.0034       0.003390       0.01756
  31     11.80        0.0000        0.0003        0.0010        0.0012       0.001199       0.00613
  30     15.07        0.0000        0.0001        0.0003        0.0005       0.000463       0.00190
  29     18.79        0.0000        0.0001        0.0001        0.0002       0.000182       0.00064
  28     23.16        0.0000        0.0000        0.0000        0.0001       0.000071       0.00022
  27     28.12        0.0000        0.0000        0.0000        0.0000       0.000028       0.00007
  26     33.73        0.0000        0.0000        0.0000        0.0000       0.000011       0.00002
  25     40.54        0.0000        0.0000        0.0000        0.0000       0.000005       0.00001
  24     48.69        0.0000        0.0000        0.0000        0.0000       0.000002       0.00000
  23     57.69        0.0000        0.0000        0.0000        0.0000       0.000001       0.00000
  22     68.43        0.0000        0.0000        0.0000        0.0000       0.000000       0.00000
  21     81.20        0.0000        0.0000        0.0000        0.0000       0.000000       0.00000
  20     96.49        0.0000        0.0000        0.0000        0.0000       0.000000       0.00000
  19     114.6        0.0000        0.0000        0.0000        0.0000       0.000000       0.00000
  18     136.5        0.0000        0.0000        0.0000        0.0000       0.000000       0.00000
  17     162.9        0.0000        0.0000        0.0000        0.0000       0.000000       0.00000
  16     196.4        0.0000        0.0000        0.0000        0.0000       0.000000       0.00000
  15     218.7        0.0000        0.0000        0.0000        0.0000       0.000000       0.00000
  14     243.0        0.0000        0.0000        0.0000        0.0000       0.000000       0.00000
  13     269.0        0.0000        0.0000        0.0000        0.0000       0.000000       0.00000
  12     297.5        0.0000        0.0000        0.0000        0.0000       0.000000       0.00000
  11     328.5        0.0000        0.0000        0.0000        0.0000       0.000000       0.00000
  10     361.9        0.0000        0.0000        0.0000        0.0000       0.000000       0.00000
   9     398.1        0.0000        0.0000        0.0000        0.0000       0.000000       0.00000
   8     437.6        0.0000        0.0000        0.0000        0.0000       0.000000       0.00000
   7     480.5        0.0000        0.0000        0.0000        0.0000       0.000000       0.00000
   6     533.0        0.0000        0.0000        0.0000        0.0000       0.000000       0.00000
   5     589.8        0.0000        0.0000        0.0000        0.0000       0.000000       0.00000
   4     651.6        0.0000        0.0000        0.0000        0.0000       0.000000       0.00000
   3     718.7        0.0000        0.0000        0.0000        0.0000       0.000000       0.00000
   2     792.3        0.0000        0.0000        0.0000        0.0000       0.000000       0.00000
   1     891.5        0.0000        0.0000        0.0000        0.0000       0.000000       0.00000
   0    1013.0        0.0000        0.0000        0.0000        0.0000       0.000000       0.00000



 Wavenumbers:   820. -  2600. cm-1, ATM      1
 LEVEL PRESSURE   UPWARD FLUX   DIFDOWN FLUX  DIRDOWN FLUX  DOWNWARD FLUX   NET FLUX    HEATING RATE
          mb          W/m2          W/m2          W/m2        W/m2          W/m2       degree/day
  51    .06700        0.7235        0.0000        3.8670        3.8670       3.143482       0.00000
  50    .07753        0.7235        0.0000        3.8643        3.8643       3.140765       2.17771
  49    .09103        0.7235        0.0000        3.8635        3.8635       3.139954       0.50639
  48    0.1069        0.7235        0.0000        3.8626        3.8626       3.139064       0.47416
  47    0.1255        0.7235        0.0000        3.8616        3.8616       3.138103       0.43561
  46    0.1487        0.7235        0.0000        3.8605        3.8605       3.136993       0.40439
  45    0.1794        0.7235        0.0000        3.8592        3.8592       3.135658       0.36649
  44    0.2165        0.7235        0.0000        3.8578        3.8578       3.134280       0.31348
  43    0.2613        0.7235        0.0000        3.8564        3.8564       3.132820       0.27524
  42    0.3336        0.7235        0.0000        3.8541        3.8541       3.130589       0.26014
  41    0.4307        0.7235        0.0000        3.8512        3.8512       3.127706       0.25065
  40    0.5894        0.7235        0.0000        3.8465        3.8465       3.122980       0.25136
  39     1.339        0.7235        0.0000        3.8251        3.8251       3.101603       0.24067
  38     1.782        0.7235        0.0000        3.8133        3.8133       3.089789       0.22491
  37     2.292        0.7235        0.0000        3.8003        3.8003       3.076726       0.21635
  36     2.964        0.7235        0.0000        3.7841        3.7841       3.060596       0.20249
  35     3.853        0.7235        0.0000        3.7642        3.7642       3.040679       0.18901
  34     5.035        0.7236        0.0000        3.7395        3.7395       3.015986       0.17640
  33     6.613        0.7236        0.0000        3.7090        3.7090       2.985446       0.16326
  32     8.786        0.7236        0.0000        3.6726        3.6726       2.949048       0.14136
  31     11.80        0.7236        0.0000        3.6320        3.6320       2.908446       0.11367
  30     15.07        0.7236        0.0000        3.6016        3.6016       2.878053       0.07847
  29     18.79        0.7236        0.0000        3.5777        3.5777       2.854146       0.05421
  28     23.16        0.7236        0.0000        3.5564        3.5564       2.832781       0.04131
  27     28.12        0.7236        0.0000        3.5348        3.5348       2.811221       0.03665
  26     33.73        0.7236        0.0000        3.5118        3.5118       2.788172       0.03465
  25     40.54        0.7237        0.0000        3.4849        3.4849       2.761266       0.03338
  24     48.69        0.7237        0.0000        3.4537        3.4537       2.729990       0.03237
  23     57.69        0.7237        0.0000        3.4210        3.4210       2.697291       0.03065
  22     68.43        0.7238        0.0000        3.3844        3.3844       2.660674       0.02879
  21     81.20        0.7238        0.0000        3.3441        3.3441       2.620338       0.02665
  20     96.49        0.7239        0.0000        3.2998        3.2998       2.575927       0.02451
  19     114.6        0.7239        0.0000        3.2506        3.2507       2.526722       0.02298
  18     136.5        0.7240        0.0000        3.1936        3.1936       2.469591       0.02197
  17     162.9        0.7242        0.0000        3.1181        3.1181       2.393949       0.02418
  16     196.4        0.7245        0.0000        3.0090        3.0090       2.284493       0.02755
  15     218.7        0.7247        0.0000        2.9420        2.9420       2.217290       0.02551
  14     243.0        0.7250        0.0000        2.8605        2.8605       2.135436       0.02839
  13     269.0        0.7256        0.0000        2.7419        2.7420       2.016365       0.03863
  12     297.5        0.7265        0.0000        2.5729        2.5729       1.846352       0.05042
  11     328.5        0.7280        0.0000        2.3602        2.3602       1.632196       0.05823
  10     361.9        0.7303        0.0000        2.1524        2.1524       1.422191       0.05313
   9     398.1        0.7334        0.0000        1.9974        1.9974       1.264013       0.03685
   8     437.6        0.7378        0.0000        1.8835        1.8835       1.145686       0.02530
   7     480.5        0.7441        0.0000        1.7734        1.7734       1.029302       0.02286
   6     533.0        0.7545        0.0000        1.6397        1.6398       0.885291       0.02317
   5     589.8        0.7693        0.0000        1.5068        1.5069       0.737583       0.02192
   4     651.6        0.7911        0.0000        1.3807        1.3807       0.589591       0.02024
   3     718.7        0.8204        0.0000        1.2680        1.2681       0.447697       0.01783
   2     792.3        0.8570        0.0000        1.1659        1.1660       0.308990       0.01591
   1     891.5        0.0618        0.3013        0.0002        0.3015       0.239623       0.00590
   0    1013.0        0.0682        0.2718        0.0002        0.2719       0.203762       0.00249

  Modules and versions used in this calculation:

       rrtmg_sw.1col.f90:  $Revision$                    rrtmg_sw_init.f90:  $Revision$        
     rrtmgsw_cldprop.f90:  $Revision$                  rrtmgsw_cldprmc.f90:  NOT USED          
     rrtmg_sw_reftra.f90:  $Revision$                  rrtmg_sw_spcvrt.f90:  NOT USED          
     rrtmg_sw_spcvmc.f90:  NOT USED                    rrtmgsw_setcoef.f90:  NOT USED          
     rrtmg_sw_taumol.f90:  $Revision$                  rrtmg_sw_vrtqdr.f90:  NOT USED          
                rrtatm.f:  NOT USED                             util_xxx.f:  NOT USED          
                 extra.f:  NOT USED                       rrtmg_sw_k_g.f90:  $Revision$        

