

 Wavenumbers:   820. - 50000. cm-1, ATM      1
 LEVEL PRESSURE   UPWARD FLUX   DIFDOWN FLUX  DIRDOWN FLUX  DOWNWARD FLUX   NET FLUX    HEATING RATE
          mb          W/m2          W/m2          W/m2        W/m2          W/m2       degree/day
  51    .06700      267.5814        0.0000      397.8738      397.8738     130.292358       0.00000
  50    .07753      267.5808        0.0012      397.8577      397.8589     130.278065      11.45582
  49    .09103      267.5801        0.0027      397.8418      397.8445     130.264375       8.55697
  48    0.1069      267.5793        0.0043      397.8230      397.8273     130.248024       8.70346
  47    0.1255      267.5784        0.0063      397.7997      397.8060     130.227578       9.26918
  46    0.1487      267.5773        0.0087      397.7676      397.7764     130.199117      10.37464
  45    0.1794      267.5758        0.0121      397.7205      397.7326     130.156818      11.61190
  44    0.2165      267.5741        0.0160      397.6602      397.6763     130.102162      12.43333
  43    0.2613      267.5722        0.0207      397.5829      397.6036     130.031355      13.34683
  42    0.3336      267.5693        0.0283      397.4449      397.4732     129.903898      14.86021
  41    0.4307      267.5658        0.0384      397.2524      397.2908     129.725003      15.55450
  40    0.5894      267.5606        0.0545      396.9253      396.9798     129.419239      16.26014
  39     1.339      267.5479        0.1268      395.4254      395.5521     128.004193      15.93085
  38     1.782      267.5483        0.1673      394.7288      394.8960     127.347693      12.49871
  37     2.292      267.5557        0.2133      394.0572      394.2705     126.714762      10.48299
  36     2.964      267.5758        0.2732      393.3007      393.5739     125.998089       8.99641
  35     3.853      267.6166        0.3514      392.4318      392.7833     125.166645       7.89056
  34     5.035      267.6850        0.4544      391.4441      391.8985     124.213489       6.80895
  33     6.613      267.7841        0.5908      390.3268      390.9176     123.133420       5.77405
  32     8.786      267.9120        0.7733      389.0624      389.8357     121.923619       4.69843
  31     11.80      268.0708        1.0322      387.5500      388.5822     120.511380       3.95382
  30     15.07      268.2130        1.3080      386.1556      387.4636     119.250622       3.25503
  29     18.79      268.3483        1.6171      384.7502      386.3673     118.018949       2.79258
  28     23.16      268.4774        1.9753      383.2686      385.2439     116.766515       2.42180
  27     28.12      268.5910        2.3816      381.7329      384.1145     115.523482       2.11307
  26     33.73      268.6683        2.8330      380.1982      383.0311     114.362817       1.74509
  25     40.54      268.7042        3.3744      378.5384      381.9128     113.208620       1.43191
  24     48.69      268.6922        4.0214      376.7214      380.7429     112.050707       1.19826
  23     57.69      268.6261        4.7255      374.8959      379.6214     110.995368       0.98922
  22     68.43      268.4906        5.5558      372.8999      378.4557     109.965054       0.80996
  21     81.20      268.2509        6.5345      370.7496      377.2841     109.033181       0.61577
  20     96.49      267.8946        7.6861      368.4056      376.0917     108.197105       0.46145
  19     114.6      267.4490        9.0316      365.7513      374.7829     107.333876       0.40307
  18     136.5      266.9057       10.5947      362.7231      373.3178     106.412053       0.35446
  17     162.9      266.2512       12.4124      359.1748      371.5871     105.335944       0.34397
  16     196.4      265.3746       14.7051      354.5718      369.2769     103.902326       0.36086
  15     218.7      264.7952       16.1722      351.4437      367.6158     102.820624       0.41068
  14     243.0      264.1713       17.7331      347.7111      365.4442     101.272916       0.53680
  13     269.0      263.5056       19.3862      342.9441      362.3303      98.824692       0.79419
  12     297.5      262.8024       21.1294      337.4137      358.5431      95.740762       0.91466
  11     328.5      262.0705       22.9645      331.1302      354.0948      92.024252       1.01051
  10     361.9      261.3202       24.8861      324.1219      349.0080      87.687781       1.09717
   9     398.1      260.5624       26.8937      316.6066      343.5002      82.937863       1.10662
   8     437.6      259.8191       28.9827      308.5895      337.5722      77.753062       1.10854
   7     480.5      259.1310       31.1475      299.9349      331.0824      71.951483       1.13941
   6     533.0      258.4610       33.7134      289.7021      323.4156      64.954541       1.12559
   5     589.8      257.9946       36.3639      279.3388      315.7026      57.708088       1.07561
   4     651.6      257.8717       39.0867      268.7786      307.8653      49.993608       1.05498
   3     718.7      258.2119       41.8733      258.2837      300.1570      41.945058       1.01148
   2     792.3      259.1717       44.7096      248.0774      292.7871      33.615323       0.95533
   1     891.5       49.7550       79.9763        0.0000       79.9763      30.221362       0.28881
   0    1013.0       49.7526       78.9131        0.0000       78.9131      29.160481       0.07366



 Wavenumbers:  2600. -  3250. cm-1, ATM      1
 LEVEL PRESSURE   UPWARD FLUX   DIFDOWN FLUX  DIRDOWN FLUX  DOWNWARD FLUX   NET FLUX    HEATING RATE
          mb          W/m2          W/m2          W/m2        W/m2          W/m2       degree/day
  51    .06700        1.1097        0.0000        3.5066        3.5066       2.396941       0.00000
  50    .07753        1.1097        0.0000        3.5066        3.5066       2.396933       0.00640
  49    .09103        1.1097        0.0000        3.5066        3.5066       2.396923       0.00627
  48    0.1069        1.1097        0.0000        3.5066        3.5066       2.396911       0.00613
  47    0.1255        1.1097        0.0000        3.5066        3.5066       2.396898       0.00599
  46    0.1487        1.1097        0.0000        3.5066        3.5066       2.396881       0.00607
  45    0.1794        1.1097        0.0000        3.5065        3.5065       2.396859       0.00624
  44    0.2165        1.1097        0.0000        3.5065        3.5065       2.396832       0.00611
  43    0.2613        1.1097        0.0000        3.5065        3.5065       2.396800       0.00598
  42    0.3336        1.1097        0.0000        3.5064        3.5064       2.396747       0.00615
  41    0.4307        1.1097        0.0000        3.5064        3.5064       2.396676       0.00618
  40    0.5894        1.1097        0.0000        3.5062        3.5062       2.396557       0.00633
  39     1.339        1.1097        0.0000        3.5055        3.5055       2.395858       0.00787
  38     1.782        1.1097        0.0000        3.5050        3.5050       2.395328       0.01011
  37     2.292        1.1097        0.0000        3.5043        3.5043       2.394635       0.01147
  36     2.964        1.1097        0.0000        3.5033        3.5033       2.393644       0.01245
  35     3.853        1.1097        0.0000        3.5019        3.5019       2.392266       0.01307
  34     5.035        1.1097        0.0000        3.5001        3.5001       2.390405       0.01329
  33     6.613        1.1097        0.0000        3.4977        3.4977       2.387996       0.01288
  32     8.786        1.1097        0.0000        3.4947        3.4947       2.385024       0.01154
  31     11.80        1.1097        0.0000        3.4911        3.4911       2.381388       0.01018
  30     15.07        1.1097        0.0000        3.4878        3.4878       2.378166       0.00832
  29     18.79        1.1097        0.0000        3.4848        3.4848       2.375101       0.00695
  28     23.16        1.1097        0.0000        3.4816        3.4816       2.371879       0.00623
  27     28.12        1.1097        0.0000        3.4779        3.4779       2.368257       0.00616
  26     33.73        1.1097        0.0000        3.4735        3.4735       2.363786       0.00672
  25     40.54        1.1097        0.0000        3.4671        3.4672       2.357453       0.00786
  24     48.69        1.1097        0.0000        3.4582        3.4583       2.348546       0.00922
  23     57.69        1.1097        0.0000        3.4472        3.4472       2.337482       0.01037
  22     68.43        1.1098        0.0000        3.4329        3.4330       2.323198       0.01123
  21     81.20        1.1098        0.0000        3.4152        3.4152       2.305435       0.01174
  20     96.49        1.1098        0.0000        3.3940        3.3941       2.284242       0.01170
  19     114.6        1.1099        0.0000        3.3692        3.3692       2.259284       0.01165
  18     136.5        1.1100        0.0001        3.3419        3.3420       2.231968       0.01050
  17     162.9        1.1102        0.0001        3.3129        3.3129       2.202744       0.00934
  16     196.4        1.1105        0.0001        3.2793        3.2794       2.168899       0.00852
  15     218.7        1.1108        0.0001        3.2578        3.2579       2.147018       0.00831
  14     243.0        1.1113        0.0001        3.2320        3.2321       2.120732       0.00912
  13     269.0        1.1121        0.0001        3.1968        3.1969       2.084809       0.01165
  12     297.5        1.1134        0.0001        3.1489        3.1491       2.035686       0.01457
  11     328.5        1.1153        0.0001        3.0821        3.0822       1.966923       0.01870
  10     361.9        1.1180        0.0001        2.9902        2.9904       1.872320       0.02394
   9     398.1        1.1221        0.0001        2.8715        2.8716       1.749544       0.02860
   8     437.6        1.1279        0.0002        2.7276        2.7278       1.599886       0.03200
   7     480.5        1.1367        0.0002        2.5595        2.5597       1.422983       0.03474
   6     533.0        1.1516        0.0002        2.3617        2.3619       1.210353       0.03421
   5     589.8        1.1735        0.0002        2.1649        2.1651       0.991626       0.03247
   4     651.6        1.2062        0.0002        1.9608        1.9609       0.754723       0.03240
   3     718.7        1.2533        0.0002        1.7593        1.7595       0.506195       0.03123
   2     792.3        1.3196        0.0002        1.5761        1.5762       0.256665       0.02862
   1     891.5        0.0436        0.2082        0.0000        0.2082       0.164639       0.00783
   0    1013.0        0.0474        0.1892        0.0000        0.1892       0.141742       0.00159



 Wavenumbers:  3250. -  4000. cm-1, ATM      1
 LEVEL PRESSURE   UPWARD FLUX   DIFDOWN FLUX  DIRDOWN FLUX  DOWNWARD FLUX   NET FLUX    HEATING RATE
          mb          W/m2          W/m2          W/m2        W/m2          W/m2       degree/day
  51    .06700        0.0097        0.0000        5.9117        5.9117       5.901946       0.00000
  50    .07753        0.0097        0.0000        5.9075        5.9075       5.897756       3.35808
  49    .09103        0.0097        0.0000        5.9050        5.9050       5.895313       1.52677
  48    0.1069        0.0097        0.0000        5.9032        5.9032       5.893447       0.99346
  47    0.1255        0.0097        0.0000        5.9014        5.9014       5.891689       0.79708
  46    0.1487        0.0097        0.0000        5.8995        5.8995       5.889800       0.68848
  45    0.1794        0.0097        0.0000        5.8974        5.8974       5.887652       0.58983
  44    0.2165        0.0097        0.0000        5.8952        5.8952       5.885535       0.48155
  43    0.2613        0.0097        0.0000        5.8931        5.8931       5.883376       0.40696
  42    0.3336        0.0097        0.0000        5.8899        5.8899       5.880218       0.36820
  41    0.4307        0.0097        0.0000        5.8861        5.8861       5.876380       0.33365
  40    0.5894        0.0097        0.0000        5.8803        5.8803       5.870578       0.30857
  39     1.339        0.0097        0.0000        5.8597        5.8597       5.849980       0.23189
  38     1.782        0.0097        0.0000        5.8513        5.8513       5.841556       0.16039
  37     2.292        0.0097        0.0000        5.8431        5.8431       5.833385       0.13533
  36     2.964        0.0097        0.0000        5.8334        5.8334       5.823745       0.12100
  35     3.853        0.0097        0.0000        5.8213        5.8213       5.811570       0.11555
  34     5.035        0.0097        0.0000        5.8052        5.8052       5.795474       0.11498
  33     6.613        0.0097        0.0000        5.7833        5.7834       5.773653       0.11666
  32     8.786        0.0097        0.0000        5.7531        5.7531       5.743452       0.11729
  31     11.80        0.0097        0.0000        5.7090        5.7090       5.699283       0.12366
  30     15.07        0.0097        0.0000        5.6615        5.6615       5.651818       0.12254
  29     18.79        0.0097        0.0000        5.6093        5.6094       5.599682       0.11821
  28     23.16        0.0097        0.0000        5.5524        5.5524       5.542757       0.11008
  27     28.12        0.0097        0.0000        5.4935        5.4935       5.483878       0.10009
  26     33.73        0.0097        0.0000        5.4348        5.4349       5.425189       0.08824
  25     40.54        0.0097        0.0001        5.3707        5.3708       5.361127       0.07948
  24     48.69        0.0096        0.0001        5.2985        5.2985       5.288894       0.07475
  23     57.69        0.0096        0.0001        5.2215        5.2216       5.211955       0.07212
  22     68.43        0.0096        0.0001        5.1318        5.1319       5.122295       0.07048
  21     81.20        0.0096        0.0001        5.0284        5.0285       5.018866       0.06834
  20     96.49        0.0096        0.0001        4.9122        4.9123       4.902731       0.06410
  19     114.6        0.0096        0.0001        4.7780        4.7782       4.768620       0.06262
  18     136.5        0.0095        0.0002        4.6285        4.6287       4.619142       0.05748
  17     162.9        0.0095        0.0002        4.4406        4.4407       4.431229       0.06006
  16     196.4        0.0095        0.0002        4.1548        4.1550       4.145554       0.07191
  15     218.7        0.0095        0.0002        3.9564        3.9566       3.947171       0.07532
  14     243.0        0.0094        0.0002        3.7055        3.7058       3.696332       0.08700
  13     269.0        0.0094        0.0002        3.3399        3.3401       3.330681       0.11862
  12     297.5        0.0094        0.0002        2.8954        2.8956       2.886164       0.13184
  11     328.5        0.0095        0.0002        2.4388        2.4390       2.429570       0.12415
  10     361.9        0.0096        0.0002        2.0269        2.0271       2.017533       0.10425
   9     398.1        0.0097        0.0002        1.6753        1.6755       1.665771       0.08195
   8     437.6        0.0100        0.0002        1.3592        1.3594       1.349351       0.06765
   7     480.5        0.0105        0.0002        1.0616        1.0618       1.051223       0.05855
   6     533.0        0.0117        0.0001        0.7543        0.7544       0.742764       0.04962
   5     589.8        0.0137        0.0001        0.4951        0.4952       0.481498       0.03878
   4     651.6        0.0178        0.0001        0.2943        0.2943       0.276562       0.02803
   3     718.7        0.0257        0.0001        0.1528        0.1529       0.127118       0.01878
   2     792.3        0.0421        0.0000        0.0658        0.0658       0.023792       0.01185
   1     891.5        0.0000        0.0018        0.0000        0.0018       0.001780       0.00187
   0    1013.0        0.0001        0.0004        0.0000        0.0004       0.000321       0.00010



 Wavenumbers:  4000. -  4650. cm-1, ATM      1
 LEVEL PRESSURE   UPWARD FLUX   DIFDOWN FLUX  DIRDOWN FLUX  DOWNWARD FLUX   NET FLUX    HEATING RATE
          mb          W/m2          W/m2          W/m2        W/m2          W/m2       degree/day
  51    .06700        3.9395        0.0000        6.9421        6.9421       3.002544       0.00000
  50    .07753        3.9395        0.0000        6.9421        6.9421       3.002543       0.00079
  49    .09103        3.9395        0.0000        6.9421        6.9421       3.002541       0.00078
  48    0.1069        3.9395        0.0000        6.9421        6.9421       3.002540       0.00076
  47    0.1255        3.9395        0.0000        6.9421        6.9421       3.002538       0.00074
  46    0.1487        3.9395        0.0000        6.9421        6.9421       3.002536       0.00075
  45    0.1794        3.9395        0.0000        6.9421        6.9421       3.002533       0.00077
  44    0.2165        3.9395        0.0000        6.9421        6.9421       3.002530       0.00076
  43    0.2613        3.9395        0.0000        6.9420        6.9420       3.002526       0.00074
  42    0.3336        3.9395        0.0000        6.9420        6.9420       3.002520       0.00076
  41    0.4307        3.9395        0.0000        6.9420        6.9420       3.002511       0.00077
  40    0.5894        3.9395        0.0000        6.9420        6.9420       3.002496       0.00079
  39     1.339        3.9395        0.0000        6.9419        6.9419       3.002407       0.00100
  38     1.782        3.9395        0.0000        6.9418        6.9419       3.002338       0.00132
  37     2.292        3.9395        0.0000        6.9418        6.9418       3.002244       0.00155
  36     2.964        3.9395        0.0000        6.9416        6.9416       3.002105       0.00175
  35     3.853        3.9395        0.0000        6.9414        6.9414       3.001898       0.00196
  34     5.035        3.9395        0.0000        6.9411        6.9411       3.001593       0.00218
  33     6.613        3.9395        0.0000        6.9406        6.9407       3.001145       0.00240
  32     8.786        3.9395        0.0000        6.9399        6.9400       3.000484       0.00257
  31     11.80        3.9395        0.0001        6.9389        6.9389       2.999448       0.00290
  30     15.07        3.9395        0.0001        6.9377        6.9377       2.998235       0.00313
  29     18.79        3.9395        0.0001        6.9362        6.9363       2.996773       0.00331
  28     23.16        3.9395        0.0001        6.9343        6.9344       2.994965       0.00350
  27     28.12        3.9395        0.0001        6.9321        6.9323       2.992784       0.00371
  26     33.73        3.9395        0.0001        6.9294        6.9296       2.990106       0.00403
  25     40.54        3.9395        0.0002        6.9258        6.9260       2.986493       0.00448
  24     48.69        3.9395        0.0002        6.9210        6.9212       2.981707       0.00495
  23     57.69        3.9395        0.0003        6.9154        6.9156       2.976070       0.00528
  22     68.43        3.9396        0.0003        6.9083        6.9086       2.969054       0.00552
  21     81.20        3.9397        0.0004        6.8998        6.9001       2.960464       0.00568
  20     96.49        3.9398        0.0004        6.8894        6.8899       2.950070       0.00574
  19     114.6        3.9400        0.0005        6.8765        6.8770       2.937030       0.00609
  18     136.5        3.9403        0.0006        6.8610        6.8616       2.921260       0.00606
  17     162.9        3.9408        0.0007        6.8417        6.8424       2.901572       0.00629
  16     196.4        3.9417        0.0009        6.8147        6.8155       2.873839       0.00698
  15     218.7        3.9425        0.0009        6.7948        6.7958       2.853331       0.00779
  14     243.0        3.9436        0.0010        6.7698        6.7708       2.827230       0.00905
  13     269.0        3.9454        0.0012        6.7349        6.7360       2.790583       0.01189
  12     297.5        3.9482        0.0013        6.6869        6.6881       2.739960       0.01501
  11     328.5        3.9521        0.0014        6.6194        6.6208       2.668703       0.01937
  10     361.9        3.9572        0.0015        6.5295        6.5310       2.573766       0.02402
   9     398.1        3.9640        0.0017        6.4202        6.4219       2.457839       0.02701
   8     437.6        3.9732        0.0018        6.2962        6.2980       2.324788       0.02845
   7     480.5        3.9860        0.0020        6.1555        6.1574       2.171490       0.03011
   6     533.0        4.0069        0.0021        5.9675        5.9697       1.962724       0.03358
   5     589.8        4.0379        0.0023        5.7368        5.7390       1.701128       0.03883
   4     651.6        4.0843        0.0025        5.4662        5.4687       1.384374       0.04332
   3     718.7        4.1508        0.0026        5.1912        5.1938       1.042967       0.04291
   2     792.3        4.2434        0.0028        4.9395        4.9423       0.698885       0.03946
   1     891.5        0.1712        0.7378        0.0000        0.7378       0.566603       0.01126
   0    1013.0        0.1775        0.7080        0.0000        0.7080       0.530484       0.00251



 Wavenumbers:  4650. -  5150. cm-1, ATM      1
 LEVEL PRESSURE   UPWARD FLUX   DIFDOWN FLUX  DIRDOWN FLUX  DOWNWARD FLUX   NET FLUX    HEATING RATE
          mb          W/m2          W/m2          W/m2        W/m2          W/m2       degree/day
  51    .06700        2.7632        0.0000        6.5710        6.5710       3.807819       0.00000
  50    .07753        2.7632        0.0000        6.5708        6.5708       3.807583       0.18887
  49    .09103        2.7632        0.0000        6.5705        6.5705       3.807289       0.18362
  48    0.1069        2.7632        0.0000        6.5701        6.5701       3.806955       0.17806
  47    0.1255        2.7632        0.0000        6.5697        6.5697       3.806575       0.17238
  46    0.1487        2.7632        0.0000        6.5693        6.5693       3.806101       0.17268
  45    0.1794        2.7632        0.0000        6.5686        6.5686       3.805464       0.17474
  44    0.2165        2.7632        0.0000        6.5679        6.5679       3.804726       0.16788
  43    0.2613        2.7632        0.0000        6.5670        6.5670       3.803874       0.16078
  42    0.3336        2.7632        0.0000        6.5657        6.5657       3.802510       0.15894
  41    0.4307        2.7632        0.0000        6.5640        6.5640       3.800788       0.14971
  40    0.5894        2.7632        0.0000        6.5613        6.5613       3.798172       0.13913
  39     1.339        2.7632        0.0000        6.5516        6.5516       3.788394       0.11008
  38     1.782        2.7632        0.0000        6.5473        6.5473       3.784178       0.08027
  37     2.292        2.7632        0.0000        6.5434        6.5435       3.780291       0.06439
  36     2.964        2.7632        0.0000        6.5395        6.5395       3.776336       0.04965
  35     3.853        2.7632        0.0000        6.5355        6.5356       3.772391       0.03743
  34     5.035        2.7632        0.0000        6.5315        6.5315       3.768387       0.02860
  33     6.613        2.7632        0.0000        6.5271        6.5271       3.763990       0.02351
  32     8.786        2.7632        0.0001        6.5216        6.5216       3.758488       0.02136
  31     11.80        2.7632        0.0001        6.5135        6.5136       3.750398       0.02265
  30     15.07        2.7632        0.0001        6.5041        6.5042       3.741015       0.02423
  29     18.79        2.7632        0.0001        6.4925        6.4926       3.729478       0.02616
  28     23.16        2.7632        0.0001        6.4779        6.4780       3.714855       0.02827
  27     28.12        2.7632        0.0002        6.4599        6.4601       3.696839       0.03063
  26     33.73        2.7633        0.0002        6.4384        6.4386       3.675354       0.03230
  25     40.54        2.7633        0.0003        6.4112        6.4115       3.648152       0.03375
  24     48.69        2.7634        0.0003        6.3775        6.3778       3.614407       0.03492
  23     57.69        2.7636        0.0004        6.3404        6.3407       3.577178       0.03490
  22     68.43        2.7638        0.0004        6.2971        6.2976       3.533799       0.03410
  21     81.20        2.7640        0.0005        6.2483        6.2488       3.484724       0.03243
  20     96.49        2.7644        0.0006        6.1948        6.1954       3.430995       0.02965
  19     114.6        2.7650        0.0007        6.1381        6.1389       3.373868       0.02667
  18     136.5        2.7658        0.0008        6.0790        6.0798       3.314083       0.02299
  17     162.9        2.7669        0.0010        6.0160        6.0170       3.250183       0.02043
  16     196.4        2.7686        0.0012        5.9399        5.9411       3.172487       0.01956
  15     218.7        2.7699        0.0013        5.8896        5.8909       3.121006       0.01955
  14     243.0        2.7717        0.0014        5.8322        5.8336       3.061888       0.02050
  13     269.0        2.7743        0.0016        5.7624        5.7640       2.989678       0.02342
  12     297.5        2.7780        0.0017        5.6767        5.6785       2.900511       0.02645
  11     328.5        2.7829        0.0019        5.5726        5.5745       2.791560       0.02962
  10     361.9        2.7897        0.0021        5.4473        5.4494       2.659733       0.03335
   9     398.1        2.7987        0.0022        5.2995        5.3017       2.503038       0.03651
   8     437.6        2.8108        0.0024        5.1275        5.1299       2.319080       0.03933
   7     480.5        2.8273        0.0026        4.9290        4.9315       2.104203       0.04220
   6     533.0        2.8535        0.0027        4.6794        4.6821       1.828579       0.04434
   5     589.8        2.8903        0.0029        4.4188        4.4217       1.531386       0.04411
   4     651.6        2.9427        0.0031        4.1521        4.1552       1.212501       0.04361
   3     718.7        3.0144        0.0032        3.8929        3.8962       0.881809       0.04156
   2     792.3        3.1109        0.0034        3.6469        3.6503       0.539360       0.03927
   1     891.5        0.1190        0.5259        0.0000        0.5259       0.406915       0.01127
   0    1013.0        0.1248        0.4978        0.0000        0.4978       0.372967       0.00236



 Wavenumbers:  5150. -  6150. cm-1, ATM      1
 LEVEL PRESSURE   UPWARD FLUX   DIFDOWN FLUX  DIRDOWN FLUX  DOWNWARD FLUX   NET FLUX    HEATING RATE
          mb          W/m2          W/m2          W/m2        W/m2          W/m2       degree/day
  51    .06700        6.8156        0.0000       16.4735       16.4735       9.657891       0.00000
  50    .07753        6.8156        0.0000       16.4735       16.4735       9.657856       0.02764
  49    .09103        6.8156        0.0000       16.4734       16.4734       9.657811       0.02814
  48    0.1069        6.8156        0.0000       16.4734       16.4734       9.657757       0.02862
  47    0.1255        6.8156        0.0000       16.4733       16.4733       9.657693       0.02907
  46    0.1487        6.8156        0.0000       16.4732       16.4732       9.657609       0.03063
  45    0.1794        6.8156        0.0000       16.4731       16.4731       9.657490       0.03272
  44    0.2165        6.8156        0.0000       16.4730       16.4730       9.657343       0.03334
  43    0.2613        6.8156        0.0000       16.4728       16.4728       9.657164       0.03379
  42    0.3336        6.8156        0.0000       16.4725       16.4725       9.656858       0.03567
  41    0.4307        6.8156        0.0000       16.4720       16.4720       9.656439       0.03648
  40    0.5894        6.8156        0.0000       16.4713       16.4713       9.655737       0.03732
  39     1.339        6.8156        0.0000       16.4679       16.4679       9.652325       0.03841
  38     1.782        6.8156        0.0001       16.4659       16.4659       9.650323       0.03812
  37     2.292        6.8156        0.0001       16.4635       16.4636       9.648027       0.03801
  36     2.964        6.8156        0.0001       16.4605       16.4606       9.645052       0.03735
  35     3.853        6.8156        0.0001       16.4567       16.4568       9.641191       0.03665
  34     5.035        6.8156        0.0001       16.4516       16.4517       9.636182       0.03578
  33     6.613        6.8156        0.0002       16.4451       16.4453       9.629703       0.03463
  32     8.786        6.8155        0.0003       16.4367       16.4369       9.621365       0.03238
  31     11.80        6.8155        0.0003       16.4254       16.4257       9.610172       0.03134
  30     15.07        6.8155        0.0004       16.4141       16.4146       9.599036       0.02875
  29     18.79        6.8155        0.0005       16.4024       16.4030       9.587456       0.02626
  28     23.16        6.8155        0.0007       16.3900       16.3907       9.575120       0.02385
  27     28.12        6.8155        0.0008       16.3771       16.3779       9.562366       0.02168
  26     33.73        6.8156        0.0010       16.3641       16.3651       9.549527       0.01930
  25     40.54        6.8156        0.0012       16.3502       16.3514       9.535733       0.01711
  24     48.69        6.8157        0.0014       16.3354       16.3368       9.521053       0.01519
  23     57.69        6.8159        0.0017       16.3211       16.3228       9.506906       0.01326
  22     68.43        6.8160        0.0020       16.3062       16.3082       9.492204       0.01156
  21     81.20        6.8163        0.0024       16.2903       16.2927       9.476419       0.01043
  20     96.49        6.8166        0.0028       16.2726       16.2754       9.458862       0.00969
  19     114.6        6.8169        0.0033       16.2521       16.2554       9.438456       0.00953
  18     136.5        6.8174        0.0039       16.2245       16.2285       9.411066       0.01053
  17     162.9        6.8181        0.0047       16.1747       16.1794       9.361375       0.01588
  16     196.4        6.8190        0.0056       16.0518       16.0575       9.238516       0.03093
  15     218.7        6.8196        0.0062       15.8984       15.9046       9.084991       0.05829
  14     243.0        6.8205        0.0069       15.6153       15.6221       8.801643       0.09827
  13     269.0        6.8216        0.0074       15.1390       15.1464       8.324778       0.15469
  12     297.5        6.8234        0.0080       14.5779       14.5859       7.762531       0.16676
  11     328.5        6.8259        0.0086       13.8780       13.8866       7.060660       0.19084
  10     361.9        6.8297        0.0090       13.0814       13.0905       6.260812       0.20237
   9     398.1        6.8351        0.0095       12.2728       12.2824       5.447202       0.18955
   8     437.6        6.8432        0.0099       11.4776       11.4875       4.644257       0.17167
   7     480.5        6.8557        0.0103       10.7300       10.7403       3.884579       0.14920
   6     533.0        6.8781        0.0108       10.0326       10.0434       3.165376       0.11570
   5     589.8        6.9137        0.0114        9.5050        9.5165       2.602737       0.08351
   4     651.6        6.9714        0.0122        9.0814        9.0935       2.122161       0.06572
   3     718.7        7.0601        0.0130        8.7024        8.7154       1.655293       0.05867
   2     792.3        7.1917        0.0139        8.3379        8.3518       1.160113       0.05679
   1     891.5        0.3022        1.2714        0.0000        1.2714       0.969240       0.01624
   0    1013.0        0.3091        1.2331        0.0000        1.2331       0.923953       0.00314



 Wavenumbers:  6150. -  7700. cm-1, ATM      1
 LEVEL PRESSURE   UPWARD FLUX   DIFDOWN FLUX  DIRDOWN FLUX  DOWNWARD FLUX   NET FLUX    HEATING RATE
          mb          W/m2          W/m2          W/m2        W/m2          W/m2       degree/day
  51    .06700       10.6428        0.0000       30.4684       30.4684      19.825538       0.00000
  50    .07753       10.6428        0.0000       30.4683       30.4683      19.825487       0.04144
  49    .09103       10.6428        0.0000       30.4683       30.4683      19.825420       0.04174
  48    0.1069       10.6428        0.0000       30.4682       30.4682      19.825341       0.04202
  47    0.1255       10.6428        0.0000       30.4681       30.4681      19.825248       0.04227
  46    0.1487       10.6428        0.0000       30.4680       30.4680      19.825127       0.04411
  45    0.1794       10.6428        0.0000       30.4678       30.4678      19.824957       0.04669
  44    0.2165       10.6428        0.0000       30.4676       30.4676      19.824749       0.04715
  43    0.2613       10.6428        0.0000       30.4673       30.4673      19.824498       0.04744
  42    0.3336       10.6428        0.0000       30.4669       30.4669      19.824071       0.04974
  41    0.4307       10.6428        0.0000       30.4663       30.4663      19.823490       0.05052
  40    0.5894       10.6428        0.0001       30.4653       30.4653      19.822522       0.05146
  39     1.339       10.6427        0.0002       30.4604       30.4606      19.817839       0.05273
  38     1.782       10.6427        0.0002       30.4576       30.4578      19.815089       0.05235
  37     2.292       10.6426        0.0003       30.4543       30.4546      19.811930       0.05231
  36     2.964       10.6426        0.0004       30.4501       30.4504      19.807823       0.05156
  35     3.853       10.6425        0.0005       30.4445       30.4450      19.802466       0.05084
  34     5.035       10.6424        0.0006       30.4373       30.4379      19.795466       0.05000
  33     6.613       10.6423        0.0008       30.4278       30.4286      19.786318       0.04890
  32     8.786       10.6421        0.0011       30.4154       30.4164      19.774365       0.04642
  31     11.80       10.6418        0.0014       30.3984       30.3998      19.757980       0.04588
  30     15.07       10.6415        0.0018       30.3810       30.3828      19.741265       0.04315
  29     18.79       10.6412        0.0023       30.3623       30.3646      19.723364       0.04059
  28     23.16       10.6408        0.0028       30.3417       30.3445      19.703680       0.03806
  27     28.12       10.6404        0.0034       30.3196       30.3230      19.682578       0.03587
  26     33.73       10.6399        0.0041       30.2965       30.3005      19.660657       0.03296
  25     40.54       10.6393        0.0049       30.2708       30.2756      19.636317       0.03020
  24     48.69       10.6386        0.0058       30.2423       30.2481      19.609536       0.02771
  23     57.69       10.6378        0.0069       30.2139       30.2208      19.582965       0.02491
  22     68.43       10.6369        0.0082       30.1834       30.1916      19.554683       0.02223
  21     81.20       10.6358        0.0097       30.1500       30.1597      19.523945       0.02031
  20     96.49       10.6345        0.0116       30.1126       30.1242      19.489713       0.01889
  19     114.6       10.6329        0.0137       30.0695       30.0832      19.450308       0.01840
  18     136.5       10.6311        0.0163       30.0139       30.0302      19.399120       0.01968
  17     162.9       10.6289        0.0193       29.9225       29.9418      19.312873       0.02757
  16     196.4       10.6262        0.0232       29.7333       29.7566      19.130330       0.04595
  15     218.7       10.6246        0.0258       29.5259       29.5516      18.927031       0.07718
  14     243.0       10.6230        0.0284       29.1375       29.1659      18.542882       0.13324
  13     269.0       10.6218        0.0309       28.3800       28.4109      17.789148       0.24451
  12     297.5       10.6215        0.0334       27.3895       27.4229      16.801433       0.29295
  11     328.5       10.6228        0.0357       26.2257       26.2614      15.638661       0.31615
  10     361.9       10.6267        0.0379       24.8453       24.8832      14.256557       0.34969
   9     398.1       10.6347        0.0399       23.3471       23.3869      12.752280       0.35046
   8     437.6       10.6492        0.0416       21.7966       21.8382      11.189025       0.33423
   7     480.5       10.6754        0.0431       20.1977       20.2408       9.565410       0.31887
   6     533.0       10.7265        0.0447       18.4969       18.5416       7.815075       0.28157
   5     589.8       10.8119        0.0463       16.9754       17.0216       6.209696       0.23829
   4     651.6       10.9535        0.0479       15.6022       15.6500       4.696525       0.20693
   3     718.7       11.1732        0.0497       14.4232       14.4729       3.299710       0.17554
   2     792.3       11.5014        0.0518       13.4386       13.4904       1.988956       0.15033
   1     891.5        0.4501        1.9643        0.0000        1.9643       1.514252       0.04040
   0    1013.0        0.4682        1.8677        0.0000        1.8677       1.399501       0.00797



 Wavenumbers:  7700. -  8050. cm-1, ATM      1
 LEVEL PRESSURE   UPWARD FLUX   DIFDOWN FLUX  DIRDOWN FLUX  DOWNWARD FLUX   NET FLUX    HEATING RATE
          mb          W/m2          W/m2          W/m2        W/m2          W/m2       degree/day
  51    .06700        5.0558        0.0000        7.2006        7.2006       2.144795       0.00000
  50    .07753        5.0558        0.0000        7.2006        7.2006       2.144774       0.01691
  49    .09103        5.0558        0.0000        7.2005        7.2005       2.144747       0.01657
  48    0.1069        5.0558        0.0000        7.2005        7.2005       2.144717       0.01622
  47    0.1255        5.0558        0.0000        7.2005        7.2005       2.144682       0.01588
  46    0.1487        5.0558        0.0000        7.2004        7.2005       2.144638       0.01611
  45    0.1794        5.0558        0.0000        7.2004        7.2004       2.144577       0.01658
  44    0.2165        5.0558        0.0000        7.2003        7.2003       2.144506       0.01626
  43    0.2613        5.0558        0.0000        7.2003        7.2003       2.144421       0.01596
  42    0.3336        5.0559        0.0000        7.2001        7.2001       2.144281       0.01633
  41    0.4307        5.0559        0.0000        7.2000        7.2000       2.144095       0.01615
  40    0.5894        5.0559        0.0000        7.1997        7.1997       2.143792       0.01613
  39     1.339        5.0561        0.0001        7.1984        7.1985       2.142358       0.01615
  38     1.782        5.0563        0.0001        7.1977        7.1978       2.141515       0.01604
  37     2.292        5.0564        0.0001        7.1968        7.1969       2.140540       0.01615
  36     2.964        5.0566        0.0002        7.1957        7.1959       2.139261       0.01606
  35     3.853        5.0568        0.0002        7.1942        7.1944       2.137571       0.01604
  34     5.035        5.0572        0.0003        7.1922        7.1925       2.135327       0.01603
  33     6.613        5.0576        0.0003        7.1896        7.1899       2.132333       0.01601
  32     8.786        5.0582        0.0005        7.1860        7.1865       2.128302       0.01565
  31     11.80        5.0591        0.0006        7.1810        7.1816       2.122545       0.01612
  30     15.07        5.0600        0.0008        7.1755        7.1763       2.116379       0.01592
  29     18.79        5.0610        0.0010        7.1694        7.1704       2.109432       0.01575
  28     23.16        5.0622        0.0012        7.1623        7.1636       2.101341       0.01564
  27     28.12        5.0636        0.0015        7.1542        7.1557       2.092123       0.01567
  26     33.73        5.0652        0.0018        7.1452        7.1470       2.081850       0.01545
  25     40.54        5.0671        0.0021        7.1344        7.1366       2.069499       0.01532
  24     48.69        5.0694        0.0026        7.1215        7.1241       2.054699       0.01532
  23     57.69        5.0719        0.0030        7.1074        7.1105       2.038554       0.01513
  22     68.43        5.0750        0.0036        7.0909        7.0945       2.019478       0.01500
  21     81.20        5.0786        0.0043        7.0713        7.0756       1.996964       0.01488
  20     96.49        5.0830        0.0050        7.0484        7.0535       1.970432       0.01464
  19     114.6        5.0883        0.0060        7.0217        7.0277       1.939332       0.01452
  18     136.5        5.0947        0.0071        6.9906        6.9977       1.903010       0.01397
  17     162.9        5.1023        0.0084        6.9544        6.9628       1.860471       0.01360
  16     196.4        5.1125        0.0101        6.9087        6.9189       1.806396       0.01361
  15     218.7        5.1192        0.0112        6.8794        6.8907       1.771436       0.01327
  14     243.0        5.1267        0.0124        6.8481        6.8606       1.733869       0.01303
  13     269.0        5.1349        0.0137        6.8147        6.8285       1.693521       0.01309
  12     297.5        5.1441        0.0152        6.7791        6.7942       1.650137       0.01287
  11     328.5        5.1543        0.0167        6.7409        6.7576       1.603318       0.01273
  10     361.9        5.1658        0.0183        6.7002        6.7185       1.552717       0.01280
   9     398.1        5.1787        0.0201        6.6563        6.6763       1.497687       0.01282
   8     437.6        5.1933        0.0219        6.6089        6.6308       1.437526       0.01286
   7     480.5        5.2101        0.0239        6.5570        6.5809       1.370823       0.01310
   6     533.0        5.2327        0.0264        6.4915        6.5179       1.285215       0.01377
   5     589.8        5.2595        0.0290        6.4182        6.4473       1.187755       0.01447
   4     651.6        5.2918        0.0318        6.3359        6.3677       1.075941       0.01529
   3     718.7        5.3303        0.0348        6.2441        6.2789       0.948691       0.01599
   2     792.3        5.3755        0.0379        6.1437        6.1817       0.806223       0.01634
   1     891.5        0.2379        0.9807        0.0000        0.9807       0.742725       0.00540
   0    1013.0        0.2417        0.9641        0.0000        0.9641       0.722406       0.00141



 Wavenumbers:  8050. - 12850. cm-1, ATM      1
 LEVEL PRESSURE   UPWARD FLUX   DIFDOWN FLUX  DIRDOWN FLUX  DOWNWARD FLUX   NET FLUX    HEATING RATE
          mb          W/m2          W/m2          W/m2        W/m2          W/m2       degree/day
  51    .06700       65.6607        0.0000      100.8135      100.8135      35.152778       0.00000
  50    .07753       65.6607        0.0000      100.8135      100.8135      35.152778       0.00000
  49    .09103       65.6607        0.0001      100.8134      100.8135      35.152778      -0.00000
  48    0.1069       65.6607        0.0001      100.8134      100.8135      35.152778       0.00000
  47    0.1255       65.6607        0.0002      100.8133      100.8134      35.152778      -0.00000
  46    0.1487       65.6606        0.0002      100.8132      100.8134      35.152778       0.00000
  45    0.1794       65.6606        0.0003      100.8131      100.8134      35.152778       0.00000
  44    0.2165       65.6605        0.0004      100.8129      100.8133      35.152778      -0.00000
  43    0.2613       65.6605        0.0005      100.8127      100.8132      35.152778       0.00000
  42    0.3336       65.6604        0.0007      100.8125      100.8131      35.152778       0.00000
  41    0.4307       65.6602        0.0009      100.8121      100.8130      35.152778       0.00000
  40    0.5894       65.6600        0.0013      100.8115      100.8128      35.152778       0.00000
  39     1.339       65.6590        0.0033      100.8085      100.8118      35.152778      -0.00000
  38     1.782       65.6584        0.0044      100.8068      100.8112      35.152778       0.00000
  37     2.292       65.6577        0.0057      100.8047      100.8105      35.152778       0.00000
  36     2.964       65.6568        0.0074      100.8021      100.8095      35.152778      -0.00000
  35     3.853       65.6556        0.0097      100.7986      100.8083      35.152778       0.00000
  34     5.035       65.6539        0.0127      100.7940      100.8067      35.152778      -0.00000
  33     6.613       65.6518        0.0168      100.7878      100.8046      35.152778       0.00000
  32     8.786       65.6489        0.0222      100.7794      100.8017      35.152778       0.00000
  31     11.80       65.6447        0.0301      100.7674      100.7975      35.152778       0.00000
  30     15.07       65.6402        0.0385      100.7546      100.7930      35.152778       0.00000
  29     18.79       65.6352        0.0479      100.7400      100.7879      35.152778      -0.00000
  28     23.16       65.6292        0.0590      100.7230      100.7820      35.152778       0.00000
  27     28.12       65.6225        0.0718      100.7035      100.7752      35.152778      -0.00000
  26     33.73       65.6149        0.0860      100.6817      100.7676      35.152778       0.00000
  25     40.54       65.6057        0.1032      100.6552      100.7585      35.152778      -0.00000
  24     48.69       65.5946        0.1240      100.6234      100.7474      35.152778       0.00000
  23     57.69       65.5824        0.1469      100.5883      100.7352      35.152778      -0.00000
  22     68.43       65.5678        0.1742      100.5464      100.7206      35.152778       0.00000
  21     81.20       65.5505        0.2067      100.4965      100.7032      35.152778       0.00000
  20     96.49       65.5297        0.2455      100.4370      100.6825      35.152778      -0.00000
  19     114.6       65.5052        0.2917      100.3585      100.6502      35.144967       0.00365
  18     136.5       65.4762        0.3466      100.2634      100.6099      35.133737       0.00432
  17     162.9       65.4417        0.4120      100.1407      100.5527      35.110998       0.00727
  16     196.4       65.3970        0.4970       99.9505      100.4475      35.050471       0.01524
  15     218.7       65.3678        0.5528       99.7889      100.3418      34.973998       0.02903
  14     243.0       65.3366        0.6135       99.5472      100.1607      34.824139       0.05198
  13     269.0       65.3046        0.6789       99.1452       99.8242      34.519546       0.09881
  12     297.5       65.2736        0.7492       98.5975       99.3467      34.073081       0.13242
  11     328.5       65.2462        0.8245       97.8659       98.6904      33.444226       0.17098
  10     361.9       65.2265        0.9047       96.8848       97.7895      32.563001       0.22296
   9     398.1       65.2201        0.9896       95.6330       96.6225      31.402467       0.27038
   8     437.6       65.2371        1.0787       94.0655       95.1441      29.907060       0.31973
   7     480.5       65.2975        1.1711       92.0807       93.2518      27.954340       0.38351
   6     533.0       65.4443        1.2807       89.4449       90.7255      25.281226       0.43002
   5     589.8       65.7137        1.3944       86.5544       87.9487      22.235073       0.45215
   4     651.6       66.1764        1.5116       83.4174       84.9289      18.752583       0.47624
   3     718.7       66.8930        1.6331       80.2037       81.8368      14.943847       0.47865
   2     792.3       67.9384        1.7598       77.0811       78.8409      10.902483       0.46350
   1     891.5        2.8866       12.1574        0.0000       12.1574       9.270816       0.13885
   0    1013.0        2.9529       11.7785        0.0000       11.7785       8.825638       0.03091



 Wavenumbers: 12850. - 16000. cm-1, ATM      1
 LEVEL PRESSURE   UPWARD FLUX   DIFDOWN FLUX  DIRDOWN FLUX  DOWNWARD FLUX   NET FLUX    HEATING RATE
          mb          W/m2          W/m2          W/m2        W/m2          W/m2       degree/day
  51    .06700       47.9085        0.0000       63.1686       63.1686      15.260037       0.00000
  50    .07753       47.9085        0.0001       63.1677       63.1678      15.259254       0.62743
  49    .09103       47.9085        0.0001       63.1666       63.1668      15.258278       0.61019
  48    0.1069       47.9085        0.0002       63.1654       63.1656      15.257165       0.59221
  47    0.1255       47.9085        0.0003       63.1640       63.1644      15.255898       0.57421
  46    0.1487       47.9084        0.0005       63.1623       63.1627      15.254317       0.57649
  45    0.1794       47.9084        0.0006       63.1600       63.1606      15.252193       0.58296
  44    0.2165       47.9084        0.0008       63.1573       63.1581      15.249734       0.55950
  43    0.2613       47.9084        0.0011       63.1542       63.1553      15.246892       0.53575
  42    0.3336       47.9084        0.0015       63.1493       63.1508      15.242352       0.52924
  41    0.4307       47.9085        0.0020       63.1431       63.1452      15.236658       0.49509
  40    0.5894       47.9087        0.0029       63.1338       63.1367      15.227994       0.46077
  39     1.339       47.9116        0.0070       63.0956       63.1026      15.190998       0.41651
  38     1.782       47.9147        0.0095       63.0740       63.0835      15.168859       0.42149
  37     2.292       47.9194        0.0123       63.0477       63.0600      15.140572       0.46850
  36     2.964       47.9275        0.0160       63.0095       63.0255      15.098007       0.53432
  35     3.853       47.9409        0.0209       62.9533       62.9741      15.033213       0.61491
  34     5.035       47.9614        0.0274       62.8725       62.8999      14.938500       0.67660
  33     6.613       47.9900        0.0360       62.7621       62.7981      14.808055       0.69736
  32     8.786       48.0272        0.0477       62.6182       62.6659      14.638670       0.65783
  31     11.80       48.0753        0.0643       62.4284       62.4926      14.417368       0.61958
  30     15.07       48.1208        0.0821       62.2426       62.3247      14.203906       0.55111
  29     18.79       48.1667        0.1021       62.0493       62.1514      13.984698       0.49701
  28     23.16       48.2141        0.1255       61.8424       61.9679      13.753830       0.44642
  27     28.12       48.2610        0.1522       61.6278       61.7800      13.519008       0.39918
  26     33.73       48.3030        0.1820       61.4177       61.5997      13.296711       0.33423
  25     40.54       48.3415        0.2180       61.1983       61.4163      13.074748       0.27537
  24     48.69       48.3762        0.2613       60.9680       61.2293      12.853042       0.22943
  23     57.69       48.4029        0.3088       60.7478       61.0566      12.653676       0.18688
  22     68.43       48.4224        0.3654       60.5202       60.8856      12.463168       0.14976
  21     81.20       48.4286        0.4327       60.2938       60.7266      12.297926       0.10919
  20     96.49       48.4205        0.5130       60.0643       60.5773      12.156828       0.07788
  19     114.6       48.4102        0.6089       59.8078       60.4167      12.006525       0.07018
  18     136.5       48.3913        0.7225       59.5157       60.2382      11.846925       0.06137
  17     162.9       48.3626        0.8574       59.1770       60.0344      11.671853       0.05596
  16     196.4       48.3122        1.0320       58.7604       59.7924      11.480193       0.04824
  15     218.7       48.2745        1.1464       58.4948       59.6412      11.366681       0.04310
  14     243.0       48.2316        1.2705       58.2089       59.4794      11.247819       0.04123
  13     269.0       48.1836        1.4048       57.9006       59.3054      11.121780       0.04089
  12     297.5       48.1309        1.5497       57.5668       59.1165      10.985548       0.04041
  11     328.5       48.0752        1.7059       57.2005       58.9063      10.831175       0.04197
  10     361.9       48.0177        1.8736       56.7963       58.6699      10.652227       0.04528
   9     398.1       47.9600        2.0535       56.3475       58.4010      10.440995       0.04921
   8     437.6       47.9055        2.2459       55.8422       58.0882      10.182636       0.05524
   7     480.5       47.8602        2.4510       55.2625       57.7136       9.853334       0.06467
   6     533.0       47.8265        2.7015       54.4972       57.1986       9.372093       0.07742
   5     589.8       47.8183        2.9681       53.6307       56.5988       8.780492       0.08781
   4     651.6       47.8490        3.2502       52.6606       55.9108       8.061799       0.09828
   3     718.7       47.9275        3.5482       51.6100       55.1583       7.230746       0.10444
   2     792.3       48.0656        3.8620       50.5019       54.3639       6.298279       0.10694
   1     891.5        7.0459       12.8907        0.0000       12.8907       5.844820       0.03859
   0    1013.0        7.0985       12.7281        0.0000       12.7281       5.629658       0.01494



 Wavenumbers: 16000. - 22650. cm-1, ATM      1
 LEVEL PRESSURE   UPWARD FLUX   DIFDOWN FLUX  DIRDOWN FLUX  DOWNWARD FLUX   NET FLUX    HEATING RATE
          mb          W/m2          W/m2          W/m2        W/m2          W/m2       degree/day
  51    .06700       82.6812        0.0000      100.7153      100.7153      18.034100       0.00000
  50    .07753       82.6811        0.0003      100.7147      100.7151      18.033979       0.09663
  49    .09103       82.6809        0.0008      100.7140      100.7148      18.033804       0.10960
  48    0.1069       82.6808        0.0012      100.7131      100.7144      18.033569       0.12498
  47    0.1255       82.6806        0.0018      100.7121      100.7139      18.033255       0.14246
  46    0.1487       82.6805        0.0025      100.7108      100.7133      18.032792       0.16882
  45    0.1794       82.6803        0.0034      100.7089      100.7123      18.032068       0.19877
  44    0.2165       82.6800        0.0046      100.7066      100.7111      18.031086       0.22339
  43    0.2613       82.6798        0.0059      100.7037      100.7096      18.029753       0.25114
  42    0.3336       82.6796        0.0081      100.6987      100.7068      18.027220       0.29534
  41    0.4307       82.6794        0.0111      100.6918      100.7028      18.023402       0.33198
  40    0.5894       82.6795        0.0159      100.6797      100.6956      18.016120       0.38723
  39     1.339       82.6857        0.0386      100.6095      100.6481      17.962333       0.60555
  38     1.782       82.6938        0.0519      100.5585      100.6104      17.916525       0.87210
  37     2.292       82.7073        0.0673      100.4903      100.5576      17.850238       1.09789
  36     2.964       82.7314        0.0876      100.3868      100.4743      17.742899       1.34743
  35     3.853       82.7722        0.1143      100.2306      100.3449      17.572692       1.61529
  34     5.035       82.8351        0.1497      100.0045      100.1541      17.319015       1.81216
  33     6.613       82.9238        0.1969       99.6939       99.8908      16.966983       1.88196
  32     8.786       83.0386        0.2604       99.2881       99.5484      16.509787       1.77558
  31     11.80       83.1857        0.3509       98.7496       99.1005      15.914763       1.66588
  30     15.07       83.3236        0.4477       98.2198       98.6676      15.343983       1.47364
  29     18.79       83.4613        0.5568       97.6651       98.2219      14.760644       1.32261
  28     23.16       83.6013        0.6837       97.0671       97.7508      14.149536       1.18169
  27     28.12       83.7371        0.8283       96.4406       97.2689      13.531712       1.05026
  26     33.73       83.8543        0.9896       95.8179       96.8075      12.953213       0.86979
  25     40.54       83.9554        1.1838       95.1548       96.3387      12.383250       0.70710
  24     48.69       84.0383        1.4171       94.4420       95.8591      11.820828       0.58202
  23     57.69       84.0916        1.6724       93.7416       95.4140      11.322411       0.46719
  22     68.43       84.1145        1.9752       92.9954       94.9705      10.856037       0.36663
  21     81.20       84.0863        2.3346       92.2231       94.5577      10.471479       0.25411
  20     96.49       84.0013        2.7610       91.4110       94.1720      10.170650       0.16604
  19     114.6       83.8751        3.2639       90.5070       93.7709       9.895870       0.12830
  18     136.5       83.7089        3.8552       89.4803       93.3354       9.626501       0.10358
  17     162.9       83.4969        4.5524       88.3022       92.8546       9.357718       0.08591
  16     196.4       83.1902        5.4466       86.8606       92.3072       9.117024       0.06059
  15     218.7       82.9779        6.0276       85.9492       91.9768       8.998904       0.04485
  14     243.0       82.7430        6.6536       84.9789       91.6326       8.889511       0.03794
  13     269.0       82.4846        7.3256       83.9493       91.2749       8.790373       0.03216
  12     297.5       82.2019        8.0445       82.8589       90.9035       8.701601       0.02633
  11     328.5       81.8968        8.8129       81.6982       90.5111       8.614346       0.02372
  10     361.9       81.5694        9.6305       80.4669       90.0974       8.528033       0.02184
   9     398.1       81.2191       10.4993       79.1611       89.6604       8.441372       0.02019
   8     437.6       80.8466       11.4198       77.7777       89.1975       8.350877       0.01935
   7     480.5       80.4528       12.3923       76.3136       88.7059       8.253167       0.01919
   6     533.0       79.9765       13.5696       74.5359       88.1054       8.128912       0.01999
   5     589.8       79.4754       14.8144       72.6469       87.4614       7.985983       0.02122
   4     651.6       78.9524       16.1250       70.6456       86.7706       7.818187       0.02295
   3     718.7       78.4084       17.4993       68.5367       86.0360       7.627565       0.02396
   2     792.3       77.8465       18.9321       66.3287       85.2608       7.414249       0.02446
   1     891.5       26.2088       33.4901        0.0000       33.4901       7.281286       0.01131
   0    1013.0       26.1678       33.3475        0.0000       33.3475       7.179727       0.00705



 Wavenumbers: 22650. - 29000. cm-1, ATM      1
 LEVEL PRESSURE   UPWARD FLUX   DIFDOWN FLUX  DIRDOWN FLUX  DOWNWARD FLUX   NET FLUX    HEATING RATE
          mb          W/m2          W/m2          W/m2        W/m2          W/m2       degree/day
  51    .06700       35.1081        0.0000       38.0063       38.0063       2.898221       0.00000
  50    .07753       35.1079        0.0004       38.0057       38.0061       2.898221       0.00000
  49    .09103       35.1077        0.0009       38.0050       38.0059       2.898221      -0.00000
  48    0.1069       35.1075        0.0014       38.0042       38.0057       2.898221       0.00000
  47    0.1255       35.1072        0.0021       38.0033       38.0054       2.898221       0.00000
  46    0.1487       35.1068        0.0029       38.0022       38.0051       2.898221      -0.00000
  45    0.1794       35.1064        0.0040       38.0006       38.0046       2.898221       0.00000
  44    0.2165       35.1058        0.0053       37.9987       38.0040       2.898221       0.00000
  43    0.2613       35.1052        0.0069       37.9965       38.0034       2.898221      -0.00000
  42    0.3336       35.1041        0.0094       37.9928       38.0023       2.898221       0.00000
  41    0.4307       35.1026        0.0129       37.9880       38.0008       2.898221       0.00000
  40    0.5894       35.1003        0.0184       37.9800       37.9985       2.898221       0.00000
  39     1.339       35.0891        0.0448       37.9425       37.9873       2.898221       0.00000
  38     1.782       35.0825        0.0603       37.9204       37.9808       2.898221       0.00000
  37     2.292       35.0749        0.0783       37.8949       37.9732       2.898221       0.00000
  36     2.964       35.0650        0.1018       37.8614       37.9632       2.898221       0.00000
  35     3.853       35.0518        0.1328       37.8172       37.9501       2.898221      -0.00000
  34     5.035       35.0344        0.1740       37.7586       37.9326       2.898221       0.00000
  33     6.613       35.0111        0.2290       37.6803       37.9093       2.898221       0.00000
  32     8.786       34.9798        0.3029       37.5750       37.8780       2.898221       0.00000
  31     11.80       34.9351        0.4084       37.4249       37.8333       2.898221       0.00000
  30     15.07       34.8872        0.5213       37.2642       37.7854       2.898221      -0.00000
  29     18.79       34.8334        0.6483       37.0833       37.7316       2.898221       0.00000
  28     23.16       34.7707        0.7959       36.8730       37.6689       2.898221       0.00000
  27     28.12       34.6994        0.9639       36.6338       37.5976       2.898221      -0.00000
  26     33.73       34.6201        1.1506       36.3677       37.5183       2.898221       0.00000
  25     40.54       34.5249        1.3746       36.0486       37.4231       2.898221      -0.00000
  24     48.69       34.4111        1.6421       35.6672       37.3093       2.898221      -0.00000
  23     57.69       34.2872        1.9328       35.2527       37.1855       2.898221       0.00000
  22     68.43       34.1414        2.2747       34.7649       37.0396       2.898221       0.00000
  21     81.20       33.9700        2.6760       34.1922       36.8683       2.898221       0.00000
  20     96.49       33.7691        3.1456       33.5217       36.6674       2.898221       0.00000
  19     114.6       33.5353        3.6911       32.7424       36.4335       2.898221      -0.00000
  18     136.5       33.2645        4.3211       31.8416       36.1627       2.898221       0.00000
  17     162.9       32.9509        5.0483       30.8008       35.8491       2.898221       0.00000
  16     196.4       32.5580        5.9555       29.5007       35.4562       2.898221       0.00000
  15     218.7       32.3083        6.5298       28.6767       35.2065       2.898221       0.00000
  14     243.0       32.0441        7.1355       27.8068       34.9423       2.898221      -0.00000
  13     269.0       31.7658        7.7707       26.8933       34.6641       2.898221       0.00000
  12     297.5       31.4744        8.4333       25.9393       34.3726       2.898221       0.00000
  11     328.5       31.1696        9.1228       24.9451       34.0679       2.898221      -0.00000
  10     361.9       30.8530        9.8352       23.9160       33.7512       2.898221       0.00000
   9     398.1       30.5249       10.5690       22.8541       33.4231       2.898221      -0.00000
   8     437.6       30.1866       11.3203       21.7645       33.0848       2.898221       0.00000
   7     480.5       29.8394       12.0854       20.6521       32.7376       2.898221       0.00000
   6     533.0       29.4324       12.9737       19.3569       32.3306       2.898221      -0.00000
   5     589.8       29.0173       13.8688       18.0467       31.9156       2.898221       0.00000
   4     651.6       28.5969       14.7635       16.7316       31.4951       2.898221       0.00000
   3     718.7       28.1734       15.6503       15.4214       31.0717       2.898221       0.00000
   2     792.3       27.7501       16.5207       14.1276       30.6483       2.898221      -0.00000
   1     891.5       10.6617       13.5594        0.0000       13.5594       2.897763       0.00004
   0    1013.0       10.5614       13.4592        0.0000       13.4592       2.897763       0.00000



 Wavenumbers: 29000. - 38000. cm-1, ATM      1
 LEVEL PRESSURE   UPWARD FLUX   DIFDOWN FLUX  DIRDOWN FLUX  DOWNWARD FLUX   NET FLUX    HEATING RATE
          mb          W/m2          W/m2          W/m2        W/m2          W/m2       degree/day
  51    .06700        5.0532        0.0000       13.4026       13.4026       8.349443       0.00000
  50    .07753        5.0529        0.0003       13.3983       13.3986       8.345644       3.04455
  49    .09103        5.0527        0.0007       13.3921       13.3928       8.340125       3.44986
  48    0.1069        5.0524        0.0011       13.3840       13.3851       8.332748       3.92698
  47    0.1255        5.0520        0.0016       13.3733       13.3749       8.322902       4.46343
  46    0.1487        5.0516        0.0022       13.3579       13.3601       8.308459       5.26468
  45    0.1794        5.0510        0.0030       13.3340       13.3371       8.286058       6.14963
  44    0.2165        5.0504        0.0040       13.3024       13.3064       8.256037       6.82918
  43    0.2613        5.0496        0.0052       13.2604       13.2656       8.215980       7.55058
  42    0.3336        5.0484        0.0071       13.1833       13.1904       8.141969       8.62899
  41    0.4307        5.0469        0.0095       13.0729       13.0824       8.035589       9.24945
  40    0.5894        5.0445        0.0134       12.8796       12.8930       7.848532       9.94749
  39     1.339        5.0362        0.0298       11.9165       11.9463       6.910084      10.56522
  38     1.782        5.0330        0.0381       11.4399       11.4780       6.445010       8.85425
  37     2.292        5.0307        0.0471       10.9796       11.0267       5.995946       7.43768
  36     2.964        5.0296        0.0580       10.4786       10.5367       5.507103       6.13645
  35     3.853        5.0306        0.0716        9.9429       10.0145       4.983910       4.96519
  34     5.035        5.0345        0.0885        9.4007        9.4892       4.454679       3.78061
  33     6.613        5.0416        0.1100        8.8752        8.9852       3.943593       2.73227
  32     8.786        5.0513        0.1377        8.3786        8.5163       3.464953       1.85887
  31     11.80        5.0633        0.1758        7.8897        8.0654       3.002100       1.29584
  30     15.07        5.0738        0.2150        7.5108        7.7258       2.652012       0.90386
  29     18.79        5.0838        0.2578        7.1776        7.4355       2.351705       0.68089
  28     23.16        5.0931        0.3061        6.8664        7.1725       2.079416       0.52652
  27     28.12        5.1010        0.3594        6.5780        6.9374       1.836407       0.41310
  26     33.73        5.1050        0.4175        6.3195        6.7370       1.631962       0.30739
  25     40.54        5.1041        0.4861        6.0663        6.5524       1.448304       0.22785
  24     48.69        5.0976        0.5665        5.8128        6.3793       1.281733       0.17237
  23     57.69        5.0854        0.6523        5.5777        6.2300       1.144615       0.12853
  22     68.43        5.0654        0.7517        5.3379        6.0896       1.024205       0.09466
  21     81.20        5.0331        0.8670        5.0965        5.9635       0.930370       0.06200
  20     96.49        4.9875        1.0003        4.8476        5.8479       0.860412       0.03861
  19     114.6        4.9318        1.1514        4.5799        5.7313       0.799441       0.02847
  18     136.5        4.8672        1.3204        4.2891        5.6094       0.742213       0.02201
  17     162.9        4.7935        1.5079        3.9732        5.4810       0.687567       0.01747
  16     196.4        4.6999        1.7327        3.6080        5.3407       0.640765       0.01178
  15     218.7        4.6410        1.8697        3.3898        5.2594       0.618443       0.00847
  14     243.0        4.5798        2.0094        3.1686        5.1780       0.598166       0.00703
  13     269.0        4.5167        2.1508        2.9461        5.0969       0.580254       0.00581
  12     297.5        4.4520        2.2928        2.7239        5.0167       0.564731       0.00460
  11     328.5        4.3866        2.4338        2.5029        4.9367       0.550124       0.00397
  10     361.9        4.3210        2.5729        2.2846        4.8575       0.536456       0.00346
   9     398.1        4.2556        2.7086        2.0708        4.7793       0.523723       0.00297
   8     437.6        4.1909        2.8399        1.8626        4.7025       0.511652       0.00258
   7     480.5        4.1273        2.9655        1.6621        4.6277       0.500377       0.00221
   6     533.0        4.0563        3.1010        1.4437        4.5446       0.488290       0.00194
   5     589.8        3.9881        3.2259        1.2390        4.4649       0.476787       0.00171
   4     651.6        3.9230        3.3387        1.0500        4.3888       0.465710       0.00151
   3     718.7        3.8616        3.4388        0.8778        4.3166       0.455022       0.00134
   2     792.3        3.8040        3.5250        0.7237        4.2487       0.444702       0.00118
   1     891.5        1.5957        2.0318        0.0000        2.0318       0.436076       0.00073
   0    1013.0        1.5676        1.9977        0.0000        1.9977       0.430098       0.00042



 Wavenumbers: 38000. - 50000. cm-1, ATM      1
 LEVEL PRESSURE   UPWARD FLUX   DIFDOWN FLUX  DIRDOWN FLUX  DOWNWARD FLUX   NET FLUX    HEATING RATE
          mb          W/m2          W/m2          W/m2        W/m2          W/m2       degree/day
  51    .06700        0.0051        0.0000        0.8267        0.8267       0.821528       0.00000
  50    .07753        0.0051        0.0001        0.8242        0.8243       0.819196       1.86936
  49    .09103        0.0050        0.0002        0.8207        0.8209       0.815872       2.07705
  48    0.1069        0.0049        0.0002        0.8162        0.8164       0.811514       2.31984
  47    0.1255        0.0048        0.0004        0.8103        0.8106       0.805801       2.59006
  46    0.1487        0.0047        0.0005        0.8018        0.8023       0.797567       3.00143
  45    0.1794        0.0045        0.0007        0.7889        0.7896       0.785013       3.44648
  44    0.2165        0.0044        0.0009        0.7720        0.7729       0.768507       3.75474
  43    0.2613        0.0042        0.0011        0.7500        0.7511       0.746955       4.06246
  42    0.3336        0.0039        0.0015        0.7106        0.7121       0.708267       4.51071
  41    0.4307        0.0035        0.0019        0.6566        0.6584       0.654972       4.63387
  40    0.5894        0.0029        0.0024        0.5680        0.5704       0.567464       4.65357
  39     1.339        0.0015        0.0030        0.2422        0.2452       0.243720       3.64476
  38     1.782        0.0010        0.0026        0.1493        0.1519       0.150889       1.76735
  37     2.292        0.0007        0.0022        0.0924        0.0946       0.093932       0.94336
  36     2.964        0.0005        0.0018        0.0539        0.0557       0.055224       0.48589
  35     3.853        0.0003        0.0013        0.0295        0.0308       0.030502       0.23462
  34     5.035        0.0002        0.0010        0.0154        0.0164       0.016181       0.10230
  33     6.613        0.0001        0.0007        0.0073        0.0080       0.007912       0.04420
  32     8.786        0.0000        0.0004        0.0030        0.0034       0.003390       0.01756
  31     11.80        0.0000        0.0003        0.0010        0.0012       0.001199       0.00613
  30     15.07        0.0000        0.0001        0.0003        0.0005       0.000463       0.00190
  29     18.79        0.0000        0.0001        0.0001        0.0002       0.000182       0.00064
  28     23.16        0.0000        0.0000        0.0000        0.0001       0.000071       0.00022
  27     28.12        0.0000        0.0000        0.0000        0.0000       0.000028       0.00007
  26     33.73        0.0000        0.0000        0.0000        0.0000       0.000011       0.00002
  25     40.54        0.0000        0.0000        0.0000        0.0000       0.000005       0.00001
  24     48.69        0.0000        0.0000        0.0000        0.0000       0.000002       0.00000
  23     57.69        0.0000        0.0000        0.0000        0.0000       0.000001       0.00000
  22     68.43        0.0000        0.0000        0.0000        0.0000       0.000000       0.00000
  21     81.20        0.0000        0.0000        0.0000        0.0000       0.000000       0.00000
  20     96.49        0.0000        0.0000        0.0000        0.0000       0.000000       0.00000
  19     114.6        0.0000        0.0000        0.0000        0.0000       0.000000       0.00000
  18     136.5        0.0000        0.0000        0.0000        0.0000       0.000000       0.00000
  17     162.9        0.0000        0.0000        0.0000        0.0000       0.000000       0.00000
  16     196.4        0.0000        0.0000        0.0000        0.0000       0.000000       0.00000
  15     218.7        0.0000        0.0000        0.0000        0.0000       0.000000       0.00000
  14     243.0        0.0000        0.0000        0.0000        0.0000       0.000000       0.00000
  13     269.0        0.0000        0.0000        0.0000        0.0000       0.000000       0.00000
  12     297.5        0.0000        0.0000        0.0000        0.0000       0.000000       0.00000
  11     328.5        0.0000        0.0000        0.0000        0.0000       0.000000       0.00000
  10     361.9        0.0000        0.0000        0.0000        0.0000       0.000000       0.00000
   9     398.1        0.0000        0.0000        0.0000        0.0000       0.000000       0.00000
   8     437.6        0.0000        0.0000        0.0000        0.0000       0.000000       0.00000
   7     480.5        0.0000        0.0000        0.0000        0.0000       0.000000       0.00000
   6     533.0        0.0000        0.0000        0.0000        0.0000       0.000000       0.00000
   5     589.8        0.0000        0.0000        0.0000        0.0000       0.000000       0.00000
   4     651.6        0.0000        0.0000        0.0000        0.0000       0.000000       0.00000
   3     718.7        0.0000        0.0000        0.0000        0.0000       0.000000       0.00000
   2     792.3        0.0000        0.0000        0.0000        0.0000       0.000000       0.00000
   1     891.5        0.0000        0.0000        0.0000        0.0000       0.000000       0.00000
   0    1013.0        0.0000        0.0000        0.0000        0.0000       0.000000       0.00000



 Wavenumbers:   820. -  2600. cm-1, ATM      1
 LEVEL PRESSURE   UPWARD FLUX   DIFDOWN FLUX  DIRDOWN FLUX  DOWNWARD FLUX   NET FLUX    HEATING RATE
          mb          W/m2          W/m2          W/m2        W/m2          W/m2       degree/day
  51    .06700        0.8282        0.0000        3.8670        3.8670       3.038778       0.00000
  50    .07753        0.8282        0.0000        3.8643        3.8643       3.036061       2.17771
  49    .09103        0.8282        0.0000        3.8635        3.8635       3.035251       0.50640
  48    0.1069        0.8282        0.0000        3.8626        3.8626       3.034360       0.47417
  47    0.1255        0.8282        0.0000        3.8616        3.8616       3.033399       0.43561
  46    0.1487        0.8282        0.0000        3.8605        3.8605       3.032290       0.40439
  45    0.1794        0.8282        0.0000        3.8592        3.8592       3.030955       0.36650
  44    0.2165        0.8282        0.0000        3.8578        3.8578       3.029577       0.31348
  43    0.2613        0.8282        0.0000        3.8564        3.8564       3.028117       0.27524
  42    0.3336        0.8282        0.0000        3.8541        3.8541       3.025885       0.26015
  41    0.4307        0.8282        0.0000        3.8512        3.8512       3.023003       0.25065
  40    0.5894        0.8282        0.0000        3.8465        3.8465       3.018276       0.25136
  39     1.339        0.8282        0.0000        3.8251        3.8251       2.996899       0.24067
  38     1.782        0.8282        0.0000        3.8133        3.8133       2.985085       0.22492
  37     2.292        0.8282        0.0000        3.8003        3.8003       2.972022       0.21635
  36     2.964        0.8283        0.0000        3.7841        3.7841       2.955891       0.20249
  35     3.853        0.8283        0.0000        3.7642        3.7642       2.935974       0.18902
  34     5.035        0.8283        0.0000        3.7395        3.7395       2.911280       0.17641
  33     6.613        0.8283        0.0000        3.7090        3.7090       2.880739       0.16327
  32     8.786        0.8283        0.0000        3.6726        3.6726       2.844340       0.14136
  31     11.80        0.8283        0.0000        3.6320        3.6320       2.803736       0.11368
  30     15.07        0.8283        0.0000        3.6016        3.6016       2.773342       0.07847
  29     18.79        0.8283        0.0000        3.5777        3.5777       2.749433       0.05421
  28     23.16        0.8283        0.0000        3.5564        3.5564       2.728065       0.04132
  27     28.12        0.8283        0.0000        3.5348        3.5348       2.706503       0.03665
  26     33.73        0.8284        0.0000        3.5118        3.5118       2.683451       0.03466
  25     40.54        0.8284        0.0000        3.4849        3.4849       2.656540       0.03339
  24     48.69        0.8284        0.0000        3.4537        3.4537       2.625260       0.03237
  23     57.69        0.8285        0.0000        3.4210        3.4210       2.592556       0.03066
  22     68.43        0.8285        0.0000        3.3844        3.3844       2.555933       0.02879
  21     81.20        0.8286        0.0000        3.3441        3.3441       2.515589       0.02666
  20     96.49        0.8286        0.0000        3.2998        3.2998       2.471169       0.02452
  19     114.6        0.8287        0.0000        3.2506        3.2507       2.421953       0.02298
  18     136.5        0.8288        0.0000        3.1936        3.1936       2.364807       0.02197
  17     162.9        0.8290        0.0000        3.1181        3.1181       2.289138       0.02419
  16     196.4        0.8293        0.0000        3.0090        3.0090       2.179631       0.02756
  15     218.7        0.8296        0.0000        2.9420        2.9420       2.112391       0.02553
  14     243.0        0.8300        0.0000        2.8605        2.8605       2.030482       0.02841
  13     269.0        0.8307        0.0000        2.7419        2.7420       1.911320       0.03866
  12     297.5        0.8317        0.0000        2.5729        2.5729       1.741157       0.05047
  11     328.5        0.8334        0.0000        2.3602        2.3602       1.526766       0.05829
  10     361.9        0.8360        0.0000        2.1524        2.1524       1.316404       0.05322
   9     398.1        0.8397        0.0000        1.9974        1.9974       1.157725       0.03697
   8     437.6        0.8448        0.0000        1.8835        1.8835       1.038702       0.02545
   7     480.5        0.8521        0.0000        1.7734        1.7734       0.921331       0.02305
   6     533.0        0.8641        0.0000        1.6397        1.6398       0.775712       0.02343
   5     589.8        0.8812        0.0000        1.5068        1.5069       0.625706       0.02227
   4     651.6        0.9064        0.0000        1.3807        1.3807       0.474321       0.02070
   3     718.7        0.9402        0.0000        1.2680        1.2681       0.327874       0.01840
   2     792.3        0.9826        0.0000        1.1659        1.1660       0.183393       0.01657
   1     891.5        0.0323        0.1567        0.0000        0.1567       0.124447       0.00502
   0    1013.0        0.0355        0.1418        0.0000        0.1418       0.106224       0.00127

  Modules and versions used in this calculation:

       rrtmg_sw.1col.f90:  $Revision$                    rrtmg_sw_init.f90:  $Revision$        
     rrtmgsw_cldprop.f90:  $Revision$                  rrtmgsw_cldprmc.f90:  NOT USED          
     rrtmg_sw_reftra.f90:  $Revision$                  rrtmg_sw_spcvrt.f90:  NOT USED          
     rrtmg_sw_spcvmc.f90:  NOT USED                    rrtmgsw_setcoef.f90:  NOT USED          
     rrtmg_sw_taumol.f90:  $Revision$                  rrtmg_sw_vrtqdr.f90:  NOT USED          
                rrtatm.f:  NOT USED                             util_xxx.f:  NOT USED          
                 extra.f:  NOT USED                       rrtmg_sw_k_g.f90:  $Revision$        

