

 Wavenumbers:   820. - 50000. cm-1, ATM      1
 LEVEL PRESSURE   UPWARD FLUX   DIFDOWN FLUX  DIRDOWN FLUX  DOWNWARD FLUX   NET FLUX    HEATING RATE
          mb          W/m2          W/m2          W/m2        W/m2          W/m2       degree/day
  51    .06700      292.9897        0.0000      397.8738      397.8738     104.884127       0.00000
  50    .07753      292.9891        0.0012      397.8577      397.8589     104.869829      11.45948
  49    .09103      292.9884        0.0027      397.8418      397.8445     104.856132       8.56107
  48    0.1069      292.9876        0.0044      397.8230      397.8274     104.839773       8.70809
  47    0.1255      292.9867        0.0064      397.7997      397.8060     104.819316       9.27441
  46    0.1487      292.9857        0.0089      397.7676      397.7765     104.790837      10.38079
  45    0.1794      292.9843        0.0123      397.7205      397.7328     104.748512      11.61910
  44    0.2165      292.9827        0.0163      397.6602      397.6765     104.693821      12.44140
  43    0.2613      292.9809        0.0210      397.5829      397.6039     104.622966      13.35586
  42    0.3336      292.9783        0.0288      397.4449      397.4737     104.495418      14.87080
  41    0.4307      292.9750        0.0390      397.2524      397.2914     104.316387      15.56639
  40    0.5894      292.9703        0.0554      396.9253      396.9807     104.010362      16.27398
  39     1.339      292.9608        0.1288      395.4254      395.5542     102.593403      15.95239
  38     1.782      292.9635        0.1700      394.7288      394.8988     101.935282      12.52957
  37     2.292      292.9741        0.2169      394.0572      394.2741     101.300013      10.52171
  36     2.964      292.9990        0.2779      393.3007      393.5786     100.579565       9.04380
  35     3.853      293.0472        0.3575      392.4318      392.7894      99.742141       7.94731
  34     5.035      293.1264        0.4624      391.4441      391.9065      98.780068       6.87265
  33     6.613      293.2405        0.6014      390.3268      390.9281      97.687592       5.84038
  32     8.786      293.3880        0.7872      389.0624      389.8496      96.461599       4.76131
  31     11.80      293.5729        1.0511      387.5500      388.6011      95.028134       4.01325
  30     15.07      293.7409        1.3321      386.1556      387.4877      93.746830       3.30808
  29     18.79      293.9034        1.6472      384.7502      386.3974      92.493962       2.84064
  28     23.16      294.0619        2.0124      383.2686      385.2810      91.219092       2.46519
  27     28.12      294.2065        2.4267      381.7329      384.1596      89.953114       2.15208
  26     33.73      294.3146        2.8871      380.1982      383.0853      88.770688       1.77781
  25     40.54      294.3831        3.4394      378.5384      381.9778      87.594751       1.45888
  24     48.69      294.4060        4.0996      376.7214      380.8211      86.415054       1.22080
  23     57.69      294.3741        4.8183      374.8959      379.7142      85.340086       1.00762
  22     68.43      294.2748        5.6659      372.8999      378.5658      84.291060       0.82468
  21     81.20      294.0717        6.6654      370.7496      377.4151      83.343345       0.62624
  20     96.49      293.7531        7.8420      368.4056      376.2475      82.494405       0.46855
  19     114.6      293.3501        9.2172      365.7513      374.9685      81.618366       0.40905
  18     136.5      292.8552       10.8156      362.7231      373.5388      80.683526       0.35947
  17     162.9      292.2566       12.6756      359.1748      371.8504      79.593843       0.34831
  16     196.4      291.4485       15.0235      354.5718      369.5953      78.146868       0.36422
  15     218.7      290.9127       16.5269      351.4437      367.9706      77.057868       0.41345
  14     243.0      290.3360       18.1275      347.7111      365.8387      75.502664       0.53940
  13     269.0      289.7217       19.8238      342.9441      362.7680      73.046295       0.79683
  12     297.5      289.0746       21.6139      337.4137      359.0276      69.952984       0.91744
  11     328.5      288.4056       23.4999      331.1302      354.6301      66.224513       1.01376
  10     361.9      287.7262       25.4765      324.1219      349.5984      61.872155       1.10119
   9     398.1      287.0496       27.5436      316.6066      344.1502      57.100572       1.11167
   8     437.6      286.4015       29.6970      308.5895      338.2865      51.884964       1.11513
   7     480.5      285.8291       31.9313      299.9349      331.8662      46.037032       1.14851
   6     533.0      285.3257       34.5833      289.7021      324.2854      38.959697       1.13852
   5     589.8      285.0756       37.3273      279.3388      316.6661      31.590508       1.09383
   4     651.6      285.2442       40.1517      268.7786      308.9303      23.686141       1.08094
   3     718.7      285.9759       43.0483      258.2837      301.3320      15.356134       1.04685
   2     792.3      287.4631       46.0036      248.0774      294.0810       6.617947       1.00217
   1     891.5        9.2015       13.7397        0.0000       13.7397       4.538267       0.17697
   0    1013.0        9.1773       13.6310        0.0000       13.6310       4.453674       0.00587



 Wavenumbers:  2600. -  3250. cm-1, ATM      1
 LEVEL PRESSURE   UPWARD FLUX   DIFDOWN FLUX  DIRDOWN FLUX  DOWNWARD FLUX   NET FLUX    HEATING RATE
          mb          W/m2          W/m2          W/m2        W/m2          W/m2       degree/day
  51    .06700        1.2626        0.0000        3.5066        3.5066       2.244060       0.00000
  50    .07753        1.2626        0.0000        3.5066        3.5066       2.244052       0.00640
  49    .09103        1.2626        0.0000        3.5066        3.5066       2.244042       0.00627
  48    0.1069        1.2626        0.0000        3.5066        3.5066       2.244030       0.00613
  47    0.1255        1.2626        0.0000        3.5066        3.5066       2.244017       0.00599
  46    0.1487        1.2626        0.0000        3.5066        3.5066       2.244001       0.00607
  45    0.1794        1.2626        0.0000        3.5065        3.5065       2.243978       0.00624
  44    0.2165        1.2626        0.0000        3.5065        3.5065       2.243951       0.00611
  43    0.2613        1.2626        0.0000        3.5065        3.5065       2.243919       0.00598
  42    0.3336        1.2626        0.0000        3.5064        3.5064       2.243866       0.00615
  41    0.4307        1.2626        0.0000        3.5064        3.5064       2.243795       0.00618
  40    0.5894        1.2626        0.0000        3.5062        3.5062       2.243676       0.00633
  39     1.339        1.2626        0.0000        3.5055        3.5055       2.242978       0.00787
  38     1.782        1.2626        0.0000        3.5050        3.5050       2.242447       0.01011
  37     2.292        1.2626        0.0000        3.5043        3.5043       2.241754       0.01147
  36     2.964        1.2626        0.0000        3.5033        3.5033       2.240763       0.01245
  35     3.853        1.2626        0.0000        3.5019        3.5019       2.239386       0.01307
  34     5.035        1.2626        0.0000        3.5001        3.5001       2.237525       0.01329
  33     6.613        1.2626        0.0000        3.4977        3.4977       2.235115       0.01288
  32     8.786        1.2626        0.0000        3.4947        3.4947       2.232143       0.01154
  31     11.80        1.2626        0.0000        3.4911        3.4911       2.228507       0.01018
  30     15.07        1.2626        0.0000        3.4878        3.4878       2.225285       0.00832
  29     18.79        1.2626        0.0000        3.4848        3.4848       2.222219       0.00695
  28     23.16        1.2626        0.0000        3.4816        3.4816       2.218997       0.00623
  27     28.12        1.2626        0.0000        3.4779        3.4779       2.215375       0.00616
  26     33.73        1.2626        0.0000        3.4735        3.4735       2.210902       0.00672
  25     40.54        1.2626        0.0000        3.4671        3.4672       2.204567       0.00786
  24     48.69        1.2626        0.0000        3.4582        3.4583       2.195658       0.00922
  23     57.69        1.2626        0.0000        3.4472        3.4472       2.184590       0.01037
  22     68.43        1.2626        0.0000        3.4329        3.4330       2.170302       0.01123
  21     81.20        1.2627        0.0000        3.4152        3.4152       2.152533       0.01174
  20     96.49        1.2628        0.0000        3.3940        3.3941       2.131330       0.01170
  19     114.6        1.2628        0.0000        3.3692        3.3692       2.106359       0.01166
  18     136.5        1.2630        0.0001        3.3419        3.3420       2.079023       0.01051
  17     162.9        1.2632        0.0001        3.3129        3.3129       2.049770       0.00935
  16     196.4        1.2635        0.0001        3.2793        3.2794       2.015873       0.00853
  15     218.7        1.2639        0.0001        3.2578        3.2579       1.993941       0.00833
  14     243.0        1.2645        0.0001        3.2320        3.2321       1.967575       0.00914
  13     269.0        1.2654        0.0001        3.1968        3.1969       1.931524       0.01169
  12     297.5        1.2669        0.0001        3.1489        3.1491       1.882203       0.01463
  11     328.5        1.2690        0.0001        3.0821        3.0822       1.813137       0.01878
  10     361.9        1.2723        0.0001        2.9902        2.9904       1.718084       0.02405
   9     398.1        1.2770        0.0001        2.8715        2.8716       1.594652       0.02876
   8     437.6        1.2838        0.0002        2.7276        2.7278       1.444038       0.03220
   7     480.5        1.2940        0.0002        2.5595        2.5597       1.265678       0.03503
   6     533.0        1.3114        0.0002        2.3617        2.3619       1.050550       0.03461
   5     589.8        1.3370        0.0002        2.1649        2.1651       0.828086       0.03302
   4     651.6        1.3755        0.0002        1.9608        1.9609       0.585477       0.03318
   3     718.7        1.4310        0.0002        1.7593        1.7595       0.328486       0.03230
   2     792.3        1.5097        0.0002        1.5761        1.5762       0.066543       0.03004
   1     891.5        0.0039        0.0174        0.0000        0.0174       0.013550       0.00451
   0    1013.0        0.0041        0.0164        0.0000        0.0164       0.012306       0.00009



 Wavenumbers:  3250. -  4000. cm-1, ATM      1
 LEVEL PRESSURE   UPWARD FLUX   DIFDOWN FLUX  DIRDOWN FLUX  DOWNWARD FLUX   NET FLUX    HEATING RATE
          mb          W/m2          W/m2          W/m2        W/m2          W/m2       degree/day
  51    .06700        0.0130        0.0000        5.9117        5.9117       5.898669       0.00000
  50    .07753        0.0130        0.0000        5.9075        5.9075       5.894480       3.35808
  49    .09103        0.0130        0.0000        5.9050        5.9050       5.892037       1.52677
  48    0.1069        0.0130        0.0000        5.9032        5.9032       5.890171       0.99346
  47    0.1255        0.0130        0.0000        5.9014        5.9014       5.888412       0.79708
  46    0.1487        0.0130        0.0000        5.8995        5.8995       5.886524       0.68848
  45    0.1794        0.0130        0.0000        5.8974        5.8974       5.884375       0.58983
  44    0.2165        0.0130        0.0000        5.8952        5.8952       5.882258       0.48155
  43    0.2613        0.0130        0.0000        5.8931        5.8931       5.880099       0.40696
  42    0.3336        0.0130        0.0000        5.8899        5.8899       5.876941       0.36820
  41    0.4307        0.0130        0.0000        5.8861        5.8861       5.873104       0.33365
  40    0.5894        0.0130        0.0000        5.8803        5.8803       5.867301       0.30857
  39     1.339        0.0130        0.0000        5.8597        5.8597       5.846704       0.23189
  38     1.782        0.0130        0.0000        5.8513        5.8513       5.838279       0.16039
  37     2.292        0.0130        0.0000        5.8431        5.8431       5.830108       0.13533
  36     2.964        0.0130        0.0000        5.8334        5.8334       5.820469       0.12100
  35     3.853        0.0130        0.0000        5.8213        5.8213       5.808293       0.11555
  34     5.035        0.0130        0.0000        5.8052        5.8052       5.792198       0.11498
  33     6.613        0.0130        0.0000        5.7833        5.7834       5.770377       0.11666
  32     8.786        0.0130        0.0000        5.7531        5.7531       5.740175       0.11729
  31     11.80        0.0130        0.0000        5.7090        5.7090       5.696006       0.12366
  30     15.07        0.0130        0.0000        5.6615        5.6615       5.648542       0.12254
  29     18.79        0.0130        0.0000        5.6093        5.6094       5.596406       0.11821
  28     23.16        0.0130        0.0000        5.5524        5.5524       5.539480       0.11008
  27     28.12        0.0129        0.0000        5.4935        5.4935       5.480601       0.10009
  26     33.73        0.0129        0.0000        5.4348        5.4349       5.421912       0.08824
  25     40.54        0.0129        0.0001        5.3707        5.3708       5.357851       0.07948
  24     48.69        0.0129        0.0001        5.2985        5.2985       5.285618       0.07475
  23     57.69        0.0129        0.0001        5.2215        5.2216       5.208679       0.07212
  22     68.43        0.0129        0.0001        5.1318        5.1319       5.119018       0.07048
  21     81.20        0.0129        0.0001        5.0284        5.0285       5.015589       0.06834
  20     96.49        0.0129        0.0001        4.9122        4.9123       4.899455       0.06410
  19     114.6        0.0128        0.0001        4.7780        4.7782       4.765344       0.06262
  18     136.5        0.0128        0.0002        4.6285        4.6287       4.615865       0.05748
  17     162.9        0.0128        0.0002        4.4406        4.4407       4.427952       0.06006
  16     196.4        0.0128        0.0002        4.1548        4.1550       4.142277       0.07191
  15     218.7        0.0127        0.0002        3.9564        3.9566       3.943893       0.07532
  14     243.0        0.0127        0.0002        3.7055        3.7058       3.693052       0.08700
  13     269.0        0.0127        0.0002        3.3399        3.3401       3.327397       0.11862
  12     297.5        0.0127        0.0002        2.8954        2.8956       2.882871       0.13184
  11     328.5        0.0128        0.0002        2.4388        2.4390       2.426257       0.12415
  10     361.9        0.0129        0.0002        2.0269        2.0271       2.014185       0.10426
   9     398.1        0.0131        0.0002        1.6753        1.6755       1.662363       0.08197
   8     437.6        0.0135        0.0002        1.3592        1.3594       1.345837       0.06768
   7     480.5        0.0143        0.0002        1.0616        1.0618       1.047515       0.05859
   6     533.0        0.0158        0.0001        0.7543        0.7544       0.738659       0.04969
   5     589.8        0.0186        0.0001        0.4951        0.4952       0.476662       0.03889
   4     651.6        0.0240        0.0001        0.2943        0.2943       0.270300       0.02822
   3     718.7        0.0348        0.0001        0.1528        0.1529       0.118051       0.01913
   2     792.3        0.0569        0.0000        0.0658        0.0658       0.008973       0.01251
   1     891.5        0.0000        0.0000        0.0000        0.0000       0.000004       0.00076
   0    1013.0        0.0000        0.0000        0.0000        0.0000       0.000001       0.00000



 Wavenumbers:  4000. -  4650. cm-1, ATM      1
 LEVEL PRESSURE   UPWARD FLUX   DIFDOWN FLUX  DIRDOWN FLUX  DOWNWARD FLUX   NET FLUX    HEATING RATE
          mb          W/m2          W/m2          W/m2        W/m2          W/m2       degree/day
  51    .06700        4.4445        0.0000        6.9421        6.9421       2.497568       0.00000
  50    .07753        4.4445        0.0000        6.9421        6.9421       2.497567       0.00079
  49    .09103        4.4445        0.0000        6.9421        6.9421       2.497566       0.00078
  48    0.1069        4.4445        0.0000        6.9421        6.9421       2.497565       0.00076
  47    0.1255        4.4445        0.0000        6.9421        6.9421       2.497563       0.00074
  46    0.1487        4.4445        0.0000        6.9421        6.9421       2.497561       0.00075
  45    0.1794        4.4445        0.0000        6.9421        6.9421       2.497558       0.00077
  44    0.2165        4.4445        0.0000        6.9421        6.9421       2.497555       0.00076
  43    0.2613        4.4445        0.0000        6.9420        6.9420       2.497551       0.00074
  42    0.3336        4.4445        0.0000        6.9420        6.9420       2.497544       0.00076
  41    0.4307        4.4445        0.0000        6.9420        6.9420       2.497535       0.00077
  40    0.5894        4.4445        0.0000        6.9420        6.9420       2.497520       0.00079
  39     1.339        4.4445        0.0000        6.9419        6.9419       2.497432       0.00100
  38     1.782        4.4445        0.0000        6.9418        6.9419       2.497362       0.00132
  37     2.292        4.4445        0.0000        6.9418        6.9418       2.497269       0.00155
  36     2.964        4.4445        0.0000        6.9416        6.9416       2.497129       0.00175
  35     3.853        4.4445        0.0000        6.9414        6.9414       2.496922       0.00196
  34     5.035        4.4445        0.0000        6.9411        6.9411       2.496617       0.00218
  33     6.613        4.4445        0.0000        6.9406        6.9407       2.496169       0.00240
  32     8.786        4.4445        0.0000        6.9399        6.9400       2.495508       0.00257
  31     11.80        4.4445        0.0001        6.9389        6.9389       2.494471       0.00290
  30     15.07        4.4445        0.0001        6.9377        6.9377       2.493258       0.00313
  29     18.79        4.4445        0.0001        6.9362        6.9363       2.491796       0.00332
  28     23.16        4.4445        0.0001        6.9343        6.9345       2.489986       0.00350
  27     28.12        4.4445        0.0001        6.9321        6.9323       2.487803       0.00371
  26     33.73        4.4445        0.0002        6.9294        6.9296       2.485123       0.00403
  25     40.54        4.4445        0.0002        6.9258        6.9260       2.481506       0.00449
  24     48.69        4.4445        0.0002        6.9210        6.9212       2.476713       0.00496
  23     57.69        4.4445        0.0003        6.9154        6.9156       2.471067       0.00529
  22     68.43        4.4446        0.0003        6.9083        6.9087       2.464039       0.00553
  21     81.20        4.4447        0.0004        6.8998        6.9001       2.455430       0.00569
  20     96.49        4.4449        0.0004        6.8894        6.8899       2.445011       0.00575
  19     114.6        4.4451        0.0005        6.8765        6.8770       2.431931       0.00611
  18     136.5        4.4455        0.0006        6.8610        6.8616       2.416104       0.00609
  17     162.9        4.4461        0.0007        6.8417        6.8424       2.396330       0.00632
  16     196.4        4.4471        0.0009        6.8147        6.8155       2.368452       0.00702
  15     218.7        4.4480        0.0010        6.7948        6.7958       2.347820       0.00783
  14     243.0        4.4493        0.0011        6.7698        6.7709       2.321542       0.00911
  13     269.0        4.4514        0.0012        6.7349        6.7360       2.284617       0.01198
  12     297.5        4.4546        0.0013        6.6869        6.6882       2.233583       0.01514
  11     328.5        4.4591        0.0014        6.6194        6.6208       2.161747       0.01953
  10     361.9        4.4650        0.0016        6.5295        6.5310       2.066043       0.02421
   9     398.1        4.4728        0.0017        6.4202        6.4219       1.949097       0.02725
   8     437.6        4.4834        0.0019        6.2962        6.2980       1.814664       0.02874
   7     480.5        4.4981        0.0020        6.1555        6.1575       1.659408       0.03049
   6     533.0        4.5223        0.0022        5.9675        5.9697       1.447375       0.03411
   5     589.8        4.5582        0.0024        5.7368        5.7391       1.180865       0.03956
   4     651.6        4.6122        0.0025        5.4662        5.4688       0.856565       0.04435
   3     718.7        4.6900        0.0027        5.1912        5.1939       0.503910       0.04432
   2     792.3        4.7991        0.0029        4.9395        4.9423       0.143215       0.04137
   1     891.5        0.0197        0.0822        0.0000        0.0822       0.062469       0.00687
   0    1013.0        0.0201        0.0804        0.0000        0.0804       0.060209       0.00016



 Wavenumbers:  4650. -  5150. cm-1, ATM      1
 LEVEL PRESSURE   UPWARD FLUX   DIFDOWN FLUX  DIRDOWN FLUX  DOWNWARD FLUX   NET FLUX    HEATING RATE
          mb          W/m2          W/m2          W/m2        W/m2          W/m2       degree/day
  51    .06700        3.1237        0.0000        6.5710        6.5710       3.447269       0.00000
  50    .07753        3.1237        0.0000        6.5708        6.5708       3.447034       0.18887
  49    .09103        3.1237        0.0000        6.5705        6.5705       3.446740       0.18362
  48    0.1069        3.1237        0.0000        6.5701        6.5701       3.446405       0.17806
  47    0.1255        3.1237        0.0000        6.5697        6.5697       3.446025       0.17238
  46    0.1487        3.1237        0.0000        6.5693        6.5693       3.445551       0.17268
  45    0.1794        3.1237        0.0000        6.5686        6.5686       3.444915       0.17474
  44    0.2165        3.1237        0.0000        6.5679        6.5679       3.444177       0.16788
  43    0.2613        3.1237        0.0000        6.5670        6.5670       3.443324       0.16078
  42    0.3336        3.1237        0.0000        6.5657        6.5657       3.441961       0.15894
  41    0.4307        3.1237        0.0000        6.5640        6.5640       3.440239       0.14971
  40    0.5894        3.1237        0.0000        6.5613        6.5613       3.437623       0.13913
  39     1.339        3.1237        0.0000        6.5516        6.5516       3.427844       0.11008
  38     1.782        3.1237        0.0000        6.5473        6.5473       3.423628       0.08027
  37     2.292        3.1237        0.0000        6.5434        6.5435       3.419741       0.06439
  36     2.964        3.1237        0.0000        6.5395        6.5395       3.415786       0.04965
  35     3.853        3.1237        0.0000        6.5355        6.5356       3.411841       0.03743
  34     5.035        3.1237        0.0000        6.5315        6.5315       3.407837       0.02861
  33     6.613        3.1237        0.0000        6.5271        6.5271       3.403438       0.02351
  32     8.786        3.1237        0.0001        6.5216        6.5216       3.397936       0.02137
  31     11.80        3.1237        0.0001        6.5135        6.5136       3.389843       0.02266
  30     15.07        3.1237        0.0001        6.5041        6.5042       3.380456       0.02424
  29     18.79        3.1237        0.0001        6.4925        6.4927       3.368915       0.02617
  28     23.16        3.1238        0.0002        6.4779        6.4780       3.354287       0.02829
  27     28.12        3.1238        0.0002        6.4599        6.4601       3.336262       0.03064
  26     33.73        3.1239        0.0002        6.4384        6.4386       3.314766       0.03232
  25     40.54        3.1239        0.0003        6.4112        6.4115       3.287548       0.03377
  24     48.69        3.1241        0.0003        6.3775        6.3778       3.253780       0.03494
  23     57.69        3.1242        0.0004        6.3404        6.3408       3.216523       0.03492
  22     68.43        3.1245        0.0004        6.2971        6.2976       3.173104       0.03413
  21     81.20        3.1248        0.0005        6.2483        6.2488       3.123974       0.03246
  20     96.49        3.1253        0.0006        6.1948        6.1954       3.070169       0.02970
  19     114.6        3.1259        0.0007        6.1381        6.1389       3.012939       0.02672
  18     136.5        3.1268        0.0009        6.0790        6.0799       2.953012       0.02304
  17     162.9        3.1281        0.0010        6.0160        6.0171       2.888914       0.02049
  16     196.4        3.1302        0.0012        5.9399        5.9411       2.810913       0.01963
  15     218.7        3.1318        0.0013        5.8896        5.8910       2.759193       0.01964
  14     243.0        3.1339        0.0015        5.8322        5.8337       2.699766       0.02061
  13     269.0        3.1369        0.0016        5.7624        5.7640       2.627123       0.02356
  12     297.5        3.1412        0.0018        5.6767        5.6785       2.537351       0.02663
  11     328.5        3.1470        0.0019        5.5726        5.5745       2.427583       0.02985
  10     361.9        3.1548        0.0021        5.4473        5.4494       2.294657       0.03363
   9     398.1        3.1653        0.0023        5.2995        5.3018       2.136490       0.03685
   8     437.6        3.1794        0.0025        5.1275        5.1299       1.950558       0.03975
   7     480.5        3.1986        0.0026        4.9290        4.9316       1.732976       0.04273
   6     533.0        3.2291        0.0028        4.6794        4.6822       1.453056       0.04503
   5     589.8        3.2720        0.0030        4.4188        4.4218       1.149808       0.04501
   4     651.6        3.3330        0.0032        4.1521        4.1552       0.822234       0.04480
   3     718.7        3.4168        0.0033        3.8929        3.8963       0.479495       0.04307
   2     792.3        3.5299        0.0035        3.6469        3.6504       0.120526       0.04117
   1     891.5        0.0128        0.0541        0.0000        0.0541       0.041313       0.00674
   0    1013.0        0.0132        0.0525        0.0000        0.0525       0.039305       0.00014



 Wavenumbers:  5150. -  6150. cm-1, ATM      1
 LEVEL PRESSURE   UPWARD FLUX   DIFDOWN FLUX  DIRDOWN FLUX  DOWNWARD FLUX   NET FLUX    HEATING RATE
          mb          W/m2          W/m2          W/m2        W/m2          W/m2       degree/day
  51    .06700        7.6813        0.0000       16.4735       16.4735       8.792241       0.00000
  50    .07753        7.6813        0.0000       16.4735       16.4735       8.792207       0.02765
  49    .09103        7.6813        0.0000       16.4734       16.4734       8.792162       0.02814
  48    0.1069        7.6813        0.0000       16.4734       16.4734       8.792108       0.02863
  47    0.1255        7.6813        0.0000       16.4733       16.4733       8.792044       0.02908
  46    0.1487        7.6813        0.0000       16.4732       16.4732       8.791960       0.03063
  45    0.1794        7.6813        0.0000       16.4731       16.4731       8.791840       0.03273
  44    0.2165        7.6813        0.0000       16.4730       16.4730       8.791694       0.03335
  43    0.2613        7.6813        0.0000       16.4728       16.4728       8.791515       0.03379
  42    0.3336        7.6813        0.0000       16.4725       16.4725       8.791209       0.03568
  41    0.4307        7.6813        0.0000       16.4720       16.4720       8.790789       0.03649
  40    0.5894        7.6813        0.0000       16.4713       16.4713       8.790087       0.03732
  39     1.339        7.6812        0.0000       16.4679       16.4679       8.786674       0.03842
  38     1.782        7.6812        0.0001       16.4659       16.4659       8.784672       0.03813
  37     2.292        7.6812        0.0001       16.4635       16.4636       8.782376       0.03802
  36     2.964        7.6812        0.0001       16.4605       16.4606       8.779400       0.03736
  35     3.853        7.6812        0.0001       16.4567       16.4568       8.775537       0.03666
  34     5.035        7.6812        0.0001       16.4516       16.4517       8.770526       0.03580
  33     6.613        7.6812        0.0002       16.4451       16.4453       8.764044       0.03465
  32     8.786        7.6812        0.0003       16.4367       16.4369       8.755701       0.03240
  31     11.80        7.6812        0.0004       16.4254       16.4257       8.744501       0.03136
  30     15.07        7.6812        0.0004       16.4141       16.4146       8.733356       0.02877
  29     18.79        7.6812        0.0006       16.4024       16.4030       8.721765       0.02628
  28     23.16        7.6812        0.0007       16.3900       16.3907       8.709416       0.02388
  27     28.12        7.6813        0.0008       16.3771       16.3779       8.696645       0.02171
  26     33.73        7.6813        0.0010       16.3641       16.3651       8.683786       0.01933
  25     40.54        7.6814        0.0012       16.3502       16.3514       8.669964       0.01715
  24     48.69        7.6816        0.0014       16.3354       16.3368       8.655247       0.01523
  23     57.69        7.6817        0.0017       16.3211       16.3228       8.641054       0.01330
  22     68.43        7.6820        0.0020       16.3062       16.3083       8.626295       0.01160
  21     81.20        7.6823        0.0024       16.2903       16.2927       8.610440       0.01048
  20     96.49        7.6827        0.0029       16.2726       16.2755       8.592795       0.00974
  19     114.6        7.6832        0.0034       16.2521       16.2555       8.572280       0.00958
  18     136.5        7.6838        0.0040       16.2245       16.2286       8.544758       0.01058
  17     162.9        7.6846        0.0048       16.1747       16.1795       8.494900       0.01594
  16     196.4        7.6858        0.0057       16.0518       16.0576       8.371812       0.03098
  15     218.7        7.6866        0.0064       15.8984       15.9047       8.218126       0.05835
  14     243.0        7.6877        0.0070       15.6153       15.6222       7.934584       0.09834
  13     269.0        7.6891        0.0076       15.1390       15.1466       7.457467       0.15477
  12     297.5        7.6912        0.0082       14.5779       14.5861       6.894875       0.16686
  11     328.5        7.6942        0.0087       13.8780       13.8868       6.192515       0.19097
  10     361.9        7.6987        0.0093       13.0814       13.0907       5.391963       0.20255
   9     398.1        7.7052        0.0097       12.2728       12.2826       4.577344       0.18979
   8     437.6        7.7148        0.0102       11.4776       11.4878       3.772913       0.17199
   7     480.5        7.7296        0.0106       10.7300       10.7406       3.010939       0.14965
   6     533.0        7.7561        0.0111       10.0326       10.0437       2.287601       0.11636
   5     589.8        7.7985        0.0118        9.5050        9.5168       1.718296       0.08450
   4     651.6        7.8671        0.0125        9.0814        9.0939       1.226817       0.06721
   3     718.7        7.9729        0.0134        8.7024        8.7158       0.742908       0.06081
   2     792.3        8.1303        0.0143        8.3379        8.3523       0.222008       0.05974
   1     891.5        0.0376        0.1538        0.0000        0.1538       0.116171       0.00901
   0    1013.0        0.0381        0.1518        0.0000        0.1518       0.113739       0.00017



 Wavenumbers:  6150. -  7700. cm-1, ATM      1
 LEVEL PRESSURE   UPWARD FLUX   DIFDOWN FLUX  DIRDOWN FLUX  DOWNWARD FLUX   NET FLUX    HEATING RATE
          mb          W/m2          W/m2          W/m2        W/m2          W/m2       degree/day
  51    .06700       12.0281        0.0000       30.4684       30.4684      18.440293       0.00000
  50    .07753       12.0281        0.0000       30.4683       30.4683      18.440242       0.04144
  49    .09103       12.0281        0.0000       30.4683       30.4683      18.440175       0.04174
  48    0.1069       12.0281        0.0000       30.4682       30.4682      18.440096       0.04202
  47    0.1255       12.0281        0.0000       30.4681       30.4681      18.440003       0.04227
  46    0.1487       12.0281        0.0000       30.4680       30.4680      18.439882       0.04411
  45    0.1794       12.0281        0.0000       30.4678       30.4678      18.439712       0.04669
  44    0.2165       12.0281        0.0000       30.4676       30.4676      18.439504       0.04715
  43    0.2613       12.0281        0.0000       30.4673       30.4673      18.439253       0.04744
  42    0.3336       12.0281        0.0000       30.4669       30.4669      18.438826       0.04974
  41    0.4307       12.0281        0.0000       30.4663       30.4663      18.438245       0.05052
  40    0.5894       12.0280        0.0001       30.4653       30.4653      18.437277       0.05146
  39     1.339       12.0280        0.0002       30.4604       30.4606      18.432594       0.05273
  38     1.782       12.0279        0.0002       30.4576       30.4578      18.429844       0.05235
  37     2.292       12.0279        0.0003       30.4543       30.4546      18.426685       0.05231
  36     2.964       12.0278        0.0004       30.4501       30.4504      18.422578       0.05156
  35     3.853       12.0278        0.0005       30.4445       30.4450      18.417221       0.05084
  34     5.035       12.0277        0.0006       30.4373       30.4379      18.410221       0.05000
  33     6.613       12.0275        0.0008       30.4278       30.4286      18.401073       0.04890
  32     8.786       12.0273        0.0011       30.4154       30.4165      18.389120       0.04642
  31     11.80       12.0271        0.0014       30.3984       30.3998      18.372734       0.04588
  30     15.07       12.0268        0.0018       30.3810       30.3828      18.356020       0.04315
  29     18.79       12.0265        0.0023       30.3623       30.3646      18.338118       0.04059
  28     23.16       12.0261        0.0028       30.3417       30.3445      18.318434       0.03806
  27     28.12       12.0257        0.0034       30.3196       30.3230      18.297332       0.03587
  26     33.73       12.0252        0.0041       30.2965       30.3006      18.275411       0.03296
  25     40.54       12.0246        0.0050       30.2708       30.2757      18.251070       0.03020
  24     48.69       12.0239        0.0060       30.2423       30.2482      18.224288       0.02771
  23     57.69       12.0232        0.0070       30.2139       30.2209      18.197716       0.02491
  22     68.43       12.0223        0.0083       30.1834       30.1917      18.169432       0.02223
  21     81.20       12.0212        0.0099       30.1500       30.1599      18.138692       0.02031
  20     96.49       12.0199        0.0118       30.1126       30.1244      18.104457       0.01889
  19     114.6       12.0184        0.0140       30.0695       30.0835      18.065048       0.01840
  18     136.5       12.0166        0.0166       30.0139       30.0305      18.013853       0.01969
  17     162.9       12.0146        0.0197       29.9225       29.9421      17.927592       0.02757
  16     196.4       12.0120        0.0236       29.7333       29.7570      17.745016       0.04596
  15     218.7       12.0104        0.0262       29.5259       29.5521      17.541682       0.07720
  14     243.0       12.0089        0.0289       29.1375       29.1664      17.157465       0.13326
  13     269.0       12.0079        0.0315       28.3800       28.4115      16.403573       0.24456
  12     297.5       12.0080        0.0340       27.3895       27.4235      15.415536       0.29304
  11     328.5       12.0099        0.0364       26.2257       26.2621      14.252151       0.31632
  10     361.9       12.0150        0.0387       24.8453       24.8840      12.868959       0.34996
   9     398.1       12.0249        0.0407       23.3471       23.3878      11.362865       0.35089
   8     437.6       12.0426        0.0425       21.7966       21.8392       9.796603       0.33488
   7     480.5       12.0739        0.0441       20.1977       20.2418       8.167868       0.31988
   6     533.0       12.1349        0.0458       18.4969       18.5427       6.407785       0.28314
   5     589.8       12.2366        0.0475       16.9754       17.0229       4.786260       0.24069
   4     651.6       12.4052        0.0492       15.6022       15.6514       3.246180       0.21061
   3     718.7       12.6676        0.0511       14.4232       14.4743       1.806720       0.18090
   2     792.3       13.0623        0.0534       13.4386       13.4920       0.429636       0.15794
   1     891.5        0.0526        0.2185        0.0000        0.2185       0.165987       0.02244
   0    1013.0        0.0536        0.2137        0.0000        0.2137       0.160149       0.00041



 Wavenumbers:  7700. -  8050. cm-1, ATM      1
 LEVEL PRESSURE   UPWARD FLUX   DIFDOWN FLUX  DIRDOWN FLUX  DOWNWARD FLUX   NET FLUX    HEATING RATE
          mb          W/m2          W/m2          W/m2        W/m2          W/m2       degree/day
  51    .06700        5.6789        0.0000        7.2006        7.2006       1.521647       0.00000
  50    .07753        5.6789        0.0000        7.2006        7.2006       1.521625       0.01725
  49    .09103        5.6789        0.0000        7.2005        7.2005       1.521598       0.01691
  48    0.1069        5.6790        0.0000        7.2005        7.2005       1.521567       0.01655
  47    0.1255        5.6790        0.0000        7.2005        7.2005       1.521531       0.01620
  46    0.1487        5.6790        0.0000        7.2004        7.2005       1.521486       0.01643
  45    0.1794        5.6790        0.0000        7.2004        7.2004       1.521425       0.01691
  44    0.2165        5.6790        0.0000        7.2003        7.2003       1.521352       0.01659
  43    0.2613        5.6790        0.0000        7.2003        7.2003       1.521265       0.01628
  42    0.3336        5.6790        0.0000        7.2001        7.2001       1.521123       0.01666
  41    0.4307        5.6791        0.0000        7.2000        7.2000       1.520933       0.01647
  40    0.5894        5.6791        0.0000        7.1997        7.1997       1.520624       0.01645
  39     1.339        5.6793        0.0001        7.1984        7.1985       1.519160       0.01648
  38     1.782        5.6795        0.0001        7.1977        7.1978       1.518301       0.01636
  37     2.292        5.6796        0.0001        7.1968        7.1970       1.517306       0.01647
  36     2.964        5.6799        0.0002        7.1957        7.1959       1.516000       0.01639
  35     3.853        5.6801        0.0002        7.1942        7.1944       1.514276       0.01636
  34     5.035        5.6805        0.0003        7.1922        7.1925       1.511987       0.01635
  33     6.613        5.6810        0.0004        7.1896        7.1900       1.508931       0.01634
  32     8.786        5.6817        0.0005        7.1860        7.1865       1.504818       0.01597
  31     11.80        5.6827        0.0006        7.1810        7.1816       1.498944       0.01645
  30     15.07        5.6837        0.0008        7.1755        7.1764       1.492650       0.01625
  29     18.79        5.6849        0.0010        7.1694        7.1705       1.485558       0.01608
  28     23.16        5.6863        0.0013        7.1623        7.1636       1.477299       0.01597
  27     28.12        5.6879        0.0015        7.1542        7.1558       1.467887       0.01600
  26     33.73        5.6897        0.0018        7.1452        7.1471       1.457396       0.01577
  25     40.54        5.6919        0.0022        7.1344        7.1366       1.444782       0.01565
  24     48.69        5.6945        0.0026        7.1215        7.1242       1.429662       0.01565
  23     57.69        5.6974        0.0031        7.1074        7.1106       1.413164       0.01546
  22     68.43        5.7009        0.0037        7.0909        7.0946       1.393664       0.01533
  21     81.20        5.7051        0.0044        7.0713        7.0757       1.370641       0.01521
  20     96.49        5.7101        0.0052        7.0484        7.0536       1.343499       0.01498
  19     114.6        5.7162        0.0062        7.0217        7.0278       1.311666       0.01486
  18     136.5        5.7234        0.0073        6.9906        6.9979       1.274465       0.01430
  17     162.9        5.7322        0.0087        6.9544        6.9631       1.230866       0.01394
  16     196.4        5.7438        0.0104        6.9087        6.9192       1.175391       0.01396
  15     218.7        5.7515        0.0116        6.8794        6.8910       1.139497       0.01363
  14     243.0        5.7600        0.0128        6.8481        6.8609       1.100900       0.01339
  13     269.0        5.7695        0.0142        6.8147        6.8289       1.059413       0.01346
  12     297.5        5.7799        0.0156        6.7791        6.7947       1.014769       0.01324
  11     328.5        5.7916        0.0172        6.7409        6.7581       0.966547       0.01311
  10     361.9        5.8046        0.0189        6.7002        6.7190       0.914377       0.01320
   9     398.1        5.8194        0.0207        6.6563        6.6770       0.857583       0.01323
   8     437.6        5.8360        0.0226        6.6089        6.6315       0.795429       0.01329
   7     480.5        5.8552        0.0247        6.5570        6.5817       0.726438       0.01355
   6     533.0        5.8809        0.0272        6.4915        6.5187       0.637778       0.01426
   5     589.8        5.9115        0.0299        6.4182        6.4482       0.536697       0.01500
   4     651.6        5.9482        0.0328        6.3359        6.3687       0.420545       0.01588
   3     718.7        5.9919        0.0359        6.2441        6.2800       0.288129       0.01664
   2     792.3        6.0433        0.0391        6.1437        6.1829       0.139597       0.01703
   1     891.5        0.0283        0.1166        0.0000        0.1166       0.088272       0.00437
   0    1013.0        0.0288        0.1148        0.0000        0.1148       0.085985       0.00016



 Wavenumbers:  8050. - 12850. cm-1, ATM      1
 LEVEL PRESSURE   UPWARD FLUX   DIFDOWN FLUX  DIRDOWN FLUX  DOWNWARD FLUX   NET FLUX    HEATING RATE
          mb          W/m2          W/m2          W/m2        W/m2          W/m2       degree/day
  51    .06700       73.9205        0.0000      100.8135      100.8135      26.892979       0.00000
  50    .07753       73.9205        0.0000      100.8135      100.8135      26.892979       0.00000
  49    .09103       73.9205        0.0001      100.8134      100.8135      26.892979       0.00000
  48    0.1069       73.9205        0.0001      100.8134      100.8135      26.892979      -0.00000
  47    0.1255       73.9205        0.0002      100.8133      100.8134      26.892979      -0.00000
  46    0.1487       73.9204        0.0002      100.8132      100.8134      26.892979       0.00000
  45    0.1794       73.9204        0.0003      100.8131      100.8134      26.892979       0.00000
  44    0.2165       73.9203        0.0004      100.8129      100.8133      26.892979      -0.00000
  43    0.2613       73.9203        0.0005      100.8127      100.8133      26.892979      -0.00000
  42    0.3336       73.9202        0.0007      100.8125      100.8132      26.892979       0.00000
  41    0.4307       73.9201        0.0010      100.8121      100.8130      26.892979      -0.00000
  40    0.5894       73.9199        0.0014      100.8115      100.8128      26.892979      -0.00000
  39     1.339       73.9189        0.0034      100.8085      100.8119      26.892979      -0.00000
  38     1.782       73.9183        0.0045      100.8068      100.8113      26.892979       0.00000
  37     2.292       73.9177        0.0059      100.8047      100.8106      26.892979       0.00000
  36     2.964       73.9168        0.0077      100.8021      100.8098      26.892979      -0.00000
  35     3.853       73.9156        0.0100      100.7986      100.8086      26.892979       0.00000
  34     5.035       73.9141        0.0131      100.7940      100.8071      26.892979      -0.00000
  33     6.613       73.9121        0.0173      100.7878      100.8051      26.892979       0.00000
  32     8.786       73.9093        0.0229      100.7794      100.8023      26.892979       0.00000
  31     11.80       73.9054        0.0309      100.7674      100.7984      26.892979      -0.00000
  30     15.07       73.9012        0.0396      100.7546      100.7941      26.892979       0.00000
  29     18.79       73.8964        0.0493      100.7400      100.7893      26.892979      -0.00000
  28     23.16       73.8908        0.0608      100.7230      100.7837      26.892979       0.00000
  27     28.12       73.8844        0.0739      100.7035      100.7773      26.892979      -0.00000
  26     33.73       73.8772        0.0885      100.6817      100.7702      26.892979       0.00000
  25     40.54       73.8685        0.1062      100.6552      100.7615      26.892979       0.00000
  24     48.69       73.8580        0.1276      100.6234      100.7510      26.892979       0.00000
  23     57.69       73.8465        0.1512      100.5883      100.7395      26.892979      -0.00000
  22     68.43       73.8327        0.1792      100.5464      100.7257      26.892979       0.00000
  21     81.20       73.8163        0.2127      100.4965      100.7093      26.892979       0.00000
  20     96.49       73.7967        0.2527      100.4370      100.6897      26.892979      -0.00000
  19     114.6       73.7736        0.3003      100.3585      100.6587      26.885144       0.00366
  18     136.5       73.7462        0.3567      100.2634      100.6201      26.873881       0.00433
  17     162.9       73.7137        0.4241      100.1407      100.5647      26.851087       0.00729
  16     196.4       73.6716        0.5116       99.9505      100.4621      26.790455       0.01526
  15     218.7       73.6441        0.5691       99.7889      100.3580      26.713889       0.02907
  14     243.0       73.6149        0.6315       99.5472      100.1787      26.563836       0.05204
  13     269.0       73.5854        0.6989       99.1452       99.8441      26.258727       0.09898
  12     297.5       73.5576        0.7713       98.5975       99.3687      25.811156       0.13274
  11     328.5       73.5346        0.8489       97.8659       98.7148      25.180130       0.17157
  10     361.9       73.5213        0.9316       96.8848       97.8163      24.294997       0.22395
   9     398.1       73.5242        1.0191       95.6330       96.6521      23.127882       0.27191
   8     437.6       73.5550        1.1111       94.0655       95.1765      21.621533       0.32207
   7     480.5       73.6371        1.2066       92.0807       93.2873      19.650162       0.38717
   6     533.0       73.8228        1.3200       89.4449       90.7648      16.942045       0.43565
   5     589.8       74.1528        1.4377       86.5544       87.9921      13.839336       0.46054
   4     651.6       74.7108        1.5593       83.4174       84.9767      10.265873       0.48868
   3     718.7       75.5699        1.6855       80.2037       81.8892       6.319271       0.49598
   2     792.3       76.8222        1.8172       77.0811       78.8982       2.076080       0.48665
   1     891.5        0.3518        1.4429        0.0000        1.4429       1.091121       0.08382
   0    1013.0        0.3558        1.4190        0.0000        1.4190       1.063281       0.00193



 Wavenumbers: 12850. - 16000. cm-1, ATM      1
 LEVEL PRESSURE   UPWARD FLUX   DIFDOWN FLUX  DIRDOWN FLUX  DOWNWARD FLUX   NET FLUX    HEATING RATE
          mb          W/m2          W/m2          W/m2        W/m2          W/m2       degree/day
  51    .06700       52.8113        0.0000       63.1686       63.1686      10.357250       0.00000
  50    .07753       52.8113        0.0001       63.1677       63.1678      10.356466       0.62838
  49    .09103       52.8113        0.0001       63.1666       63.1668      10.355488       0.61126
  48    0.1069       52.8113        0.0002       63.1654       63.1656      10.354374       0.59343
  47    0.1255       52.8113        0.0003       63.1640       63.1644      10.353104       0.57561
  46    0.1487       52.8112        0.0005       63.1623       63.1628      10.351518       0.57814
  45    0.1794       52.8112        0.0006       63.1600       63.1606      10.349387       0.58491
  44    0.2165       52.8112        0.0009       63.1573       63.1581      10.346918       0.56168
  43    0.2613       52.8112        0.0011       63.1542       63.1553      10.344063       0.53821
  42    0.3336       52.8113        0.0015       63.1493       63.1508      10.339499       0.53213
  41    0.4307       52.8114        0.0021       63.1431       63.1452      10.333767       0.49835
  40    0.5894       52.8118        0.0030       63.1338       63.1368      10.325031       0.46457
  39     1.339       52.8153        0.0072       63.0956       63.1028      10.287508       0.42245
  38     1.782       52.8188        0.0097       63.0740       63.0838      10.264919       0.43005
  37     2.292       52.8243        0.0126       63.0477       63.0603      10.235981       0.47928
  36     2.964       52.8336        0.0164       63.0095       63.0259      10.192361       0.54756
  35     3.853       52.8488        0.0214       62.9533       62.9747      10.125892       0.63081
  34     5.035       52.8719        0.0281       62.8725       62.9006      10.028675       0.69447
  33     6.613       52.9043        0.0369       62.7621       62.7990       9.894746       0.71599
  32     8.786       52.9463        0.0489       62.6182       62.6671       9.720813       0.67549
  31     11.80       53.0007        0.0659       62.4284       62.4943       9.493554       0.63625
  30     15.07       53.0524        0.0841       62.2426       62.3268       9.274338       0.56597
  29     18.79       53.1048        0.1047       62.0493       62.1540       9.049205       0.51045
  28     23.16       53.1591        0.1287       61.8424       61.9712       8.812081       0.45852
  27     28.12       53.2130        0.1561       61.6278       61.7839       8.570881       0.41002
  26     33.73       53.2618        0.1867       61.4177       61.6043       8.342559       0.34329
  25     40.54       53.3073        0.2236       61.1983       61.4219       8.114604       0.28280
  24     48.69       53.3491        0.2680       60.9680       61.2360       7.886926       0.23561
  23     57.69       53.3824        0.3168       60.7478       61.0646       7.682212       0.19189
  22     68.43       53.4084        0.3749       60.5202       60.8951       7.486645       0.15374
  21     81.20       53.4207        0.4440       60.2938       60.7379       7.317178       0.11198
  20     96.49       53.4180        0.5265       60.0643       60.5907       7.172710       0.07974
  19     114.6       53.4142        0.6250       59.8078       60.4328       7.018648       0.07194
  18     136.5       53.4021        0.7417       59.5157       60.2574       6.855287       0.06282
  17     162.9       53.3810        0.8803       59.1770       60.0573       6.676366       0.05719
  16     196.4       53.3391        1.0597       58.7604       59.8201       6.481059       0.04916
  15     218.7       53.3065        1.1773       58.4948       59.6721       6.365623       0.04383
  14     243.0       53.2690        1.3049       58.2089       59.5138       6.244851       0.04189
  13     269.0       53.2267        1.4430       57.9006       59.3436       6.116874       0.04152
  12     297.5       53.1802        1.5920       57.5668       59.1588       5.978593       0.04101
  11     328.5       53.1313        1.7526       57.2005       58.9531       5.821811       0.04263
  10     361.9       53.0816        1.9252       56.7963       58.7215       5.639900       0.04603
   9     398.1       53.0329        2.1103       56.3475       58.4578       5.424888       0.05009
   8     437.6       52.9892        2.3084       55.8422       58.1506       5.161454       0.05632
   7     480.5       52.9572        2.5196       55.2625       57.7821       4.824932       0.06609
   6     533.0       52.9429        2.7776       54.4972       57.2747       4.331793       0.07933
   5     589.8       52.9596        3.0524       53.6307       56.6831       3.723467       0.09030
   4     651.6       53.0228        3.3434       52.6606       56.0039       2.981188       0.10151
   3     718.7       53.1428        3.6509       51.6100       55.2609       2.118139       0.10846
   2     792.3       53.3336        3.9749       50.5019       54.4768       1.143214       0.11181
   1     891.5        1.0251        1.8636        0.0000        1.8636       0.838452       0.02593
   0    1013.0        1.0298        1.8464        0.0000        1.8464       0.816677       0.00151



 Wavenumbers: 16000. - 22650. cm-1, ATM      1
 LEVEL PRESSURE   UPWARD FLUX   DIFDOWN FLUX  DIRDOWN FLUX  DOWNWARD FLUX   NET FLUX    HEATING RATE
          mb          W/m2          W/m2          W/m2        W/m2          W/m2       degree/day
  51    .06700       88.3113        0.0000      100.7153      100.7153      12.403997       0.00000
  50    .07753       88.3112        0.0003      100.7147      100.7151      12.403874       0.09871
  49    .09103       88.3111        0.0008      100.7140      100.7148      12.403695       0.11195
  48    0.1069       88.3109        0.0013      100.7131      100.7144      12.403455       0.12766
  47    0.1255       88.3108        0.0018      100.7121      100.7139      12.403134       0.14552
  46    0.1487       88.3106        0.0025      100.7108      100.7133      12.402661       0.17244
  45    0.1794       88.3105        0.0035      100.7089      100.7124      12.401921       0.20303
  44    0.2165       88.3103        0.0047      100.7066      100.7112      12.400918       0.22818
  43    0.2613       88.3101        0.0060      100.7037      100.7097      12.399557       0.25653
  42    0.3336       88.3100        0.0083      100.6987      100.7070      12.396970       0.30167
  41    0.4307       88.3100        0.0113      100.6918      100.7030      12.393070       0.33910
  40    0.5894       88.3103        0.0162      100.6797      100.6959      12.385632       0.39553
  39     1.339       88.3181        0.0393      100.6095      100.6488      12.330690       0.61854
  38     1.782       88.3274        0.0528      100.5585      100.6113      12.283899       0.89083
  37     2.292       88.3426        0.0686      100.4903      100.5588      12.216187       1.12148
  36     2.964       88.3694        0.0892      100.3868      100.4759      12.106539       1.37642
  35     3.853       88.4143        0.1164      100.2306      100.3470      11.932664       1.65011
  34     5.035       88.4834        0.1524      100.0045      100.1569      11.673504       1.85133
  33     6.613       88.5805        0.2005       99.6939       99.8944      11.313833       1.92280
  32     8.786       88.7065        0.2652       99.2881       99.5532      10.846666       1.81431
  31     11.80       88.8684        0.3574       98.7496       99.1070      10.238576       1.70246
  30     15.07       89.0207        0.4560       98.2198       98.6758       9.655165       1.50625
  29     18.79       89.1734        0.5671       97.6651       98.2323       9.058820       1.35210
  28     23.16       89.3296        0.6964       97.0671       97.7636       8.433975       1.20825
  27     28.12       89.4822        0.8438       96.4406       97.2843       7.802146       1.07407
  26     33.73       89.6156        1.0082       95.8179       96.8260       7.210422       0.88967
  25     40.54       89.7337        1.2061       95.1548       96.3610       6.627319       0.72341
  24     48.69       89.8341        1.4440       94.4420       95.8859       6.051815       0.59556
  23     57.69       89.9041        1.7042       93.7416       95.4458       5.541703       0.47815
  22     68.43       89.9441        2.0130       92.9954       95.0084       5.064291       0.37531
  21     81.20       89.9321        2.3796       92.2231       94.6027       4.670554       0.26018
  20     96.49       89.8630        2.8145       91.4110       94.2255       4.362484       0.17003
  19     114.6       89.7536        3.3276       90.5070       93.8347       4.081040       0.13141
  18     136.5       89.6062        3.9310       89.4803       93.4113       3.805078       0.10611
  17     162.9       89.4154        4.6428       88.3022       92.9450       3.529648       0.08804
  16     196.4       89.1335        5.5559       86.8606       92.4165       3.282929       0.06210
  15     218.7       88.9367        6.1494       85.9492       92.0986       3.161820       0.04598
  14     243.0       88.7183        6.7890       84.9789       91.7679       3.049636       0.03891
  13     269.0       88.4772        7.4758       83.9493       91.4251       2.947943       0.03299
  12     297.5       88.2129        8.2108       82.8589       91.0698       2.856861       0.02701
  11     328.5       87.9275        8.9966       81.6982       90.6948       2.767308       0.02435
  10     361.9       87.6213        9.8331       80.4669       90.3000       2.678693       0.02242
   9     398.1       87.2938       10.7223       79.1611       89.8835       2.589687       0.02074
   8     437.6       86.9459       11.6649       77.7777       89.4426       2.496700       0.01988
   7     480.5       86.5786       12.6612       76.3136       88.9749       2.396242       0.01973
   6     533.0       86.1355       13.8680       74.5359       88.4039       2.268396       0.02057
   5     589.8       85.6708       15.1451       72.6469       87.7920       2.121189       0.02185
   4     651.6       85.1880       16.4905       70.6456       87.1361       1.948150       0.02366
   3     718.7       84.6881       17.9027       68.5367       86.4394       1.751278       0.02474
   2     792.3       84.1744       19.3764       66.3287       85.7050       1.530614       0.02531
   1     891.5        5.1663        6.5978        0.0000        6.5978       1.431411       0.00844
   0    1013.0        5.1567        6.5716        0.0000        6.5716       1.414862       0.00115



 Wavenumbers: 22650. - 29000. cm-1, ATM      1
 LEVEL PRESSURE   UPWARD FLUX   DIFDOWN FLUX  DIRDOWN FLUX  DOWNWARD FLUX   NET FLUX    HEATING RATE
          mb          W/m2          W/m2          W/m2        W/m2          W/m2       degree/day
  51    .06700       37.4121        0.0000       38.0063       38.0063       0.594238       0.00000
  50    .07753       37.4119        0.0004       38.0057       38.0061       0.594238       0.00000
  49    .09103       37.4117        0.0009       38.0050       38.0059       0.594238      -0.00000
  48    0.1069       37.4115        0.0015       38.0042       38.0057       0.594238       0.00000
  47    0.1255       37.4112        0.0021       38.0033       38.0054       0.594238      -0.00000
  46    0.1487       37.4109        0.0029       38.0022       38.0051       0.594238       0.00000
  45    0.1794       37.4104        0.0041       38.0006       38.0047       0.594238       0.00000
  44    0.2165       37.4099        0.0054       37.9987       38.0041       0.594238       0.00000
  43    0.2613       37.4093        0.0070       37.9965       38.0035       0.594238       0.00000
  42    0.3336       37.4082        0.0096       37.9928       38.0025       0.594238       0.00000
  41    0.4307       37.4068        0.0131       37.9880       38.0011       0.594238       0.00000
  40    0.5894       37.4046        0.0188       37.9800       37.9988       0.594238       0.00000
  39     1.339       37.3939        0.0457       37.9425       37.9882       0.594238      -0.00000
  38     1.782       37.3877        0.0615       37.9204       37.9819       0.594238       0.00000
  37     2.292       37.3804        0.0797       37.8949       37.9746       0.594238       0.00000
  36     2.964       37.3709        0.1037       37.8614       37.9651       0.594238       0.00000
  35     3.853       37.3583        0.1353       37.8172       37.9526       0.594238      -0.00000
  34     5.035       37.3417        0.1773       37.7586       37.9359       0.594238       0.00000
  33     6.613       37.3194        0.2333       37.6803       37.9137       0.594238      -0.00000
  32     8.786       37.2895        0.3087       37.5750       37.8837       0.594238       0.00000
  31     11.80       37.2468        0.4162       37.4249       37.8411       0.594238       0.00000
  30     15.07       37.2011        0.5312       37.2642       37.7954       0.594238       0.00000
  29     18.79       37.1497        0.6607       37.0833       37.7440       0.594238      -0.00000
  28     23.16       37.0900        0.8112       36.8730       37.6842       0.594238      -0.00000
  27     28.12       37.0220        0.9824       36.6338       37.6162       0.594238       0.00000
  26     33.73       36.9463        1.1729       36.3677       37.5406       0.594238      -0.00000
  25     40.54       36.8556        1.4013       36.0486       37.4498       0.594238       0.00000
  24     48.69       36.7471        1.6741       35.6672       37.3414       0.594238       0.00000
  23     57.69       36.6292        1.9708       35.2527       37.2235       0.594238      -0.00000
  22     68.43       36.4905        2.3198       34.7649       37.0847       0.594238       0.00000
  21     81.20       36.3275        2.7295       34.1922       36.9218       0.594238       0.00000
  20     96.49       36.1367        3.2092       33.5217       36.7309       0.594238       0.00000
  19     114.6       35.9148        3.7667       32.7424       36.5090       0.594238       0.00000
  18     136.5       35.6583        4.4109       31.8416       36.2525       0.594238       0.00000
  17     162.9       35.3617        5.1551       30.8008       35.9559       0.594238       0.00000
  16     196.4       34.9910        6.0845       29.5007       35.5852       0.594238      -0.00000
  15     218.7       34.7559        6.6734       28.6767       35.3501       0.594238       0.00000
  14     243.0       34.5076        7.2950       27.8068       35.1018       0.594238       0.00000
  13     269.0       34.2467        7.9476       26.8933       34.8409       0.594238       0.00000
  12     297.5       33.9740        8.6289       25.9393       34.5682       0.594238       0.00000
  11     328.5       33.6896        9.3388       24.9451       34.2839       0.594238      -0.00000
  10     361.9       33.3950       10.0733       23.9160       33.9893       0.594238       0.00000
   9     398.1       33.0908       10.8309       22.8541       33.6850       0.594238       0.00000
   8     437.6       32.7782       11.6080       21.7645       33.3725       0.594238      -0.00000
   7     480.5       32.4588       12.4009       20.6521       33.0530       0.594238       0.00000
   6     533.0       32.0863       13.3236       19.3569       32.6805       0.594238       0.00000
   5     589.8       31.7088       14.2563       18.0467       32.3030       0.594238      -0.00000
   4     651.6       31.3291       15.1917       16.7316       31.9233       0.594238       0.00000
   3     718.7       30.9498       16.1227       15.4214       31.5441       0.594238       0.00000
   2     792.3       30.5743       17.0409       14.1276       31.1685       0.594238      -0.00000
   1     891.5        2.1745        2.7655        0.0000        2.7655       0.591000       0.00028
   0    1013.0        2.1540        2.7450        0.0000        2.7450       0.591000       0.00000



 Wavenumbers: 29000. - 38000. cm-1, ATM      1
 LEVEL PRESSURE   UPWARD FLUX   DIFDOWN FLUX  DIRDOWN FLUX  DOWNWARD FLUX   NET FLUX    HEATING RATE
          mb          W/m2          W/m2          W/m2        W/m2          W/m2       degree/day
  51    .06700        5.3563        0.0000       13.4026       13.4026       8.046291       0.00000
  50    .07753        5.3561        0.0003       13.3983       13.3986       8.042492       3.04485
  49    .09103        5.3558        0.0007       13.3921       13.3928       8.036972       3.45019
  48    0.1069        5.3555        0.0011       13.3840       13.3851       8.029594       3.92737
  47    0.1255        5.3552        0.0016       13.3733       13.3749       8.019748       4.46388
  46    0.1487        5.3548        0.0022       13.3579       13.3601       8.005303       5.26523
  45    0.1794        5.3542        0.0031       13.3340       13.3371       7.982900       6.15028
  44    0.2165        5.3535        0.0040       13.3024       13.3064       7.952876       6.82993
  43    0.2613        5.3528        0.0052       13.2604       13.2656       7.912814       7.55144
  42    0.3336        5.3516        0.0071       13.1833       13.1904       7.838794       8.63002
  41    0.4307        5.3501        0.0096       13.0729       13.0825       7.732401       9.25063
  40    0.5894        5.3478        0.0135       12.8796       12.8931       7.545317       9.94890
  39     1.339        5.3399        0.0300       11.9165       11.9465       6.606668      10.56749
  38     1.782        5.3369        0.0384       11.4399       11.4783       6.141424       8.85748
  37     2.292        5.3349        0.0474       10.9796       11.0270       5.692119       7.44167
  36     2.964        5.3343        0.0585       10.4786       10.5372       5.202893       6.14126
  35     3.853        5.3361        0.0723        9.9429       10.0152       4.679102       4.97088
  34     5.035        5.3411        0.0894        9.4007        9.4901       4.148988       3.78692
  33     6.613        5.3497        0.1111        8.8752        8.9864       3.636684       2.73878
  32     8.786        5.3614        0.1392        8.3786        8.5178       3.156461       1.86501
  31     11.80        5.3760        0.1778        7.8897        8.0675       2.691535       1.30165
  30     15.07        5.3891        0.2177        7.5108        7.7285       2.339429       0.90907
  29     18.79        5.4017        0.2611        7.1776        7.4388       2.037022       0.68565
  28     23.16        5.4141        0.3102        6.8664        7.1766       1.762482       0.53087
  27     28.12        5.4253        0.3644        6.5780        6.9424       1.517134       0.41707
  26     33.73        5.4326        0.4235        6.3195        6.7430       1.310435       0.31078
  25     40.54        5.4351        0.4933        6.0663        6.5596       1.124487       0.23069
  24     48.69        5.4325        0.5752        5.8128        6.3880       0.955582       0.17479
  23     57.69        5.4241        0.6627        5.5777        6.2404       0.816325       0.13053
  22     68.43        5.4081        0.7641        5.3379        6.1019       0.693845       0.09629
  21     81.20        5.3801        0.8818        5.0965        5.9783       0.598243       0.06317
  20     96.49        5.3388        1.0180        4.8476        5.8657       0.526855       0.03940
  19     114.6        5.2879        1.1726        4.5799        5.7525       0.464535       0.02910
  18     136.5        5.2289        1.3457        4.2891        5.6348       0.405931       0.02253
  17     162.9        5.1616        1.5382        3.9732        5.5114       0.349849       0.01793
  16     196.4        5.0760        1.7696        3.6080        5.3776       0.301688       0.01212
  15     218.7        5.0221        1.9110        3.3898        5.3007       0.278664       0.00874
  14     243.0        4.9663        2.0555        3.1686        5.2240       0.257707       0.00727
  13     269.0        4.9090        2.2021        2.9461        5.1482       0.239155       0.00602
  12     297.5        4.8506        2.3497        2.7239        5.0736       0.223041       0.00478
  11     328.5        4.7919        2.4969        2.5029        4.9998       0.207839       0.00413
  10     361.9        4.7336        2.6426        2.2846        4.9271       0.193577       0.00361
   9     398.1        4.6760        2.7855        2.0708        4.8562       0.180250       0.00310
   8     437.6        4.6197        2.9247        1.8626        4.7872       0.167577       0.00271
   7     480.5        4.5651        3.0587        1.6621        4.7208       0.155699       0.00233
   6     533.0        4.5054        3.2046        1.4437        4.6483       0.142914       0.00206
   5     589.8        4.4493        3.3410        1.2390        4.5800       0.130691       0.00181
   4     651.6        4.3974        3.4663        1.0500        4.5163       0.118862       0.00162
   3     718.7        4.3503        3.5799        0.8778        4.4577       0.107388       0.00144
   2     792.3        4.3082        3.6807        0.7237        4.4045       0.096245       0.00128
   1     891.5        0.3262        0.4153        0.0000        0.4153       0.089094       0.00061
   0    1013.0        0.3205        0.4084        0.0000        0.4084       0.087930       0.00008



 Wavenumbers: 38000. - 50000. cm-1, ATM      1
 LEVEL PRESSURE   UPWARD FLUX   DIFDOWN FLUX  DIRDOWN FLUX  DOWNWARD FLUX   NET FLUX    HEATING RATE
          mb          W/m2          W/m2          W/m2        W/m2          W/m2       degree/day
  51    .06700        0.0051        0.0000        0.8267        0.8267       0.821528       0.00000
  50    .07753        0.0051        0.0001        0.8242        0.8243       0.819196       1.86936
  49    .09103        0.0050        0.0002        0.8207        0.8209       0.815872       2.07705
  48    0.1069        0.0049        0.0002        0.8162        0.8164       0.811514       2.31984
  47    0.1255        0.0048        0.0004        0.8103        0.8106       0.805801       2.59006
  46    0.1487        0.0047        0.0005        0.8018        0.8023       0.797567       3.00143
  45    0.1794        0.0045        0.0007        0.7889        0.7896       0.785013       3.44648
  44    0.2165        0.0044        0.0009        0.7720        0.7729       0.768507       3.75474
  43    0.2613        0.0042        0.0011        0.7500        0.7511       0.746955       4.06246
  42    0.3336        0.0039        0.0015        0.7106        0.7121       0.708267       4.51071
  41    0.4307        0.0035        0.0019        0.6566        0.6584       0.654972       4.63387
  40    0.5894        0.0029        0.0024        0.5680        0.5704       0.567464       4.65357
  39     1.339        0.0015        0.0030        0.2422        0.2452       0.243720       3.64476
  38     1.782        0.0010        0.0026        0.1493        0.1519       0.150889       1.76735
  37     2.292        0.0007        0.0022        0.0924        0.0946       0.093932       0.94336
  36     2.964        0.0005        0.0018        0.0539        0.0557       0.055224       0.48589
  35     3.853        0.0003        0.0013        0.0295        0.0308       0.030502       0.23462
  34     5.035        0.0002        0.0010        0.0154        0.0164       0.016181       0.10230
  33     6.613        0.0001        0.0007        0.0073        0.0080       0.007912       0.04420
  32     8.786        0.0000        0.0004        0.0030        0.0034       0.003390       0.01756
  31     11.80        0.0000        0.0003        0.0010        0.0012       0.001199       0.00613
  30     15.07        0.0000        0.0001        0.0003        0.0005       0.000463       0.00190
  29     18.79        0.0000        0.0001        0.0001        0.0002       0.000182       0.00064
  28     23.16        0.0000        0.0000        0.0000        0.0001       0.000071       0.00022
  27     28.12        0.0000        0.0000        0.0000        0.0000       0.000028       0.00007
  26     33.73        0.0000        0.0000        0.0000        0.0000       0.000011       0.00002
  25     40.54        0.0000        0.0000        0.0000        0.0000       0.000005       0.00001
  24     48.69        0.0000        0.0000        0.0000        0.0000       0.000002       0.00000
  23     57.69        0.0000        0.0000        0.0000        0.0000       0.000001       0.00000
  22     68.43        0.0000        0.0000        0.0000        0.0000       0.000000       0.00000
  21     81.20        0.0000        0.0000        0.0000        0.0000       0.000000       0.00000
  20     96.49        0.0000        0.0000        0.0000        0.0000       0.000000       0.00000
  19     114.6        0.0000        0.0000        0.0000        0.0000       0.000000       0.00000
  18     136.5        0.0000        0.0000        0.0000        0.0000       0.000000       0.00000
  17     162.9        0.0000        0.0000        0.0000        0.0000       0.000000       0.00000
  16     196.4        0.0000        0.0000        0.0000        0.0000       0.000000       0.00000
  15     218.7        0.0000        0.0000        0.0000        0.0000       0.000000       0.00000
  14     243.0        0.0000        0.0000        0.0000        0.0000       0.000000       0.00000
  13     269.0        0.0000        0.0000        0.0000        0.0000       0.000000       0.00000
  12     297.5        0.0000        0.0000        0.0000        0.0000       0.000000       0.00000
  11     328.5        0.0000        0.0000        0.0000        0.0000       0.000000       0.00000
  10     361.9        0.0000        0.0000        0.0000        0.0000       0.000000       0.00000
   9     398.1        0.0000        0.0000        0.0000        0.0000       0.000000       0.00000
   8     437.6        0.0000        0.0000        0.0000        0.0000       0.000000       0.00000
   7     480.5        0.0000        0.0000        0.0000        0.0000       0.000000       0.00000
   6     533.0        0.0000        0.0000        0.0000        0.0000       0.000000       0.00000
   5     589.8        0.0000        0.0000        0.0000        0.0000       0.000000       0.00000
   4     651.6        0.0000        0.0000        0.0000        0.0000       0.000000       0.00000
   3     718.7        0.0000        0.0000        0.0000        0.0000       0.000000       0.00000
   2     792.3        0.0000        0.0000        0.0000        0.0000       0.000000       0.00000
   1     891.5        0.0000        0.0000        0.0000        0.0000       0.000000       0.00000
   0    1013.0        0.0000        0.0000        0.0000        0.0000       0.000000       0.00000



 Wavenumbers:   820. -  2600. cm-1, ATM      1
 LEVEL PRESSURE   UPWARD FLUX   DIFDOWN FLUX  DIRDOWN FLUX  DOWNWARD FLUX   NET FLUX    HEATING RATE
          mb          W/m2          W/m2          W/m2        W/m2          W/m2       degree/day
  51    .06700        0.9409        0.0000        3.8670        3.8670       2.926095       0.00000
  50    .07753        0.9409        0.0000        3.8643        3.8643       2.923378       2.17771
  49    .09103        0.9409        0.0000        3.8635        3.8635       2.922567       0.50640
  48    0.1069        0.9409        0.0000        3.8626        3.8626       2.921677       0.47417
  47    0.1255        0.9409        0.0000        3.8616        3.8616       2.920716       0.43561
  46    0.1487        0.9409        0.0000        3.8605        3.8605       2.919606       0.40439
  45    0.1794        0.9409        0.0000        3.8592        3.8592       2.918271       0.36650
  44    0.2165        0.9409        0.0000        3.8578        3.8578       2.916893       0.31348
  43    0.2613        0.9409        0.0000        3.8564        3.8564       2.915433       0.27524
  42    0.3336        0.9409        0.0000        3.8541        3.8541       2.913202       0.26015
  41    0.4307        0.9409        0.0000        3.8512        3.8512       2.910319       0.25065
  40    0.5894        0.9409        0.0000        3.8465        3.8465       2.905592       0.25136
  39     1.339        0.9409        0.0000        3.8251        3.8251       2.884214       0.24067
  38     1.782        0.9409        0.0000        3.8133        3.8133       2.872400       0.22492
  37     2.292        0.9409        0.0000        3.8003        3.8003       2.859337       0.21636
  36     2.964        0.9409        0.0000        3.7841        3.7841       2.843206       0.20250
  35     3.853        0.9409        0.0000        3.7642        3.7642       2.823288       0.18902
  34     5.035        0.9409        0.0000        3.7395        3.7395       2.798593       0.17641
  33     6.613        0.9410        0.0000        3.7090        3.7090       2.768052       0.16327
  32     8.786        0.9410        0.0000        3.6726        3.6726       2.731651       0.14137
  31     11.80        0.9410        0.0000        3.6320        3.6320       2.691046       0.11368
  30     15.07        0.9410        0.0000        3.6016        3.6016       2.660650       0.07848
  29     18.79        0.9410        0.0000        3.5777        3.5777       2.636738       0.05422
  28     23.16        0.9410        0.0000        3.5564        3.5564       2.615368       0.04132
  27     28.12        0.9410        0.0000        3.5348        3.5348       2.593802       0.03666
  26     33.73        0.9411        0.0000        3.5118        3.5118       2.570747       0.03466
  25     40.54        0.9411        0.0000        3.4849        3.4849       2.543832       0.03339
  24     48.69        0.9411        0.0000        3.4537        3.4537       2.512547       0.03238
  23     57.69        0.9412        0.0000        3.4210        3.4210       2.479836       0.03066
  22     68.43        0.9412        0.0000        3.3844        3.3844       2.443206       0.02880
  21     81.20        0.9413        0.0000        3.3441        3.3441       2.402854       0.02666
  20     96.49        0.9414        0.0000        3.2998        3.2998       2.358423       0.02452
  19     114.6        0.9415        0.0000        3.2506        3.2507       2.309194       0.02299
  18     136.5        0.9416        0.0000        3.1936        3.1936       2.252030       0.02198
  17     162.9        0.9418        0.0000        3.1181        3.1181       2.176331       0.02420
  16     196.4        0.9422        0.0000        3.0090        3.0090       2.066765       0.02758
  15     218.7        0.9425        0.0000        2.9420        2.9420       1.999482       0.02555
  14     243.0        0.9430        0.0000        2.8605        2.8605       1.917510       0.02843
  13     269.0        0.9437        0.0000        2.7419        2.7420       1.798243       0.03869
  12     297.5        0.9450        0.0000        2.5729        2.5729       1.627908       0.05052
  11     328.5        0.9470        0.0000        2.3602        2.3602       1.413249       0.05837
  10     361.9        0.9500        0.0000        2.1524        2.1524       1.202481       0.05333
   9     398.1        0.9542        0.0000        1.9974        1.9974       1.043232       0.03710
   8     437.6        0.9601        0.0000        1.8835        1.8835       0.923421       0.02562
   7     480.5        0.9685        0.0000        1.7734        1.7735       0.804936       0.02327
   6     533.0        0.9823        0.0000        1.6397        1.6398       0.657507       0.02372
   5     589.8        1.0019        0.0000        1.5068        1.5069       0.504914       0.02265
   4     651.6        1.0310        0.0000        1.3807        1.3807       0.349713       0.02122
   3     718.7        1.0699        0.0000        1.2680        1.2681       0.198122       0.01905
   2     792.3        1.1189        0.0000        1.1659        1.1660       0.047057       0.01733
   1     891.5        0.0025        0.0120        0.0000        0.0120       0.009423       0.00320
   0    1013.0        0.0028        0.0110        0.0000        0.0110       0.008231       0.00008

  Modules and versions used in this calculation:

       rrtmg_sw.1col.f90:  $Revision$                    rrtmg_sw_init.f90:  $Revision$        
     rrtmgsw_cldprop.f90:  $Revision$                  rrtmgsw_cldprmc.f90:  NOT USED          
     rrtmg_sw_reftra.f90:  $Revision$                  rrtmg_sw_spcvrt.f90:  NOT USED          
     rrtmg_sw_spcvmc.f90:  NOT USED                    rrtmgsw_setcoef.f90:  NOT USED          
     rrtmg_sw_taumol.f90:  $Revision$                  rrtmg_sw_vrtqdr.f90:  NOT USED          
                rrtatm.f:  NOT USED                             util_xxx.f:  NOT USED          
                 extra.f:  NOT USED                       rrtmg_sw_k_g.f90:  $Revision$        

