

 Wavenumbers:   820. - 50000. cm-1, ATM      1
 LEVEL PRESSURE   UPWARD FLUX   DIFDOWN FLUX  DIRDOWN FLUX  DOWNWARD FLUX   NET FLUX    HEATING RATE
          mb          W/m2          W/m2          W/m2        W/m2          W/m2       degree/day
  51    .06700      207.1628        0.0000      397.8738      397.8738     190.711020       0.00000
  50    .07753      207.1622        0.0012      397.8577      397.8589     190.696734      11.45009
  49    .09103      207.1614        0.0026      397.8418      397.8444     190.683054       8.55068
  48    0.1069      207.1605        0.0043      397.8230      397.8273     190.666716       8.69650
  47    0.1255      207.1596        0.0062      397.7997      397.8059     190.646288       9.26146
  46    0.1487      207.1584        0.0086      397.7676      397.7763     190.617850      10.36571
  45    0.1794      207.1569        0.0119      397.7205      397.7325     190.575590      11.60157
  44    0.2165      207.1551        0.0158      397.6602      397.6761     190.520984      12.42191
  43    0.2613      207.1531        0.0204      397.5829      397.6033     190.450244      13.33417
  42    0.3336      207.1500        0.0280      397.4449      397.4729     190.322913      14.84551
  41    0.4307      207.1461        0.0379      397.2524      397.2903     190.144206      15.53814
  40    0.5894      207.1404        0.0538      396.9253      396.9792     189.838797      16.24125
  39     1.339      207.1241        0.1251      395.4254      395.5504     188.426314      15.90200
  38     1.782      207.1218        0.1650      394.7288      394.8938     187.771966      12.45773
  37     2.292      207.1255        0.2104      394.0572      394.2676     187.142128      10.43175
  36     2.964      207.1396        0.2694      393.3007      393.5701     186.430443       8.93380
  35     3.853      207.1714        0.3465      392.4318      392.7783     185.606888       7.81569
  34     5.035      207.2265        0.4479      391.4441      391.8920     184.665492       6.72494
  33     6.613      207.3072        0.5822      390.3268      390.9090     183.601789       5.68656
  32     8.786      207.4109        0.7619      389.0624      389.8243     182.413361       4.61542
  31     11.80      207.5377        1.0169      387.5500      388.5668     181.029175       3.87529
  30     15.07      207.6484        1.2883      386.1556      387.4440     179.795599       3.18485
  29     18.79      207.7508        1.5926      384.7502      386.3428     178.591992       2.72895
  28     23.16      207.8444        1.9451      383.2686      385.2137     177.369298       2.36430
  27     28.12      207.9211        2.3449      381.7329      384.0778     176.156717       2.06131
  26     33.73      207.9621        2.7890      380.1982      382.9872     175.025015       1.70154
  25     40.54      207.9600        3.3215      378.5384      381.8599     173.899880       1.39586
  24     48.69      207.9081        3.9578      376.7214      380.6793     172.771245       1.16796
  23     57.69      207.8036        4.6501      374.8959      379.5460     171.742494       0.96430
  22     68.43      207.6284        5.4663      372.8999      378.3662     170.737810       0.78982
  21     81.20      207.3495        6.4280      370.7496      377.1777     169.828150       0.60109
  20     96.49      206.9542        7.5594      368.4056      375.9650     169.010834       0.45110
  19     114.6      206.4650        8.8807      365.7513      374.6320     168.167035       0.39399
  18     136.5      205.8726       10.4150      362.7231      373.1381     167.265545       0.34664
  17     162.9      205.1617       12.1983      359.1748      371.3731     166.211378       0.33695
  16     196.4      204.2168       14.4461      354.5718      369.0180     164.801199       0.35496
  15     218.7      203.5939       15.8836      351.4437      367.3273     163.733359       0.40542
  14     243.0      202.9225       17.4122      347.7111      365.1233     162.200820       0.53154
  13     269.0      202.2036       19.0302      342.9441      361.9743     159.770669       0.78833
  12     297.5      201.4394       20.7353      337.4137      358.1490     156.709605       0.90788
  11     328.5      200.6350       22.5290      331.1302      353.6592     153.024204       1.00205
  10     361.9      199.7965       24.4058      324.1219      348.5277     148.731191       1.08617
   9     398.1      198.9288       26.3649      316.6066      342.9715     144.042684       1.09232
   8     437.6      198.0440       28.4017      308.5895      336.9912     138.947250       1.08944
   7     480.5      197.1629       30.5103      299.9349      330.4452     133.282291       1.11258
   6     533.0      196.1843       33.0065      289.7021      322.7086     126.524341       1.08714
   5     589.8      195.2760       35.5814      279.3388      314.9202     119.644140       1.02125
   4     651.6      194.5058       38.2227      268.7786      307.0013     112.495517       0.97759
   3     718.7      193.9257       40.9211      258.2837      299.2048     105.279021       0.90691
   2     792.3      193.6024       43.6624      248.0774      291.7398      98.137454       0.81906
   1     891.5      114.3063      146.2922       59.9598      206.2520      91.945699       0.52689
   0    1013.0      114.2007      144.8873       56.3832      201.2705      87.069778       0.33856



 Wavenumbers:  2600. -  3250. cm-1, ATM      1
 LEVEL PRESSURE   UPWARD FLUX   DIFDOWN FLUX  DIRDOWN FLUX  DOWNWARD FLUX   NET FLUX    HEATING RATE
          mb          W/m2          W/m2          W/m2        W/m2          W/m2       degree/day
  51    .06700        0.5480        0.0000        3.5066        3.5066       2.958664       0.00000
  50    .07753        0.5480        0.0000        3.5066        3.5066       2.958656       0.00640
  49    .09103        0.5480        0.0000        3.5066        3.5066       2.958646       0.00627
  48    0.1069        0.5480        0.0000        3.5066        3.5066       2.958634       0.00613
  47    0.1255        0.5480        0.0000        3.5066        3.5066       2.958621       0.00599
  46    0.1487        0.5480        0.0000        3.5066        3.5066       2.958604       0.00607
  45    0.1794        0.5480        0.0000        3.5065        3.5065       2.958582       0.00624
  44    0.2165        0.5480        0.0000        3.5065        3.5065       2.958555       0.00611
  43    0.2613        0.5480        0.0000        3.5065        3.5065       2.958523       0.00598
  42    0.3336        0.5480        0.0000        3.5064        3.5064       2.958470       0.00615
  41    0.4307        0.5480        0.0000        3.5064        3.5064       2.958399       0.00618
  40    0.5894        0.5480        0.0000        3.5062        3.5062       2.958280       0.00633
  39     1.339        0.5480        0.0000        3.5055        3.5055       2.957581       0.00787
  38     1.782        0.5480        0.0000        3.5050        3.5050       2.957050       0.01011
  37     2.292        0.5480        0.0000        3.5043        3.5043       2.956358       0.01147
  36     2.964        0.5480        0.0000        3.5033        3.5033       2.955367       0.01245
  35     3.853        0.5480        0.0000        3.5019        3.5019       2.953989       0.01307
  34     5.035        0.5480        0.0000        3.5001        3.5001       2.952128       0.01329
  33     6.613        0.5480        0.0000        3.4977        3.4977       2.949719       0.01288
  32     8.786        0.5480        0.0000        3.4947        3.4947       2.946748       0.01154
  31     11.80        0.5480        0.0000        3.4911        3.4911       2.943112       0.01018
  30     15.07        0.5480        0.0000        3.4878        3.4878       2.939891       0.00832
  29     18.79        0.5480        0.0000        3.4848        3.4848       2.936827       0.00695
  28     23.16        0.5480        0.0000        3.4816        3.4816       2.933606       0.00623
  27     28.12        0.5480        0.0000        3.4779        3.4779       2.929987       0.00615
  26     33.73        0.5480        0.0000        3.4735        3.4735       2.925519       0.00672
  25     40.54        0.5480        0.0000        3.4671        3.4671       2.919191       0.00785
  24     48.69        0.5480        0.0000        3.4582        3.4583       2.910292       0.00921
  23     57.69        0.5480        0.0000        3.4472        3.4472       2.899238       0.01036
  22     68.43        0.5480        0.0000        3.4329        3.4329       2.884970       0.01122
  21     81.20        0.5480        0.0000        3.4152        3.4152       2.867230       0.01172
  20     96.49        0.5480        0.0000        3.3940        3.3941       2.846069       0.01168
  19     114.6        0.5480        0.0000        3.3692        3.3692       2.821156       0.01163
  18     136.5        0.5481        0.0001        3.3419        3.3420       2.793904       0.01048
  17     162.9        0.5482        0.0001        3.3129        3.3129       2.764777       0.00931
  16     196.4        0.5483        0.0001        3.2793        3.2794       2.731107       0.00847
  15     218.7        0.5484        0.0001        3.2578        3.2578       2.709397       0.00824
  14     243.0        0.5487        0.0001        3.2320        3.2321       2.683377       0.00902
  13     269.0        0.5490        0.0001        3.1968        3.1969       2.647888       0.01151
  12     297.5        0.5496        0.0001        3.1489        3.1491       2.599435       0.01437
  11     328.5        0.5505        0.0001        3.0821        3.0822       2.531688       0.01842
  10     361.9        0.5518        0.0001        2.9902        2.9904       2.438589       0.02356
   9     398.1        0.5536        0.0001        2.8715        2.8716       2.317995       0.02810
   8     437.6        0.5563        0.0001        2.7276        2.7278       2.171499       0.03132
   7     480.5        0.5603        0.0002        2.5595        2.5597       1.999377       0.03380
   6     533.0        0.5670        0.0002        2.3617        2.3619       1.794870       0.03290
   5     589.8        0.5769        0.0002        2.1649        2.1651       1.588184       0.03068
   4     651.6        0.5915        0.0002        1.9608        1.9609       1.369395       0.02992
   3     718.7        0.6123        0.0002        1.7593        1.7595       1.147182       0.02793
   2     792.3        0.6410        0.0002        1.5761        1.5762       0.935178       0.02431
   1     891.5        0.1023        0.5203        0.3492        0.8694       0.767175       0.01430
   0    1013.0        0.1114        0.4678        0.2949        0.7627       0.651272       0.00805



 Wavenumbers:  3250. -  4000. cm-1, ATM      1
 LEVEL PRESSURE   UPWARD FLUX   DIFDOWN FLUX  DIRDOWN FLUX  DOWNWARD FLUX   NET FLUX    HEATING RATE
          mb          W/m2          W/m2          W/m2        W/m2          W/m2       degree/day
  51    .06700        0.0032        0.0000        5.9117        5.9117       5.908479       0.00000
  50    .07753        0.0032        0.0000        5.9075        5.9075       5.904289       3.35808
  49    .09103        0.0032        0.0000        5.9050        5.9050       5.901846       1.52677
  48    0.1069        0.0032        0.0000        5.9032        5.9032       5.899980       0.99346
  47    0.1255        0.0032        0.0000        5.9014        5.9014       5.898222       0.79708
  46    0.1487        0.0032        0.0000        5.8995        5.8995       5.896333       0.68848
  45    0.1794        0.0032        0.0000        5.8974        5.8974       5.894185       0.58983
  44    0.2165        0.0032        0.0000        5.8952        5.8952       5.892068       0.48155
  43    0.2613        0.0032        0.0000        5.8931        5.8931       5.889909       0.40696
  42    0.3336        0.0032        0.0000        5.8899        5.8899       5.886751       0.36820
  41    0.4307        0.0032        0.0000        5.8861        5.8861       5.882913       0.33365
  40    0.5894        0.0032        0.0000        5.8803        5.8803       5.877111       0.30857
  39     1.339        0.0032        0.0000        5.8597        5.8597       5.856513       0.23189
  38     1.782        0.0032        0.0000        5.8513        5.8513       5.848089       0.16039
  37     2.292        0.0032        0.0000        5.8431        5.8431       5.839918       0.13533
  36     2.964        0.0032        0.0000        5.8334        5.8334       5.830278       0.12100
  35     3.853        0.0032        0.0000        5.8213        5.8213       5.818103       0.11555
  34     5.035        0.0032        0.0000        5.8052        5.8052       5.802007       0.11498
  33     6.613        0.0032        0.0000        5.7833        5.7834       5.780186       0.11666
  32     8.786        0.0032        0.0000        5.7531        5.7531       5.749985       0.11729
  31     11.80        0.0032        0.0000        5.7090        5.7090       5.705816       0.12366
  30     15.07        0.0032        0.0000        5.6615        5.6615       5.658351       0.12254
  29     18.79        0.0031        0.0000        5.6093        5.6094       5.606215       0.11821
  28     23.16        0.0031        0.0000        5.5524        5.5524       5.549290       0.11008
  27     28.12        0.0031        0.0000        5.4935        5.4935       5.490411       0.10009
  26     33.73        0.0031        0.0000        5.4348        5.4349       5.431722       0.08824
  25     40.54        0.0031        0.0001        5.3707        5.3708       5.367660       0.07948
  24     48.69        0.0031        0.0001        5.2985        5.2985       5.295427       0.07475
  23     57.69        0.0031        0.0001        5.2215        5.2216       5.218488       0.07212
  22     68.43        0.0031        0.0001        5.1318        5.1319       5.128828       0.07048
  21     81.20        0.0031        0.0001        5.0284        5.0285       5.025399       0.06834
  20     96.49        0.0031        0.0001        4.9122        4.9123       4.909265       0.06410
  19     114.6        0.0030        0.0001        4.7780        4.7782       4.775154       0.06262
  18     136.5        0.0030        0.0002        4.6285        4.6287       4.625675       0.05748
  17     162.9        0.0030        0.0002        4.4406        4.4407       4.437763       0.06006
  16     196.4        0.0029        0.0002        4.1548        4.1550       4.152089       0.07191
  15     218.7        0.0029        0.0002        3.9564        3.9566       3.953707       0.07532
  14     243.0        0.0029        0.0002        3.7055        3.7058       3.702872       0.08700
  13     269.0        0.0029        0.0002        3.3399        3.3401       3.337229       0.11861
  12     297.5        0.0029        0.0002        2.8954        2.8956       2.892732       0.13183
  11     328.5        0.0029        0.0002        2.4388        2.4390       2.436175       0.12414
  10     361.9        0.0029        0.0002        2.0269        2.0271       2.024207       0.10423
   9     398.1        0.0029        0.0002        1.6753        1.6755       1.672567       0.08192
   8     437.6        0.0030        0.0002        1.3592        1.3594       1.356360       0.06761
   7     480.5        0.0032        0.0002        1.0616        1.0618       1.058615       0.05848
   6     533.0        0.0035        0.0001        0.7543        0.7544       0.750948       0.04949
   5     589.8        0.0041        0.0001        0.4951        0.4952       0.491141       0.03856
   4     651.6        0.0053        0.0001        0.2943        0.2943       0.289047       0.02764
   3     718.7        0.0077        0.0001        0.1528        0.1529       0.145196       0.01808
   2     792.3        0.0125        0.0000        0.0658        0.0658       0.053333       0.01054
   1     891.5        0.0001        0.0076        0.0040        0.0116       0.011509       0.00356
   0    1013.0        0.0004        0.0018        0.0003        0.0022       0.001732       0.00068



 Wavenumbers:  4000. -  4650. cm-1, ATM      1
 LEVEL PRESSURE   UPWARD FLUX   DIFDOWN FLUX  DIRDOWN FLUX  DOWNWARD FLUX   NET FLUX    HEATING RATE
          mb          W/m2          W/m2          W/m2        W/m2          W/m2       degree/day
  51    .06700        1.9228        0.0000        6.9421        6.9421       5.019292       0.00000
  50    .07753        1.9228        0.0000        6.9421        6.9421       5.019291       0.00079
  49    .09103        1.9228        0.0000        6.9421        6.9421       5.019290       0.00078
  48    0.1069        1.9228        0.0000        6.9421        6.9421       5.019289       0.00076
  47    0.1255        1.9228        0.0000        6.9421        6.9421       5.019287       0.00074
  46    0.1487        1.9228        0.0000        6.9421        6.9421       5.019285       0.00075
  45    0.1794        1.9228        0.0000        6.9421        6.9421       5.019282       0.00077
  44    0.2165        1.9228        0.0000        6.9421        6.9421       5.019279       0.00076
  43    0.2613        1.9228        0.0000        6.9420        6.9420       5.019275       0.00074
  42    0.3336        1.9228        0.0000        6.9420        6.9420       5.019268       0.00076
  41    0.4307        1.9228        0.0000        6.9420        6.9420       5.019259       0.00077
  40    0.5894        1.9228        0.0000        6.9420        6.9420       5.019245       0.00079
  39     1.339        1.9228        0.0000        6.9419        6.9419       5.019156       0.00100
  38     1.782        1.9228        0.0000        6.9418        6.9419       5.019086       0.00132
  37     2.292        1.9228        0.0000        6.9418        6.9418       5.018993       0.00155
  36     2.964        1.9228        0.0000        6.9416        6.9416       5.018853       0.00175
  35     3.853        1.9228        0.0000        6.9414        6.9414       5.018647       0.00196
  34     5.035        1.9228        0.0000        6.9411        6.9411       5.018342       0.00218
  33     6.613        1.9228        0.0000        6.9406        6.9406       5.017894       0.00239
  32     8.786        1.9227        0.0000        6.9399        6.9400       5.017234       0.00256
  31     11.80        1.9227        0.0000        6.9389        6.9389       5.016199       0.00290
  30     15.07        1.9227        0.0001        6.9377        6.9377       5.014989       0.00313
  29     18.79        1.9227        0.0001        6.9362        6.9363       5.013530       0.00331
  28     23.16        1.9227        0.0001        6.9343        6.9344       5.011725       0.00349
  27     28.12        1.9227        0.0001        6.9321        6.9323       5.009550       0.00370
  26     33.73        1.9227        0.0001        6.9294        6.9296       5.006881       0.00401
  25     40.54        1.9227        0.0002        6.9258        6.9260       5.003282       0.00447
  24     48.69        1.9227        0.0002        6.9210        6.9212       4.998516       0.00493
  23     57.69        1.9227        0.0002        6.9154        6.9156       4.992910       0.00526
  22     68.43        1.9227        0.0003        6.9083        6.9086       4.985938       0.00548
  21     81.20        1.9227        0.0003        6.8998        6.9001       4.977411       0.00563
  20     96.49        1.9227        0.0004        6.8894        6.8898       4.967109       0.00569
  19     114.6        1.9228        0.0005        6.8765        6.8770       4.954208       0.00602
  18     136.5        1.9229        0.0005        6.8610        6.8615       4.938637       0.00599
  17     162.9        1.9231        0.0006        6.8417        6.8423       4.919254       0.00620
  16     196.4        1.9234        0.0008        6.8147        6.8154       4.892043       0.00685
  15     218.7        1.9237        0.0008        6.7948        6.7957       4.871986       0.00761
  14     243.0        1.9242        0.0009        6.7698        6.7707       4.846531       0.00883
  13     269.0        1.9250        0.0010        6.7349        6.7359       4.810901       0.01156
  12     297.5        1.9262        0.0011        6.6869        6.6880       4.761787       0.01457
  11     328.5        1.9280        0.0013        6.6194        6.6206       4.692659       0.01880
  10     361.9        1.9303        0.0014        6.5295        6.5308       4.600535       0.02331
   9     398.1        1.9334        0.0015        6.4202        6.4217       4.488321       0.02614
   8     437.6        1.9375        0.0016        6.2962        6.2978       4.360265       0.02738
   7     480.5        1.9433        0.0017        6.1555        6.1572       4.213955       0.02873
   6     533.0        1.9527        0.0019        5.9675        5.9694       4.016709       0.03173
   5     589.8        1.9666        0.0020        5.7368        5.7388       3.772194       0.03629
   4     651.6        1.9872        0.0022        5.4662        5.4684       3.481171       0.03980
   3     718.7        2.0165        0.0023        5.1912        5.1935       3.177015       0.03822
   2     792.3        2.0564        0.0024        4.9395        4.9419       2.885542       0.03343
   1     891.5        0.2575        1.7232        1.1833        2.9065       2.648963       0.02013
   0    1013.0        0.2672        1.6446        1.0992        2.7437       2.476518       0.01197



 Wavenumbers:  4650. -  5150. cm-1, ATM      1
 LEVEL PRESSURE   UPWARD FLUX   DIFDOWN FLUX  DIRDOWN FLUX  DOWNWARD FLUX   NET FLUX    HEATING RATE
          mb          W/m2          W/m2          W/m2        W/m2          W/m2       degree/day
  51    .06700        1.3438        0.0000        6.5710        6.5710       5.227202       0.00000
  50    .07753        1.3438        0.0000        6.5708        6.5708       5.226967       0.18887
  49    .09103        1.3438        0.0000        6.5705        6.5705       5.226673       0.18362
  48    0.1069        1.3438        0.0000        6.5701        6.5701       5.226339       0.17806
  47    0.1255        1.3438        0.0000        6.5697        6.5697       5.225958       0.17238
  46    0.1487        1.3438        0.0000        6.5693        6.5693       5.225485       0.17268
  45    0.1794        1.3438        0.0000        6.5686        6.5686       5.224848       0.17473
  44    0.2165        1.3438        0.0000        6.5679        6.5679       5.224110       0.16788
  43    0.2613        1.3438        0.0000        6.5670        6.5670       5.223257       0.16078
  42    0.3336        1.3438        0.0000        6.5657        6.5657       5.221894       0.15894
  41    0.4307        1.3438        0.0000        6.5640        6.5640       5.220172       0.14971
  40    0.5894        1.3438        0.0000        6.5613        6.5613       5.217556       0.13913
  39     1.339        1.3438        0.0000        6.5516        6.5516       5.207778       0.11008
  38     1.782        1.3438        0.0000        6.5473        6.5473       5.203562       0.08026
  37     2.292        1.3438        0.0000        6.5434        6.5435       5.199675       0.06438
  36     2.964        1.3438        0.0000        6.5395        6.5395       5.195720       0.04964
  35     3.853        1.3438        0.0000        6.5355        6.5356       5.191777       0.03742
  34     5.035        1.3438        0.0000        6.5315        6.5315       5.187775       0.02859
  33     6.613        1.3438        0.0000        6.5271        6.5271       5.183379       0.02350
  32     8.786        1.3438        0.0001        6.5216        6.5216       5.177882       0.02135
  31     11.80        1.3437        0.0001        6.5135        6.5135       5.169800       0.02263
  30     15.07        1.3437        0.0001        6.5041        6.5042       5.160427       0.02420
  29     18.79        1.3437        0.0001        6.4925        6.4926       5.148905       0.02612
  28     23.16        1.3437        0.0001        6.4779        6.4780       5.134304       0.02823
  27     28.12        1.3437        0.0002        6.4599        6.4600       5.116316       0.03058
  26     33.73        1.3437        0.0002        6.4384        6.4386       5.094868       0.03225
  25     40.54        1.3437        0.0002        6.4112        6.4115       5.067720       0.03368
  24     48.69        1.3438        0.0003        6.3775        6.3778       5.034051       0.03484
  23     57.69        1.3438        0.0003        6.3404        6.3407       4.996919       0.03481
  22     68.43        1.3439        0.0004        6.2971        6.2975       4.953674       0.03400
  21     81.20        1.3439        0.0005        6.2483        6.2487       4.904783       0.03231
  20     96.49        1.3441        0.0006        6.1948        6.1954       4.851308       0.02951
  19     114.6        1.3443        0.0007        6.1381        6.1388       4.794530       0.02651
  18     136.5        1.3445        0.0008        6.0790        6.0798       4.735226       0.02280
  17     162.9        1.3450        0.0009        6.0160        6.0170       4.671993       0.02021
  16     196.4        1.3456        0.0011        5.9399        5.9410       4.595327       0.01930
  15     218.7        1.3462        0.0012        5.8896        5.8908       4.544657       0.01924
  14     243.0        1.3469        0.0013        5.8322        5.8335       4.486592       0.02014
  13     269.0        1.3480        0.0014        5.7624        5.7639       4.415861       0.02294
  12     297.5        1.3496        0.0016        5.6767        5.6783       4.328772       0.02583
  11     328.5        1.3517        0.0017        5.5726        5.5743       4.222632       0.02886
  10     361.9        1.3546        0.0019        5.4473        5.4492       4.094589       0.03240
   9     398.1        1.3586        0.0020        5.2995        5.3015       3.942950       0.03533
   8     437.6        1.3639        0.0022        5.1275        5.1296       3.765767       0.03788
   7     480.5        1.3711        0.0023        4.9290        4.9313       3.560140       0.04038
   6     533.0        1.3827        0.0025        4.6794        4.6818       3.299165       0.04198
   5     589.8        1.3989        0.0026        4.4188        4.4214       3.022530       0.04106
   4     651.6        1.4219        0.0028        4.1521        4.1548       2.732964       0.03960
   3     718.7        1.4533        0.0029        3.8929        3.8958       2.442561       0.03650
   2     792.3        1.4953        0.0030        3.6469        3.6499       2.154629       0.03302
   1     891.5        0.1860        1.2490        0.8537        2.1026       1.916613       0.02025
   0    1013.0        0.1954        1.1738        0.7735        1.9472       1.751876       0.01144



 Wavenumbers:  5150. -  6150. cm-1, ATM      1
 LEVEL PRESSURE   UPWARD FLUX   DIFDOWN FLUX  DIRDOWN FLUX  DOWNWARD FLUX   NET FLUX    HEATING RATE
          mb          W/m2          W/m2          W/m2        W/m2          W/m2       degree/day
  51    .06700        3.3825        0.0000       16.4735       16.4735      13.091011       0.00000
  50    .07753        3.3825        0.0000       16.4735       16.4735      13.090976       0.02762
  49    .09103        3.3825        0.0000       16.4734       16.4734      13.090931       0.02812
  48    0.1069        3.3825        0.0000       16.4734       16.4734      13.090877       0.02860
  47    0.1255        3.3825        0.0000       16.4733       16.4733      13.090813       0.02905
  46    0.1487        3.3825        0.0000       16.4732       16.4732      13.090729       0.03061
  45    0.1794        3.3825        0.0000       16.4731       16.4731      13.090610       0.03270
  44    0.2165        3.3825        0.0000       16.4730       16.4730      13.090464       0.03332
  43    0.2613        3.3825        0.0000       16.4728       16.4728      13.090285       0.03377
  42    0.3336        3.3825        0.0000       16.4725       16.4725      13.089979       0.03565
  41    0.4307        3.3825        0.0000       16.4720       16.4720      13.089560       0.03646
  40    0.5894        3.3825        0.0000       16.4713       16.4713      13.088858       0.03730
  39     1.339        3.3825        0.0000       16.4679       16.4679      13.085448       0.03839
  38     1.782        3.3825        0.0000       16.4659       16.4659      13.083448       0.03808
  37     2.292        3.3825        0.0001       16.4635       16.4636      13.081155       0.03797
  36     2.964        3.3824        0.0001       16.4605       16.4606      13.078184       0.03730
  35     3.853        3.3824        0.0001       16.4567       16.4568      13.074328       0.03659
  34     5.035        3.3824        0.0001       16.4516       16.4517      13.069327       0.03573
  33     6.613        3.3824        0.0002       16.4451       16.4452      13.062860       0.03457
  32     8.786        3.3823        0.0002       16.4367       16.4369      13.054539       0.03232
  31     11.80        3.3823        0.0003       16.4254       16.4257      13.043374       0.03126
  30     15.07        3.3823        0.0004       16.4141       16.4145      13.032270       0.02867
  29     18.79        3.3822        0.0005       16.4024       16.4029      13.020728       0.02617
  28     23.16        3.3822        0.0006       16.3900       16.3906      13.008441       0.02376
  27     28.12        3.3821        0.0008       16.3771       16.3778      12.995746       0.02158
  26     33.73        3.3820        0.0009       16.3641       16.3650      12.982981       0.01919
  25     40.54        3.3820        0.0011       16.3502       16.3513      12.969288       0.01699
  24     48.69        3.3819        0.0013       16.3354       16.3367      12.954744       0.01505
  23     57.69        3.3819        0.0015       16.3211       16.3226      12.940760       0.01311
  22     68.43        3.3818        0.0018       16.3062       16.3081      12.926265       0.01139
  21     81.20        3.3818        0.0022       16.2903       16.2925      12.910739       0.01026
  20     96.49        3.3817        0.0026       16.2726       16.2752      12.893502       0.00951
  19     114.6        3.3817        0.0031       16.2521       16.2551      12.873488       0.00935
  18     136.5        3.3816        0.0036       16.2245       16.2282      12.846580       0.01035
  17     162.9        3.3816        0.0043       16.1747       16.1791      12.797488       0.01569
  16     196.4        3.3816        0.0052       16.0518       16.0570      12.675458       0.03072
  15     218.7        3.3816        0.0057       15.8984       15.9041      12.522512       0.05807
  14     243.0        3.3817        0.0063       15.6153       15.6216      12.239851       0.09804
  13     269.0        3.3819        0.0068       15.1390       15.1458      11.763875       0.15440
  12     297.5        3.3824        0.0073       14.5779       14.5852      11.202822       0.16640
  11     328.5        3.3832        0.0078       13.8780       13.8858      10.502613       0.19038
  10     361.9        3.3846        0.0082       13.0814       13.0897       9.705117       0.20177
   9     398.1        3.3866        0.0086       12.2728       12.2815       8.894828       0.18878
   8     437.6        3.3898        0.0089       11.4776       11.4865       8.096703       0.17064
   7     480.5        3.3949        0.0092       10.7300       10.7392       7.344366       0.14776
   6     533.0        3.4040        0.0096       10.0326       10.0422       6.638224       0.11360
   5     589.8        3.4187        0.0101        9.5050        9.5151       6.096404       0.08042
   4     651.6        3.4426        0.0107        9.0814        9.0921       5.649514       0.06111
   3     718.7        3.4791        0.0114        8.7024        8.7138       5.234708       0.05213
   2     792.3        3.5329        0.0121        8.3379        8.3501       4.817147       0.04789
   1     891.5        0.4879        2.9433        2.0131        4.9564       4.468486       0.02967
   0    1013.0        0.4992        2.8333        1.9031        4.7364       4.237146       0.01606



 Wavenumbers:  6150. -  7700. cm-1, ATM      1
 LEVEL PRESSURE   UPWARD FLUX   DIFDOWN FLUX  DIRDOWN FLUX  DOWNWARD FLUX   NET FLUX    HEATING RATE
          mb          W/m2          W/m2          W/m2        W/m2          W/m2       degree/day
  51    .06700        5.2519        0.0000       30.4684       30.4684      25.216491       0.00000
  50    .07753        5.2519        0.0000       30.4683       30.4683      25.216439       0.04144
  49    .09103        5.2519        0.0000       30.4683       30.4683      25.216373       0.04174
  48    0.1069        5.2519        0.0000       30.4682       30.4682      25.216294       0.04202
  47    0.1255        5.2519        0.0000       30.4681       30.4681      25.216200       0.04227
  46    0.1487        5.2519        0.0000       30.4680       30.4680      25.216079       0.04411
  45    0.1794        5.2519        0.0000       30.4678       30.4678      25.215909       0.04669
  44    0.2165        5.2519        0.0000       30.4676       30.4676      25.215702       0.04715
  43    0.2613        5.2519        0.0000       30.4673       30.4673      25.215450       0.04744
  42    0.3336        5.2519        0.0000       30.4669       30.4669      25.215024       0.04974
  41    0.4307        5.2519        0.0000       30.4663       30.4663      25.214443       0.05052
  40    0.5894        5.2518        0.0001       30.4653       30.4653      25.213475       0.05146
  39     1.339        5.2518        0.0001       30.4604       30.4606      25.208791       0.05273
  38     1.782        5.2517        0.0002       30.4576       30.4578      25.206042       0.05235
  37     2.292        5.2517        0.0003       30.4543       30.4546      25.202883       0.05231
  36     2.964        5.2516        0.0003       30.4501       30.4504      25.198776       0.05156
  35     3.853        5.2515        0.0004       30.4445       30.4449      25.193419       0.05084
  34     5.035        5.2514        0.0006       30.4373       30.4378      25.186419       0.05000
  33     6.613        5.2513        0.0007       30.4278       30.4285      25.177271       0.04890
  32     8.786        5.2511        0.0010       30.4154       30.4164      25.165319       0.04642
  31     11.80        5.2508        0.0013       30.3984       30.3997      25.148933       0.04587
  30     15.07        5.2504        0.0017       30.3810       30.3827      25.132219       0.04315
  29     18.79        5.2501        0.0021       30.3623       30.3644      25.114318       0.04059
  28     23.16        5.2497        0.0026       30.3417       30.3443      25.094635       0.03806
  27     28.12        5.2492        0.0032       30.3196       30.3227      25.073535       0.03587
  26     33.73        5.2487        0.0038       30.2965       30.3003      25.051615       0.03296
  25     40.54        5.2480        0.0045       30.2708       30.2753      25.027277       0.03019
  24     48.69        5.2472        0.0055       30.2423       30.2477      25.000500       0.02771
  23     57.69        5.2464        0.0065       30.2139       30.2203      24.973932       0.02490
  22     68.43        5.2454        0.0076       30.1834       30.1910      24.945655       0.02223
  21     81.20        5.2441        0.0091       30.1500       30.1591      24.914923       0.02031
  20     96.49        5.2427        0.0108       30.1126       30.1234      24.880702       0.01889
  19     114.6        5.2410        0.0128       30.0695       30.0823      24.841310       0.01839
  18     136.5        5.2389        0.0152       30.0139       30.0291      24.790146       0.01967
  17     162.9        5.2365        0.0180       29.9225       29.9405      24.703947       0.02755
  16     196.4        5.2335        0.0216       29.7333       29.7550      24.521512       0.04592
  15     218.7        5.2315        0.0240       29.5259       29.5498      24.318331       0.07714
  14     243.0        5.2295        0.0264       29.1375       29.1639      23.934403       0.13316
  13     269.0        5.2276        0.0287       28.3800       28.4088      23.181184       0.24434
  12     297.5        5.2260        0.0309       27.3895       27.4205      22.194511       0.29264
  11     328.5        5.2250        0.0330       26.2257       26.2588      21.033712       0.31562
  10     361.9        5.2252        0.0350       24.8453       24.8803      19.655092       0.34880
   9     398.1        5.2271        0.0367       23.3471       23.3837      18.156605       0.34911
   8     437.6        5.2318        0.0381       21.7966       21.8347      16.602899       0.33219
   7     480.5        5.2415        0.0392       20.1977       20.2369      14.995454       0.31570
   6     533.0        5.2616        0.0404       18.4969       18.5373      13.275742       0.27665
   5     589.8        5.2962        0.0415       16.9754       17.0169      11.720741       0.23081
   4     651.6        5.3543        0.0427       15.6022       15.6449      10.290550       0.19558
   3     718.7        5.4445        0.0440       14.4232       14.4672       9.022744       0.15933
   2     792.3        5.5778        0.0456       13.4386       13.4842       7.906437       0.12803
   1     891.5        0.7551        4.6480        3.1506        7.7986       7.043531       0.07343
   0    1013.0        0.7854        4.3767        2.8750        7.2517       6.466299       0.04008



 Wavenumbers:  7700. -  8050. cm-1, ATM      1
 LEVEL PRESSURE   UPWARD FLUX   DIFDOWN FLUX  DIRDOWN FLUX  DOWNWARD FLUX   NET FLUX    HEATING RATE
          mb          W/m2          W/m2          W/m2        W/m2          W/m2       degree/day
  51    .06700        2.5619        0.0000        7.2006        7.2006       4.638734       0.00000
  50    .07753        2.5619        0.0000        7.2006        7.2006       4.638715       0.01556
  49    .09103        2.5619        0.0000        7.2005        7.2005       4.638690       0.01525
  48    0.1069        2.5619        0.0000        7.2005        7.2005       4.638662       0.01493
  47    0.1255        2.5619        0.0000        7.2005        7.2005       4.638630       0.01461
  46    0.1487        2.5619        0.0000        7.2004        7.2005       4.638589       0.01483
  45    0.1794        2.5619        0.0000        7.2004        7.2004       4.638534       0.01526
  44    0.2165        2.5619        0.0000        7.2003        7.2003       4.638468       0.01497
  43    0.2613        2.5619        0.0000        7.2003        7.2003       4.638390       0.01469
  42    0.3336        2.5619        0.0000        7.2001        7.2001       4.638261       0.01503
  41    0.4307        2.5619        0.0000        7.2000        7.2000       4.638090       0.01486
  40    0.5894        2.5619        0.0000        7.1997        7.1997       4.637811       0.01484
  39     1.339        2.5620        0.0001        7.1984        7.1985       4.636491       0.01486
  38     1.782        2.5621        0.0001        7.1977        7.1978       4.635716       0.01476
  37     2.292        2.5621        0.0001        7.1968        7.1969       4.634818       0.01486
  36     2.964        2.5622        0.0001        7.1957        7.1958       4.633641       0.01478
  35     3.853        2.5623        0.0002        7.1942        7.1944       4.632086       0.01475
  34     5.035        2.5624        0.0002        7.1922        7.1925       4.630022       0.01474
  33     6.613        2.5626        0.0003        7.1896        7.1899       4.627268       0.01473
  32     8.786        2.5629        0.0004        7.1860        7.1865       4.623561       0.01439
  31     11.80        2.5633        0.0006        7.1810        7.1815       4.618270       0.01481
  30     15.07        2.5636        0.0007        7.1755        7.1763       4.612605       0.01463
  29     18.79        2.5641        0.0009        7.1694        7.1703       4.606224       0.01447
  28     23.16        2.5646        0.0011        7.1623        7.1634       4.598798       0.01436
  27     28.12        2.5652        0.0013        7.1542        7.1556       4.590342       0.01437
  26     33.73        2.5659        0.0016        7.1452        7.1468       4.580925       0.01416
  25     40.54        2.5667        0.0019        7.1344        7.1363       4.569613       0.01403
  24     48.69        2.5677        0.0023        7.1215        7.1238       4.556072       0.01401
  23     57.69        2.5688        0.0027        7.1074        7.1101       4.541317       0.01383
  22     68.43        2.5701        0.0032        7.0909        7.0940       4.523907       0.01369
  21     81.20        2.5717        0.0038        7.0713        7.0751       4.503392       0.01356
  20     96.49        2.5736        0.0045        7.0484        7.0529       4.479262       0.01332
  19     114.6        2.5759        0.0053        7.0217        7.0270       4.451042       0.01318
  18     136.5        2.5787        0.0063        6.9906        6.9968       4.418172       0.01264
  17     162.9        2.5820        0.0074        6.9544        6.9618       4.379801       0.01227
  16     196.4        2.5864        0.0089        6.9087        6.9176       4.331221       0.01223
  15     218.7        2.5894        0.0099        6.8794        6.8893       4.299929       0.01188
  14     243.0        2.5927        0.0110        6.8481        6.8591       4.266409       0.01163
  13     269.0        2.5963        0.0121        6.8147        6.8268       4.230529       0.01164
  12     297.5        2.6003        0.0133        6.7791        6.7924       4.192088       0.01140
  11     328.5        2.6048        0.0147        6.7409        6.7556       4.150773       0.01123
  10     361.9        2.6099        0.0161        6.7002        6.7162       4.106326       0.01125
   9     398.1        2.6157        0.0176        6.6563        6.6739       4.058211       0.01121
   8     437.6        2.6223        0.0193        6.6089        6.6281       4.005863       0.01119
   7     480.5        2.6299        0.0210        6.5570        6.5780       3.948127       0.01134
   6     533.0        2.6401        0.0231        6.4915        6.5146       3.874468       0.01185
   5     589.8        2.6525        0.0254        6.4182        6.4437       3.791177       0.01236
   4     651.6        2.6674        0.0278        6.3359        6.3637       3.696315       0.01297
   3     718.7        2.6853        0.0304        6.2441        6.2746       3.589225       0.01346
   2     792.3        2.7065        0.0331        6.1437        6.1769       3.470378       0.01363
   1     891.5        0.4275        2.2593        1.5288        3.7881       3.360528       0.00935
   0    1013.0        0.4331        2.2215        1.4831        3.7046       3.271464       0.00618



 Wavenumbers:  8050. - 12850. cm-1, ATM      1
 LEVEL PRESSURE   UPWARD FLUX   DIFDOWN FLUX  DIRDOWN FLUX  DOWNWARD FLUX   NET FLUX    HEATING RATE
          mb          W/m2          W/m2          W/m2        W/m2          W/m2       degree/day
  51    .06700       37.7807        0.0000      100.8135      100.8135      63.032823       0.00000
  50    .07753       37.7807        0.0000      100.8135      100.8135      63.032823       0.00000
  49    .09103       37.7807        0.0001      100.8134      100.8135      63.032823      -0.00000
  48    0.1069       37.7806        0.0001      100.8134      100.8134      63.032823      -0.00000
  47    0.1255       37.7806        0.0001      100.8133      100.8134      63.032823       0.00000
  46    0.1487       37.7806        0.0002      100.8132      100.8134      63.032823      -0.00000
  45    0.1794       37.7805        0.0003      100.8131      100.8133      63.032823       0.00000
  44    0.2165       37.7804        0.0003      100.8129      100.8133      63.032823       0.00000
  43    0.2613       37.7804        0.0005      100.8127      100.8132      63.032823       0.00000
  42    0.3336       37.7803        0.0006      100.8125      100.8131      63.032823       0.00000
  41    0.4307       37.7801        0.0008      100.8121      100.8129      63.032823      -0.00000
  40    0.5894       37.7798        0.0012      100.8115      100.8127      63.032823       0.00000
  39     1.339       37.7786        0.0030      100.8085      100.8114      63.032823      -0.00000
  38     1.782       37.7779        0.0040      100.8068      100.8107      63.032823       0.00000
  37     2.292       37.7771        0.0052      100.8047      100.8099      63.032823       0.00000
  36     2.964       37.7760        0.0067      100.8021      100.8088      63.032823      -0.00000
  35     3.853       37.7746        0.0088      100.7986      100.8074      63.032823       0.00000
  34     5.035       37.7726        0.0115      100.7940      100.8055      63.032823      -0.00000
  33     6.613       37.7701        0.0151      100.7878      100.8029      63.032823      -0.00000
  32     8.786       37.7666        0.0201      100.7794      100.7995      63.032823       0.00000
  31     11.80       37.7617        0.0271      100.7674      100.7945      63.032823      -0.00000
  30     15.07       37.7564        0.0347      100.7546      100.7892      63.032823       0.00000
  29     18.79       37.7504        0.0432      100.7400      100.7832      63.032823      -0.00000
  28     23.16       37.7434        0.0532      100.7230      100.7762      63.032823      -0.00000
  27     28.12       37.7353        0.0647      100.7035      100.7682      63.032823       0.00000
  26     33.73       37.7263        0.0775      100.6817      100.7592      63.032823       0.00000
  25     40.54       37.7154        0.0930      100.6552      100.7483      63.032823      -0.00000
  24     48.69       37.7023        0.1118      100.6234      100.7351      63.032823       0.00000
  23     57.69       37.6878        0.1324      100.5883      100.7207      63.032823       0.00000
  22     68.43       37.6706        0.1570      100.5464      100.7034      63.032823       0.00000
  21     81.20       37.6500        0.1863      100.4965      100.6828      63.032823      -0.00000
  20     96.49       37.6254        0.2213      100.4370      100.6582      63.032823       0.00000
  19     114.6       37.5963        0.2629      100.3585      100.6214      63.025093       0.00361
  18     136.5       37.5617        0.3123      100.2634      100.5757      63.013971       0.00428
  17     162.9       37.5205        0.3712      100.1407      100.5119      62.991418       0.00721
  16     196.4       37.4670        0.4478       99.9505      100.3983      62.931235       0.01515
  15     218.7       37.4319        0.4980       99.7889      100.2870      62.855057       0.02892
  14     243.0       37.3940        0.5526       99.5472      100.0998      62.705800       0.05177
  13     269.0       37.3539        0.6114       99.1452       99.7567      62.402797       0.09829
  12     297.5       37.3123        0.6745       98.5975       99.2720      61.959751       0.13140
  11     328.5       37.2704        0.7421       97.8659       98.6080      61.337597       0.16916
  10     361.9       37.2302        0.8139       96.8848       97.6987      60.468447       0.21990
   9     398.1       37.1944        0.8897       95.6330       96.5227      59.328242       0.26564
   8     437.6       37.1679        0.9690       94.0655       95.0345      57.866622       0.31250
   7     480.5       37.1603        1.0510       92.0807       93.1317      55.971423       0.37221
   6     533.0       37.1866        1.1477       89.4449       90.5926      53.406023       0.41269
   5     589.8       37.2688        1.2476       86.5544       87.8020      50.533194       0.42642
   4     651.6       37.4398        1.3500       83.4174       84.7674      47.327564       0.43838
   3     718.7       37.7258        1.4558       80.2037       81.6595      43.933676       0.42652
   2     792.3       38.1570        1.5656       77.0811       78.6467      40.489641       0.39499
   1     891.5       11.1514       29.9887       18.6502       48.6388      37.487483       0.25547
   0    1013.0       11.3983       28.9797       17.5498       46.5296      35.131241       0.16361



 Wavenumbers: 12850. - 16000. cm-1, ATM      1
 LEVEL PRESSURE   UPWARD FLUX   DIFDOWN FLUX  DIRDOWN FLUX  DOWNWARD FLUX   NET FLUX    HEATING RATE
          mb          W/m2          W/m2          W/m2        W/m2          W/m2       degree/day
  51    .06700       37.0528        0.0000       63.1686       63.1686      26.115736       0.00000
  50    .07753       37.0528        0.0001       63.1677       63.1678      26.114956       0.62526
  49    .09103       37.0528        0.0001       63.1666       63.1668      26.113983       0.60773
  48    0.1069       37.0528        0.0002       63.1654       63.1656      26.112876       0.58940
  47    0.1255       37.0527        0.0003       63.1640       63.1643      26.111616       0.57102
  46    0.1487       37.0527        0.0004       63.1623       63.1627      26.110045       0.57270
  45    0.1794       37.0526        0.0006       63.1600       63.1606      26.107938       0.57850
  44    0.2165       37.0526        0.0008       63.1573       63.1581      26.105500       0.55448
  43    0.2613       37.0525        0.0010       63.1542       63.1552      26.102688       0.53011
  42    0.3336       37.0525        0.0014       63.1493       63.1507      26.098206       0.52261
  41    0.4307       37.0525        0.0019       63.1431       63.1450      26.092597       0.48764
  40    0.5894       37.0525        0.0027       63.1338       63.1366      26.084096       0.45208
  39     1.339       37.0539        0.0067       63.0956       63.1022      26.048309       0.40290
  38     1.782       37.0558        0.0090       63.0740       63.0830      26.027201       0.40187
  37     2.292       37.0589        0.0116       63.0477       63.0593      26.000406       0.44380
  36     2.964       37.0644        0.0151       63.0095       63.0246      25.960258       0.50398
  35     3.853       37.0737        0.0197       62.9533       62.9730      25.899302       0.57848
  34     5.035       37.0880        0.0258       62.8725       62.8983      25.810323       0.63563
  33     6.613       37.1082        0.0340       62.7621       62.7960      25.687863       0.65467
  32     8.786       37.1343        0.0450       62.6182       62.6632      25.528896       0.61737
  31     11.80       37.1677        0.0606       62.4284       62.4890      25.321240       0.58137
  30     15.07       37.1990        0.0774       62.2426       62.3200      25.120964       0.51707
  29     18.79       37.2303        0.0963       62.0493       62.1456      24.915331       0.46623
  28     23.16       37.2620        0.1183       61.8424       61.9608      24.698796       0.41871
  27     28.12       37.2927        0.1435       61.6278       61.7713      24.478587       0.37434
  26     33.73       37.3191        0.1715       61.4177       61.5892      24.270096       0.31347
  25     40.54       37.3418        0.2054       61.1983       61.4037      24.061862       0.25834
  24     48.69       37.3603        0.2462       60.9680       61.2142      23.853843       0.21527
  23     57.69       37.3719        0.2909       60.7478       61.0387      23.666740       0.17538
  22     68.43       37.3765        0.3441       60.5202       60.8643      23.487836       0.14064
  21     81.20       37.3690        0.4075       60.2938       60.7013      23.332294       0.10278
  20     96.49       37.3483        0.4829       60.0643       60.5472      23.198944       0.07360
  19     114.6       37.3239        0.5730       59.8078       60.3808      23.056944       0.06630
  18     136.5       37.2897        0.6797       59.5157       60.1954      22.905674       0.05817
  17     162.9       37.2442        0.8063       59.1770       59.9834      22.739154       0.05323
  16     196.4       37.1749        0.9701       58.7604       59.7306      22.555656       0.04619
  15     218.7       37.1257        1.0774       58.4948       59.5722      22.446489       0.04145
  14     243.0       37.0708        1.1938       58.2089       59.4027      22.331975       0.03972
  13     269.0       37.0099        1.3197       57.9006       59.2203      22.210405       0.03944
  12     297.5       36.9432        1.4554       57.5668       59.0222      22.078964       0.03898
  11     328.5       36.8718        1.6016       57.2005       58.8021      21.930298       0.04042
  10     361.9       36.7965        1.7586       56.7963       58.5550      21.758455       0.04348
   9     398.1       36.7181        1.9269       56.3475       58.2745      21.556379       0.04708
   8     437.6       36.6387        2.1068       55.8422       57.9491      21.310406       0.05259
   7     480.5       36.5621        2.2984       55.2625       57.5610      20.998832       0.06119
   6     533.0       36.4824        2.5322       54.4972       57.0294      20.546915       0.07270
   5     589.8       36.4149        2.7808       53.6307       56.4115      19.996639       0.08168
   4     651.6       36.3677        3.0435       52.6606       55.7041      19.336336       0.09030
   3     718.7       36.3459        3.3205       51.6100       54.9305      18.584657       0.09447
   2     792.3       36.3559        3.6117       50.5019       54.1136      17.757709       0.09484
   1     891.5       20.7887       25.2297       12.4791       37.7088      16.920093       0.07128
   0    1013.0       20.9107       24.9975       12.0232       37.0207      16.109991       0.05625



 Wavenumbers: 16000. - 22650. cm-1, ATM      1
 LEVEL PRESSURE   UPWARD FLUX   DIFDOWN FLUX  DIRDOWN FLUX  DOWNWARD FLUX   NET FLUX    HEATING RATE
          mb          W/m2          W/m2          W/m2        W/m2          W/m2       degree/day
  51    .06700       77.3529        0.0000      100.7153      100.7153      23.362453       0.00000
  50    .07753       77.3527        0.0003      100.7147      100.7151      23.362335       0.09459
  49    .09103       77.3526        0.0007      100.7140      100.7147      23.362163       0.10728
  48    0.1069       77.3524        0.0012      100.7131      100.7143      23.361933       0.12234
  47    0.1255       77.3522        0.0018      100.7121      100.7139      23.361626       0.13945
  46    0.1487       77.3520        0.0024      100.7108      100.7132      23.361172       0.16524
  45    0.1794       77.3518        0.0034      100.7089      100.7123      23.360463       0.19456
  44    0.2165       77.3515        0.0045      100.7066      100.7110      23.359502       0.21866
  43    0.2613       77.3513        0.0058      100.7037      100.7095      23.358198       0.24583
  42    0.3336       77.3510        0.0080      100.6987      100.7067      23.355719       0.28909
  41    0.4307       77.3507        0.0109      100.6918      100.7026      23.351981       0.32496
  40    0.5894       77.3505        0.0156      100.6797      100.6953      23.344854       0.37903
  39     1.339       77.3552        0.0379      100.6095      100.6474      23.292205       0.59272
  38     1.782       77.3621        0.0510      100.5585      100.6095      23.247369       0.85362
  37     2.292       77.3739        0.0662      100.4903      100.5564      23.182488       1.07460
  36     2.964       77.3954        0.0861      100.3868      100.4728      23.077428       1.31881
  35     3.853       77.4321        0.1123      100.2306      100.3429      22.910844       1.58092
  34     5.035       77.4890        0.1471      100.0045      100.1516      22.662579       1.77350
  33     6.613       77.5693        0.1935       99.6939       99.8874      22.318088       1.84165
  32     8.786       77.6732        0.2559       99.2881       99.5440      21.870737       1.73735
  31     11.80       77.8058        0.3448       98.7496       99.0945      21.288614       1.62976
  30     15.07       77.9295        0.4400       98.2198       98.6598      20.730304       1.44145
  29     18.79       78.0525        0.5471       97.6651       98.2123      20.159811       1.29349
  28     23.16       78.1767        0.6718       97.0671       97.7390      19.562268       1.15545
  27     28.12       78.2961        0.8139       96.4406       97.2544      18.958276       1.02674
  26     33.73       78.3973        0.9723       95.8179       96.7902      18.392840       0.85015
  25     40.54       78.4820        1.1630       95.1548       96.3179      17.835859       0.69100
  24     48.69       78.5477        1.3921       94.4420       95.8341      17.286360       0.56864
  23     57.69       78.5848        1.6427       93.7416       95.3843      16.799497       0.45636
  22     68.43       78.5913        1.9399       92.9954       94.9353      16.344028       0.35806
  21     81.20       78.5473        2.2927       92.2231       94.5158      15.968540       0.24812
  20     96.49       78.4472        2.7111       91.4110       94.1221      15.674866       0.16209
  19     114.6       78.3049        3.2045       90.5070       93.7115      15.406596       0.12526
  18     136.5       78.1210        3.7845       89.4803       93.2647      15.143668       0.10110
  17     162.9       77.8890        4.4682       88.3022       92.7704      14.881379       0.08384
  16     196.4       77.5587        5.3447       86.8606       92.2053      14.646572       0.05910
  15     218.7       77.3319        5.9141       85.9492       91.8632      14.531374       0.04374
  14     243.0       77.0816        6.5274       84.9789       91.5063      14.424716       0.03699
  13     269.0       76.8068        7.1856       83.9493       91.1349      14.328097       0.03134
  12     297.5       76.5068        7.8895       82.8589       90.7484      14.241632       0.02564
  11     328.5       76.1831        8.6416       81.6982       90.3398      14.156711       0.02309
  10     361.9       75.8357        9.4415       80.4669       89.9085      14.072798       0.02123
   9     398.1       75.4638       10.2913       79.1611       89.4524      13.988662       0.01960
   8     437.6       75.0680       11.1912       77.7777       88.9689      13.900956       0.01875
   7     480.5       74.6486       12.1415       76.3136       88.4551      13.806485       0.01855
   6     533.0       74.1404       13.2912       74.5359       87.8271      13.686673       0.01927
   5     589.8       73.6038       14.5061       72.6469       87.1530      13.549268       0.02040
   4     651.6       73.0412       15.7842       70.6456       86.4297      13.388483       0.02199
   3     718.7       72.4535       17.1232       68.5367       85.6599      13.206411       0.02288
   2     792.3       71.8433       18.5178       66.3287       84.8465      13.003223       0.02330
   1     891.5       53.8801       50.5057       16.1481       66.6538      12.773666       0.01953
   0    1013.0       53.6066       50.8415       15.2885       66.1300      12.523379       0.01738



 Wavenumbers: 22650. - 29000. cm-1, ATM      1
 LEVEL PRESSURE   UPWARD FLUX   DIFDOWN FLUX  DIRDOWN FLUX  DOWNWARD FLUX   NET FLUX    HEATING RATE
          mb          W/m2          W/m2          W/m2        W/m2          W/m2       degree/day
  51    .06700       34.6417        0.0000       38.0063       38.0063       3.364568       0.00000
  50    .07753       34.6416        0.0004       38.0057       38.0061       3.364568       0.00000
  49    .09103       34.6413        0.0009       38.0050       38.0059       3.364568      -0.00000
  48    0.1069       34.6411        0.0014       38.0042       38.0057       3.364568       0.00000
  47    0.1255       34.6408        0.0021       38.0033       38.0054       3.364568       0.00000
  46    0.1487       34.6405        0.0029       38.0022       38.0051       3.364568       0.00000
  45    0.1794       34.6400        0.0040       38.0006       38.0046       3.364568      -0.00000
  44    0.2165       34.6395        0.0053       37.9987       38.0040       3.364568      -0.00000
  43    0.2613       34.6388        0.0068       37.9965       38.0034       3.364568       0.00000
  42    0.3336       34.6377        0.0094       37.9928       38.0023       3.364568       0.00000
  41    0.4307       34.6362        0.0128       37.9880       38.0008       3.364568      -0.00000
  40    0.5894       34.6338        0.0184       37.9800       37.9984       3.364568       0.00000
  39     1.339       34.6226        0.0447       37.9425       37.9871       3.364568       0.00000
  38     1.782       34.6160        0.0601       37.9204       37.9805       3.364568      -0.00000
  37     2.292       34.6083        0.0780       37.8949       37.9729       3.364568       0.00000
  36     2.964       34.5983        0.1014       37.8614       37.9628       3.364568       0.00000
  35     3.853       34.5850        0.1323       37.8172       37.9496       3.364568      -0.00000
  34     5.035       34.5674        0.1734       37.7586       37.9319       3.364568       0.00000
  33     6.613       34.5439        0.2281       37.6803       37.9085       3.364568      -0.00000
  32     8.786       34.5123        0.3018       37.5750       37.8768       3.364568      -0.00000
  31     11.80       34.4672        0.4069       37.4249       37.8317       3.364568       0.00000
  30     15.07       34.4189        0.5193       37.2642       37.7835       3.364568      -0.00000
  29     18.79       34.3645        0.6458       37.0833       37.7291       3.364568       0.00000
  28     23.16       34.3013        0.7929       36.8730       37.6659       3.364568       0.00000
  27     28.12       34.2294        0.9602       36.6338       37.5939       3.364568       0.00000
  26     33.73       34.1493        1.1462       36.3677       37.5139       3.364568       0.00000
  25     40.54       34.0532        1.3692       36.0486       37.4178       3.364568       0.00000
  24     48.69       33.9383        1.6357       35.6672       37.3029       3.364568      -0.00000
  23     57.69       33.8133        1.9252       35.2527       37.1779       3.364568       0.00000
  22     68.43       33.6661        2.2657       34.7649       37.0306       3.364568      -0.00000
  21     81.20       33.4930        2.6653       34.1922       36.8576       3.364568       0.00000
  20     96.49       33.2901        3.1329       33.5217       36.6547       3.364568       0.00000
  19     114.6       33.0538        3.6760       32.7424       36.4184       3.364568       0.00000
  18     136.5       32.7802        4.3032       31.8416       36.1447       3.364568       0.00000
  17     162.9       32.4632        5.0269       30.8008       35.8277       3.364568       0.00000
  16     196.4       32.0659        5.9298       29.5007       35.4305       3.364568      -0.00000
  15     218.7       31.8133        6.5011       28.6767       35.1778       3.364568      -0.00000
  14     243.0       31.5459        7.1036       27.8068       34.9104       3.364568       0.00000
  13     269.0       31.2642        7.7354       26.8933       34.6287       3.364568       0.00000
  12     297.5       30.9690        8.3943       25.9393       34.3335       3.364568       0.00000
  11     328.5       30.6602        9.0796       24.9451       34.0247       3.364568       0.00000
  10     361.9       30.3391        9.7877       23.9160       33.7037       3.364568      -0.00000
   9     398.1       30.0063       10.5167       22.8541       33.3708       3.364568       0.00000
   8     437.6       29.6628       11.2629       21.7645       33.0274       3.364568       0.00000
   7     480.5       29.3100       12.0225       20.6521       32.6746       3.364568       0.00000
   6     533.0       28.8961       12.9038       19.3569       32.2607       3.364568      -0.00000
   5     589.8       28.4736       13.7915       18.0467       31.8382       3.364568       0.00000
   4     651.6       28.0450       14.6780       16.7316       31.4096       3.364568      -0.00000
   3     718.7       27.6128       15.5559       15.4214       30.9773       3.364568       0.00000
   2     792.3       27.1799       16.4169       14.1276       30.5445       3.364568      -0.00000
   1     891.5       23.0061       23.1765        3.1941       26.3706       3.364522       0.00000
   0    1013.0       22.7703       23.3669        2.7679       26.1348       3.364522      -0.00000



 Wavenumbers: 29000. - 38000. cm-1, ATM      1
 LEVEL PRESSURE   UPWARD FLUX   DIFDOWN FLUX  DIRDOWN FLUX  DOWNWARD FLUX   NET FLUX    HEATING RATE
          mb          W/m2          W/m2          W/m2        W/m2          W/m2       degree/day
  51    .06700        4.9168        0.0000       13.4026       13.4026       8.485834       0.00000
  50    .07753        4.9165        0.0003       13.3983       13.3986       8.482036       3.04441
  49    .09103        4.9163        0.0007       13.3921       13.3928       8.476517       3.44970
  48    0.1069        4.9160        0.0011       13.3840       13.3851       8.469140       3.92680
  47    0.1255        4.9156        0.0016       13.3733       13.3749       8.459295       4.46321
  46    0.1487        4.9152        0.0022       13.3579       13.3600       8.444852       5.26442
  45    0.1794        4.9146        0.0030       13.3340       13.3371       8.422452       6.14932
  44    0.2165        4.9140        0.0040       13.3024       13.3064       8.392433       6.82883
  43    0.2613        4.9132        0.0052       13.2604       13.2656       8.352378       7.55017
  42    0.3336        4.9120        0.0070       13.1833       13.1903       8.278371       8.62850
  41    0.4307        4.9104        0.0095       13.0729       13.0824       8.171998       9.24889
  40    0.5894        4.9080        0.0134       12.8796       12.8930       7.984953       9.94682
  39     1.339        4.8996        0.0297       11.9165       11.9462       7.046601      10.56415
  38     1.782        4.8963        0.0380       11.4399       11.4779       6.581608       8.85271
  37     2.292        4.8938        0.0469       10.9796       11.0265       6.132658       7.43578
  36     2.964        4.8924        0.0578       10.4786       10.5364       5.643998       6.13416
  35     3.853        4.8931        0.0713        9.9429       10.0142       5.121092       4.96248
  34     5.035        4.8965        0.0881        9.4007        9.4888       4.592282       3.77760
  33     6.613        4.9029        0.1095        8.8752        8.9847       4.081779       2.72915
  32     8.786        4.9117        0.1370        8.3786        8.5156       3.603896       1.85592
  31     11.80        4.9225        0.1748        7.8897        8.0645       3.142040       1.29305
  30     15.07        4.9317        0.2139        7.5108        7.7247       2.792925       0.90135
  29     18.79        4.9403        0.2563        7.1776        7.4340       2.493632       0.67859
  28     23.16        4.9482        0.3042        6.8664        7.1707       2.222433       0.52441
  27     28.12        4.9546        0.3572        6.5780        6.9352       1.980561       0.41117
  26     33.73        4.9571        0.4148        6.3195        6.7343       1.777216       0.30573
  25     40.54        4.9544        0.4829        6.0663        6.5491       1.594679       0.22646
  24     48.69        4.9462        0.5626        5.8128        6.3754       1.429256       0.17119
  23     57.69        4.9321        0.6476        5.5777        6.2253       1.293193       0.12754
  22     68.43        4.9102        0.7461        5.3379        6.0840       1.173809       0.09385
  21     81.20        4.8760        0.8603        5.0965        5.9568       1.080851       0.06142
  20     96.49        4.8283        0.9923        4.8476        5.8399       1.011605       0.03822
  19     114.6        4.7704        1.1418        4.5799        5.7217       0.951309       0.02815
  18     136.5        4.7032        1.3088        4.2891        5.5979       0.894770       0.02174
  17     162.9        4.6264        1.4941        3.9732        5.4672       0.840847       0.01724
  16     196.4        4.5292        1.7159        3.6080        5.3239       0.794728       0.01161
  15     218.7        4.4679        1.8509        3.3898        5.2407       0.772762       0.00834
  14     243.0        4.4042        1.9885        3.1686        5.1570       0.752828       0.00691
  13     269.0        4.3384        2.1275        2.9461        5.0736       0.735239       0.00571
  12     297.5        4.2708        2.2669        2.7239        4.9908       0.720015       0.00452
  11     328.5        4.2023        2.4052        2.5029        4.9080       0.705709       0.00389
  10     361.9        4.1334        2.5411        2.2846        4.8257       0.692342       0.00338
   9     398.1        4.0644        2.6736        2.0708        4.7443       0.679909       0.00290
   8     437.6        3.9958        2.8014        1.8626        4.6640       0.668144       0.00252
   7     480.5        3.9280        2.9231        1.6621        4.5852       0.657175       0.00215
   6     533.0        3.8520        3.0537        1.4437        4.4974       0.645442       0.00189
   5     589.8        3.7781        3.1734        1.2390        4.4124       0.634304       0.00165
   4     651.6        3.7070        3.2806        1.0500        4.3306       0.623609       0.00146
   3     718.7        3.6389        3.3744        0.8778        4.2522       0.613321       0.00129
   2     792.3        3.5742        3.4539        0.7237        4.1776       0.603419       0.00114
   1     891.5        3.2018        3.6523        0.1416        3.7939       0.592109       0.00096
   0    1013.0        3.1546        3.6321        0.1028        3.7349       0.580324       0.00082



 Wavenumbers: 38000. - 50000. cm-1, ATM      1
 LEVEL PRESSURE   UPWARD FLUX   DIFDOWN FLUX  DIRDOWN FLUX  DOWNWARD FLUX   NET FLUX    HEATING RATE
          mb          W/m2          W/m2          W/m2        W/m2          W/m2       degree/day
  51    .06700        0.0051        0.0000        0.8267        0.8267       0.821528       0.00000
  50    .07753        0.0051        0.0001        0.8242        0.8243       0.819196       1.86936
  49    .09103        0.0050        0.0002        0.8207        0.8209       0.815872       2.07705
  48    0.1069        0.0049        0.0002        0.8162        0.8164       0.811514       2.31984
  47    0.1255        0.0048        0.0004        0.8103        0.8106       0.805801       2.59006
  46    0.1487        0.0047        0.0005        0.8018        0.8023       0.797567       3.00143
  45    0.1794        0.0045        0.0007        0.7889        0.7896       0.785013       3.44648
  44    0.2165        0.0044        0.0009        0.7720        0.7729       0.768507       3.75474
  43    0.2613        0.0042        0.0011        0.7500        0.7511       0.746955       4.06246
  42    0.3336        0.0039        0.0015        0.7106        0.7121       0.708267       4.51071
  41    0.4307        0.0035        0.0019        0.6566        0.6584       0.654972       4.63387
  40    0.5894        0.0029        0.0024        0.5680        0.5704       0.567464       4.65357
  39     1.339        0.0015        0.0030        0.2422        0.2452       0.243720       3.64476
  38     1.782        0.0010        0.0026        0.1493        0.1519       0.150889       1.76735
  37     2.292        0.0007        0.0022        0.0924        0.0946       0.093932       0.94336
  36     2.964        0.0005        0.0018        0.0539        0.0557       0.055224       0.48589
  35     3.853        0.0003        0.0013        0.0295        0.0308       0.030502       0.23462
  34     5.035        0.0002        0.0010        0.0154        0.0164       0.016181       0.10230
  33     6.613        0.0001        0.0007        0.0073        0.0080       0.007912       0.04420
  32     8.786        0.0000        0.0004        0.0030        0.0034       0.003390       0.01756
  31     11.80        0.0000        0.0003        0.0010        0.0012       0.001199       0.00613
  30     15.07        0.0000        0.0001        0.0003        0.0005       0.000463       0.00190
  29     18.79        0.0000        0.0001        0.0001        0.0002       0.000182       0.00064
  28     23.16        0.0000        0.0000        0.0000        0.0001       0.000071       0.00022
  27     28.12        0.0000        0.0000        0.0000        0.0000       0.000028       0.00007
  26     33.73        0.0000        0.0000        0.0000        0.0000       0.000011       0.00002
  25     40.54        0.0000        0.0000        0.0000        0.0000       0.000005       0.00001
  24     48.69        0.0000        0.0000        0.0000        0.0000       0.000002       0.00000
  23     57.69        0.0000        0.0000        0.0000        0.0000       0.000001       0.00000
  22     68.43        0.0000        0.0000        0.0000        0.0000       0.000000       0.00000
  21     81.20        0.0000        0.0000        0.0000        0.0000       0.000000       0.00000
  20     96.49        0.0000        0.0000        0.0000        0.0000       0.000000       0.00000
  19     114.6        0.0000        0.0000        0.0000        0.0000       0.000000       0.00000
  18     136.5        0.0000        0.0000        0.0000        0.0000       0.000000       0.00000
  17     162.9        0.0000        0.0000        0.0000        0.0000       0.000000       0.00000
  16     196.4        0.0000        0.0000        0.0000        0.0000       0.000000       0.00000
  15     218.7        0.0000        0.0000        0.0000        0.0000       0.000000       0.00000
  14     243.0        0.0000        0.0000        0.0000        0.0000       0.000000       0.00000
  13     269.0        0.0000        0.0000        0.0000        0.0000       0.000000       0.00000
  12     297.5        0.0000        0.0000        0.0000        0.0000       0.000000       0.00000
  11     328.5        0.0000        0.0000        0.0000        0.0000       0.000000       0.00000
  10     361.9        0.0000        0.0000        0.0000        0.0000       0.000000       0.00000
   9     398.1        0.0000        0.0000        0.0000        0.0000       0.000000       0.00000
   8     437.6        0.0000        0.0000        0.0000        0.0000       0.000000       0.00000
   7     480.5        0.0000        0.0000        0.0000        0.0000       0.000000       0.00000
   6     533.0        0.0000        0.0000        0.0000        0.0000       0.000000       0.00000
   5     589.8        0.0000        0.0000        0.0000        0.0000       0.000000       0.00000
   4     651.6        0.0000        0.0000        0.0000        0.0000       0.000000       0.00000
   3     718.7        0.0000        0.0000        0.0000        0.0000       0.000000       0.00000
   2     792.3        0.0000        0.0000        0.0000        0.0000       0.000000       0.00000
   1     891.5        0.0000        0.0000        0.0000        0.0000       0.000000       0.00000
   0    1013.0        0.0000        0.0000        0.0000        0.0000       0.000000       0.00000



 Wavenumbers:   820. -  2600. cm-1, ATM      1
 LEVEL PRESSURE   UPWARD FLUX   DIFDOWN FLUX  DIRDOWN FLUX  DOWNWARD FLUX   NET FLUX    HEATING RATE
          mb          W/m2          W/m2          W/m2        W/m2          W/m2       degree/day
  51    .06700        0.3988        0.0000        3.8670        3.8670       3.468205       0.00000
  50    .07753        0.3988        0.0000        3.8643        3.8643       3.465488       2.17770
  49    .09103        0.3988        0.0000        3.8635        3.8635       3.464678       0.50638
  48    0.1069        0.3988        0.0000        3.8626        3.8626       3.463787       0.47415
  47    0.1255        0.3988        0.0000        3.8616        3.8616       3.462826       0.43560
  46    0.1487        0.3988        0.0000        3.8605        3.8605       3.461717       0.40438
  45    0.1794        0.3988        0.0000        3.8592        3.8592       3.460382       0.36648
  44    0.2165        0.3988        0.0000        3.8578        3.8578       3.459004       0.31347
  43    0.2613        0.3988        0.0000        3.8564        3.8564       3.457544       0.27523
  42    0.3336        0.3988        0.0000        3.8541        3.8541       3.455312       0.26013
  41    0.4307        0.3988        0.0000        3.8512        3.8512       3.452430       0.25064
  40    0.5894        0.3988        0.0000        3.8465        3.8465       3.447703       0.25134
  39     1.339        0.3988        0.0000        3.8251        3.8251       3.426328       0.24065
  38     1.782        0.3988        0.0000        3.8133        3.8133       3.414514       0.22490
  37     2.292        0.3988        0.0000        3.8003        3.8003       3.401453       0.21634
  36     2.964        0.3988        0.0000        3.7841        3.7841       3.385323       0.20247
  35     3.853        0.3988        0.0000        3.7642        3.7642       3.365408       0.18900
  34     5.035        0.3988        0.0000        3.7395        3.7395       3.340716       0.17639
  33     6.613        0.3988        0.0000        3.7090        3.7090       3.310179       0.16325
  32     8.786        0.3988        0.0000        3.6726        3.6726       3.273783       0.14135
  31     11.80        0.3988        0.0000        3.6320        3.6320       3.233186       0.11366
  30     15.07        0.3988        0.0000        3.6016        3.6016       3.202799       0.07845
  29     18.79        0.3988        0.0000        3.5777        3.5777       3.178897       0.05419
  28     23.16        0.3988        0.0000        3.5564        3.5564       3.157539       0.04130
  27     28.12        0.3989        0.0000        3.5348        3.5348       3.135987       0.03664
  26     33.73        0.3989        0.0000        3.5118        3.5118       3.112948       0.03464
  25     40.54        0.3989        0.0000        3.4849        3.4849       3.086053       0.03337
  24     48.69        0.3989        0.0000        3.4537        3.4537       3.054791       0.03235
  23     57.69        0.3989        0.0000        3.4210        3.4210       3.022108       0.03064
  22     68.43        0.3989        0.0000        3.3844        3.3844       2.985509       0.02877
  21     81.20        0.3990        0.0000        3.3441        3.3441       2.945195       0.02664
  20     96.49        0.3990        0.0000        3.2998        3.2998       2.900811       0.02450
  19     114.6        0.3990        0.0000        3.2506        3.2506       2.851638       0.02296
  18     136.5        0.3991        0.0000        3.1936        3.1936       2.794553       0.02195
  17     162.9        0.3991        0.0000        3.1181        3.1181       2.718989       0.02415
  16     196.4        0.3993        0.0000        3.0090        3.0090       2.609682       0.02751
  15     218.7        0.3994        0.0000        2.9420        2.9420       2.542589       0.02547
  14     243.0        0.3996        0.0000        2.8605        2.8605       2.460896       0.02833
  13     269.0        0.3999        0.0000        2.7419        2.7420       2.342096       0.03854
  12     297.5        0.4004        0.0000        2.5729        2.5729       2.172528       0.05029
  11     328.5        0.4011        0.0000        2.3602        2.3602       1.959070       0.05804
  10     361.9        0.4023        0.0000        2.1524        2.1524       1.750126       0.05286
   9     398.1        0.4040        0.0000        1.9974        1.9974       1.593447       0.03650
   8     437.6        0.4063        0.0000        1.8835        1.8835       1.477199       0.02485
   7     480.5        0.4097        0.0000        1.7734        1.7734       1.363774       0.02228
   6     533.0        0.4152        0.0000        1.6397        1.6398       1.224592       0.02239
   5     589.8        0.4231        0.0000        1.5068        1.5069       1.083794       0.02090
   4     651.6        0.4347        0.0000        1.3807        1.3807       0.946001       0.01884
   3     718.7        0.4503        0.0000        1.2680        1.2681       0.817757       0.01612
   2     792.3        0.4697        0.0000        1.1659        1.1660       0.696248       0.01394
   1     891.5        0.0617        0.3887        0.2640        0.6527       0.591020       0.00895
   0    1013.0        0.0679        0.3501        0.2218        0.5719       0.504015       0.00604

  Modules and versions used in this calculation:

       rrtmg_sw.1col.f90:  $Revision$                    rrtmg_sw_init.f90:  $Revision$        
     rrtmgsw_cldprop.f90:  $Revision$                  rrtmgsw_cldprmc.f90:  NOT USED          
     rrtmg_sw_reftra.f90:  $Revision$                  rrtmg_sw_spcvrt.f90:  NOT USED          
     rrtmg_sw_spcvmc.f90:  NOT USED                    rrtmgsw_setcoef.f90:  NOT USED          
     rrtmg_sw_taumol.f90:  $Revision$                  rrtmg_sw_vrtqdr.f90:  NOT USED          
                rrtatm.f:  NOT USED                             util_xxx.f:  NOT USED          
                 extra.f:  NOT USED                       rrtmg_sw_k_g.f90:  $Revision$        

