

 Wavenumbers:   820. - 50000. cm-1, ATM      1
 LEVEL PRESSURE   UPWARD FLUX   DIFDOWN FLUX  DIRDOWN FLUX  DOWNWARD FLUX   NET FLUX    HEATING RATE
          mb          W/m2          W/m2          W/m2        W/m2          W/m2       degree/day
  51    .06700      159.8480        0.0000      397.8738      397.8738     238.025813       0.00000
  50    .07753      159.8473        0.0011      397.8577      397.8589     238.011534      11.44465
  49    .09103      159.8465        0.0026      397.8418      397.8444     237.997863       8.54465
  48    0.1069      159.8457        0.0042      397.8230      397.8272     237.981538       8.68975
  47    0.1255      159.8447        0.0061      397.7997      397.8058     237.961126       9.25389
  46    0.1487      159.8434        0.0085      397.7676      397.7761     237.932713      10.35688
  45    0.1794      159.8418        0.0118      397.7205      397.7323     237.890490      11.59129
  44    0.2165      159.8399        0.0156      397.6602      397.6758     237.835934      12.41047
  43    0.2613      159.8378        0.0201      397.5829      397.6030     237.765262      13.32141
  42    0.3336      159.8344        0.0275      397.4449      397.4724     237.638059      14.83061
  41    0.4307      159.8301        0.0373      397.2524      397.2897     237.459544      15.52149
  40    0.5894      159.8238        0.0530      396.9253      396.9783     237.154498      16.22194
  39     1.339      159.8036        0.1229      395.4254      395.5483     235.744660      15.87221
  38     1.782      159.7983        0.1621      394.7288      394.8909     235.092547      12.41518
  37     2.292      159.7979        0.2067      394.0572      394.2638     234.465931      10.37841
  36     2.964      159.8058        0.2645      393.3007      393.5652     233.759445       8.86853
  35     3.853      159.8278        0.3401      392.4318      392.7719     232.944125       7.73754
  34     5.035      159.8686        0.4396      391.4441      391.8836     232.015014       6.63719
  33     6.613      159.9296        0.5713      390.3268      390.8980     230.968406       5.59517
  32     8.786      160.0075        0.7474      389.0624      389.8098     229.802296       4.52875
  31     11.80      160.0998        0.9972      387.5500      388.5472     228.447379       3.79334
  30     15.07      160.1767        1.2632      386.1556      387.4188     227.242136       3.11170
  29     18.79      160.2437        1.5613      384.7502      386.3114     226.067758       2.66268
  28     23.16      160.2991        1.9065      383.2686      385.1751     224.875999       2.30448
  27     28.12      160.3357        2.2979      381.7329      384.0308     223.695051       2.00753
  26     33.73      160.3375        2.7326      380.1982      382.9308     222.593361       1.65642
  25     40.54      160.2940        3.2538      378.5384      381.7922     221.498239       1.35862
  24     48.69      160.1982        3.8764      376.7214      380.5979     220.399715       1.13680
  23     57.69      160.0514        4.5536      374.8959      379.4495     219.398153       0.93881
  22     68.43      159.8321        5.3516      372.8999      378.2516     218.419479       0.76937
  21     81.20      159.5094        6.2918      370.7496      377.0414     217.532019       0.58642
  20     96.49      159.0699        7.3973      368.4056      375.8029     216.732999       0.44100
  19     114.6      158.5311        8.6877      365.7513      374.4389     215.907858       0.38528
  18     136.5      157.8827       10.1851      362.7231      372.9083     215.025528       0.33928
  17     162.9      157.1076       11.9244      359.1748      371.0992     213.991595       0.33049
  16     196.4      156.0847       14.1149      354.5718      368.6868     212.602002       0.34978
  15     218.7      155.4124       15.5145      351.4437      366.9582     211.545788       0.40101
  14     243.0      154.6875       17.0019      347.7111      364.7130     210.025523       0.52728
  13     269.0      153.9098       18.5750      342.9441      361.5191     207.609288       0.78382
  12     297.5      153.0800       20.2313      337.4137      357.6450     204.565003       0.90290
  11     328.5      152.2007       21.9722      331.1302      353.1024     200.901698       0.99604
  10     361.9      151.2749       23.7917      324.1219      347.9136     196.638784       1.07856
   9     398.1      150.3035       25.6890      316.6066      342.2956     191.992062       1.08258
   8     437.6      149.2917       27.6589      308.5895      336.2484     186.956692       1.07659
   7     480.5      148.2476       29.6954      299.9349      329.6303     181.382696       1.09471
   6     533.0      147.0217       32.1023      289.7021      321.8044     174.782737       1.06172
   5     589.8      145.7760       34.5801      279.3388      313.9189     168.142914       0.98557
   4     651.6      144.5323       37.1163      268.7786      305.8949     161.362596       0.92723
   3     718.7      143.3027       39.7010      258.2837      297.9847     154.681966       0.83957
   2     792.3      142.1024       42.3196      248.0774      290.3970     148.294640       0.73255
   1     891.5      140.6961       45.6256      235.5216      281.1472     140.451060       0.66745
   0    1013.0      139.4459       49.2709      221.4731      270.7440     131.298107       0.63554



 Wavenumbers:  2600. -  3250. cm-1, ATM      1
 LEVEL PRESSURE   UPWARD FLUX   DIFDOWN FLUX  DIRDOWN FLUX  DOWNWARD FLUX   NET FLUX    HEATING RATE
          mb          W/m2          W/m2          W/m2        W/m2          W/m2       degree/day
  51    .06700        0.2237        0.0000        3.5066        3.5066       3.282877       0.00000
  50    .07753        0.2237        0.0000        3.5066        3.5066       3.282869       0.00640
  49    .09103        0.2237        0.0000        3.5066        3.5066       3.282859       0.00627
  48    0.1069        0.2237        0.0000        3.5066        3.5066       3.282847       0.00613
  47    0.1255        0.2237        0.0000        3.5066        3.5066       3.282834       0.00599
  46    0.1487        0.2237        0.0000        3.5066        3.5066       3.282818       0.00607
  45    0.1794        0.2237        0.0000        3.5065        3.5065       3.282795       0.00624
  44    0.2165        0.2237        0.0000        3.5065        3.5065       3.282768       0.00611
  43    0.2613        0.2237        0.0000        3.5065        3.5065       3.282736       0.00598
  42    0.3336        0.2237        0.0000        3.5064        3.5064       3.282683       0.00615
  41    0.4307        0.2237        0.0000        3.5064        3.5064       3.282612       0.00618
  40    0.5894        0.2237        0.0000        3.5062        3.5062       3.282493       0.00633
  39     1.339        0.2237        0.0000        3.5055        3.5055       3.281795       0.00787
  38     1.782        0.2237        0.0000        3.5050        3.5050       3.281264       0.01011
  37     2.292        0.2237        0.0000        3.5043        3.5043       3.280571       0.01147
  36     2.964        0.2237        0.0000        3.5033        3.5033       3.279580       0.01245
  35     3.853        0.2237        0.0000        3.5019        3.5019       3.278203       0.01307
  34     5.035        0.2237        0.0000        3.5001        3.5001       3.276342       0.01329
  33     6.613        0.2237        0.0000        3.4977        3.4977       3.273932       0.01288
  32     8.786        0.2237        0.0000        3.4947        3.4947       3.270961       0.01154
  31     11.80        0.2237        0.0000        3.4911        3.4911       3.267326       0.01018
  30     15.07        0.2237        0.0000        3.4878        3.4878       3.264105       0.00832
  29     18.79        0.2237        0.0000        3.4848        3.4848       3.261042       0.00695
  28     23.16        0.2237        0.0000        3.4816        3.4816       3.257822       0.00623
  27     28.12        0.2237        0.0000        3.4779        3.4779       3.254204       0.00615
  26     33.73        0.2237        0.0000        3.4735        3.4735       3.249738       0.00671
  25     40.54        0.2237        0.0000        3.4671        3.4671       3.243413       0.00785
  24     48.69        0.2237        0.0000        3.4582        3.4583       3.234518       0.00920
  23     57.69        0.2237        0.0000        3.4472        3.4472       3.223471       0.01036
  22     68.43        0.2237        0.0000        3.4329        3.4329       3.209212       0.01121
  21     81.20        0.2237        0.0000        3.4152        3.4152       3.191485       0.01171
  20     96.49        0.2237        0.0000        3.3940        3.3941       3.170343       0.01167
  19     114.6        0.2237        0.0000        3.3692        3.3692       3.145456       0.01162
  18     136.5        0.2238        0.0001        3.3419        3.3420       3.118242       0.01046
  17     162.9        0.2238        0.0001        3.3129        3.3129       3.089172       0.00929
  16     196.4        0.2238        0.0001        3.2793        3.2794       3.055606       0.00845
  15     218.7        0.2238        0.0001        3.2578        3.2578       3.033995       0.00820
  14     243.0        0.2239        0.0001        3.2320        3.2320       3.008132       0.00897
  13     269.0        0.2240        0.0001        3.1968        3.1969       2.972897       0.01143
  12     297.5        0.2242        0.0001        3.1489        3.1490       2.924835       0.01425
  11     328.5        0.2245        0.0001        3.0821        3.0822       2.857683       0.01826
  10     361.9        0.2249        0.0001        2.9902        2.9904       2.765463       0.02333
   9     398.1        0.2255        0.0001        2.8715        2.8716       2.646147       0.02780
   8     437.6        0.2263        0.0001        2.7276        2.7278       2.501501       0.03093
   7     480.5        0.2275        0.0001        2.5595        2.5597       2.332175       0.03326
   6     533.0        0.2295        0.0001        2.3617        2.3619       2.132414       0.03214
   5     589.8        0.2323        0.0002        2.1649        2.1651       1.932744       0.02964
   4     651.6        0.2365        0.0002        1.9608        1.9609       1.724465       0.02848
   3     718.7        0.2421        0.0002        1.7593        1.7595       1.517416       0.02602
   2     792.3        0.2494        0.0002        1.5761        1.5762       1.326822       0.02186
   1     891.5        0.2620        0.0002        1.3714        1.3716       1.109607       0.01848
   0    1013.0        0.2847        0.0002        1.1584        1.1586       0.873817       0.01637



 Wavenumbers:  3250. -  4000. cm-1, ATM      1
 LEVEL PRESSURE   UPWARD FLUX   DIFDOWN FLUX  DIRDOWN FLUX  DOWNWARD FLUX   NET FLUX    HEATING RATE
          mb          W/m2          W/m2          W/m2        W/m2          W/m2       degree/day
  51    .06700        0.0004        0.0000        5.9117        5.9117       5.911216       0.00000
  50    .07753        0.0004        0.0000        5.9075        5.9075       5.907026       3.35808
  49    .09103        0.0004        0.0000        5.9050        5.9050       5.904584       1.52677
  48    0.1069        0.0004        0.0000        5.9032        5.9032       5.902717       0.99346
  47    0.1255        0.0004        0.0000        5.9014        5.9014       5.900959       0.79708
  46    0.1487        0.0004        0.0000        5.8995        5.8995       5.899070       0.68848
  45    0.1794        0.0004        0.0000        5.8974        5.8974       5.896922       0.58983
  44    0.2165        0.0004        0.0000        5.8952        5.8952       5.894805       0.48155
  43    0.2613        0.0004        0.0000        5.8931        5.8931       5.892646       0.40696
  42    0.3336        0.0004        0.0000        5.8899        5.8899       5.889488       0.36820
  41    0.4307        0.0004        0.0000        5.8861        5.8861       5.885651       0.33365
  40    0.5894        0.0004        0.0000        5.8803        5.8803       5.879848       0.30857
  39     1.339        0.0004        0.0000        5.8597        5.8597       5.859251       0.23189
  38     1.782        0.0004        0.0000        5.8513        5.8513       5.850826       0.16039
  37     2.292        0.0004        0.0000        5.8431        5.8431       5.842655       0.13533
  36     2.964        0.0004        0.0000        5.8334        5.8334       5.833015       0.12100
  35     3.853        0.0004        0.0000        5.8213        5.8213       5.820840       0.11555
  34     5.035        0.0004        0.0000        5.8052        5.8052       5.804745       0.11498
  33     6.613        0.0004        0.0000        5.7833        5.7834       5.782923       0.11666
  32     8.786        0.0004        0.0000        5.7531        5.7531       5.752722       0.11729
  31     11.80        0.0004        0.0000        5.7090        5.7090       5.708553       0.12366
  30     15.07        0.0004        0.0000        5.6615        5.6615       5.661088       0.12254
  29     18.79        0.0004        0.0000        5.6093        5.6094       5.608953       0.11821
  28     23.16        0.0004        0.0000        5.5524        5.5524       5.552027       0.11008
  27     28.12        0.0004        0.0000        5.4935        5.4935       5.493148       0.10009
  26     33.73        0.0004        0.0000        5.4348        5.4349       5.434459       0.08824
  25     40.54        0.0004        0.0001        5.3707        5.3708       5.370398       0.07948
  24     48.69        0.0004        0.0001        5.2985        5.2985       5.298165       0.07475
  23     57.69        0.0004        0.0001        5.2215        5.2216       5.221226       0.07212
  22     68.43        0.0003        0.0001        5.1318        5.1319       5.131566       0.07048
  21     81.20        0.0003        0.0001        5.0284        5.0285       5.028136       0.06834
  20     96.49        0.0003        0.0001        4.9122        4.9123       4.912002       0.06410
  19     114.6        0.0003        0.0001        4.7780        4.7782       4.777891       0.06262
  18     136.5        0.0003        0.0002        4.6285        4.6287       4.628413       0.05748
  17     162.9        0.0002        0.0002        4.4406        4.4407       4.440500       0.06006
  16     196.4        0.0002        0.0002        4.1548        4.1550       4.154827       0.07191
  15     218.7        0.0002        0.0002        3.9564        3.9566       3.956446       0.07532
  14     243.0        0.0002        0.0002        3.7055        3.7058       3.705612       0.08700
  13     269.0        0.0001        0.0002        3.3399        3.3401       3.339973       0.11861
  12     297.5        0.0001        0.0002        2.8954        2.8956       2.895483       0.13183
  11     328.5        0.0001        0.0002        2.4388        2.4390       2.438942       0.12413
  10     361.9        0.0001        0.0002        2.0269        2.0271       2.027003       0.10422
   9     398.1        0.0001        0.0002        1.6753        1.6755       1.675415       0.08191
   8     437.6        0.0001        0.0002        1.3592        1.3594       1.359296       0.06759
   7     480.5        0.0001        0.0002        1.0616        1.0618       1.061713       0.05844
   6     533.0        0.0001        0.0001        0.7543        0.7544       0.754377       0.04944
   5     589.8        0.0001        0.0001        0.4951        0.4952       0.495181       0.03847
   4     651.6        0.0001        0.0001        0.2943        0.2943       0.294278       0.02747
   3     718.7        0.0001        0.0001        0.1528        0.1529       0.152770       0.01778
   2     792.3        0.0001        0.0000        0.0658        0.0658       0.065710       0.00998
   1     891.5        0.0003        0.0000        0.0157        0.0157       0.015360       0.00428
   0    1013.0        0.0013        0.0000        0.0013        0.0013       0.000051       0.00106



 Wavenumbers:  4000. -  4650. cm-1, ATM      1
 LEVEL PRESSURE   UPWARD FLUX   DIFDOWN FLUX  DIRDOWN FLUX  DOWNWARD FLUX   NET FLUX    HEATING RATE
          mb          W/m2          W/m2          W/m2        W/m2          W/m2       degree/day
  51    .06700        0.6301        0.0000        6.9421        6.9421       6.311940       0.00000
  50    .07753        0.6301        0.0000        6.9421        6.9421       6.311939       0.00079
  49    .09103        0.6301        0.0000        6.9421        6.9421       6.311938       0.00078
  48    0.1069        0.6301        0.0000        6.9421        6.9421       6.311937       0.00076
  47    0.1255        0.6301        0.0000        6.9421        6.9421       6.311935       0.00074
  46    0.1487        0.6301        0.0000        6.9421        6.9421       6.311933       0.00075
  45    0.1794        0.6301        0.0000        6.9421        6.9421       6.311930       0.00077
  44    0.2165        0.6301        0.0000        6.9421        6.9421       6.311927       0.00076
  43    0.2613        0.6301        0.0000        6.9420        6.9420       6.311923       0.00074
  42    0.3336        0.6301        0.0000        6.9420        6.9420       6.311916       0.00076
  41    0.4307        0.6301        0.0000        6.9420        6.9420       6.311908       0.00077
  40    0.5894        0.6301        0.0000        6.9420        6.9420       6.311893       0.00079
  39     1.339        0.6301        0.0000        6.9419        6.9419       6.311804       0.00100
  38     1.782        0.6301        0.0000        6.9418        6.9419       6.311734       0.00132
  37     2.292        0.6301        0.0000        6.9418        6.9418       6.311641       0.00155
  36     2.964        0.6301        0.0000        6.9416        6.9416       6.311502       0.00175
  35     3.853        0.6301        0.0000        6.9414        6.9414       6.311295       0.00196
  34     5.035        0.6301        0.0000        6.9411        6.9411       6.310991       0.00218
  33     6.613        0.6301        0.0000        6.9406        6.9406       6.310543       0.00239
  32     8.786        0.6301        0.0000        6.9399        6.9400       6.309883       0.00256
  31     11.80        0.6301        0.0000        6.9389        6.9389       6.308849       0.00290
  30     15.07        0.6301        0.0001        6.9377        6.9377       6.307640       0.00312
  29     18.79        0.6301        0.0001        6.9362        6.9362       6.306182       0.00330
  28     23.16        0.6301        0.0001        6.9343        6.9344       6.304380       0.00348
  27     28.12        0.6300        0.0001        6.9321        6.9322       6.302209       0.00369
  26     33.73        0.6300        0.0001        6.9294        6.9296       6.299545       0.00400
  25     40.54        0.6300        0.0001        6.9258        6.9260       6.295955       0.00445
  24     48.69        0.6300        0.0002        6.9210        6.9212       6.291203       0.00492
  23     57.69        0.6299        0.0002        6.9154        6.9156       6.285615       0.00524
  22     68.43        0.6299        0.0002        6.9083        6.9086       6.278671       0.00546
  21     81.20        0.6299        0.0003        6.8998        6.9001       6.270185       0.00561
  20     96.49        0.6299        0.0004        6.8894        6.8898       6.259941       0.00565
  19     114.6        0.6298        0.0004        6.8765        6.8770       6.247128       0.00598
  18     136.5        0.6298        0.0005        6.8610        6.8615       6.231684       0.00594
  17     162.9        0.6298        0.0006        6.8417        6.8423       6.212496       0.00613
  16     196.4        0.6298        0.0007        6.8147        6.8154       6.185619       0.00677
  15     218.7        0.6298        0.0008        6.7948        6.7956       6.165852       0.00751
  14     243.0        0.6298        0.0009        6.7698        6.7707       6.140811       0.00868
  13     269.0        0.6300        0.0010        6.7349        6.7358       6.105834       0.01135
  12     297.5        0.6302        0.0011        6.6869        6.6879       6.057689       0.01428
  11     328.5        0.6306        0.0012        6.6194        6.6205       5.989928       0.01842
  10     361.9        0.6311        0.0013        6.5295        6.5307       5.899609       0.02285
   9     398.1        0.6318        0.0014        6.4202        6.4216       5.789775       0.02559
   8     437.6        0.6327        0.0015        6.2962        6.2977       5.664914       0.02670
   7     480.5        0.6340        0.0016        6.1555        6.1571       5.523065       0.02786
   6     533.0        0.6361        0.0017        5.9675        5.9693       5.333148       0.03055
   5     589.8        0.6392        0.0019        5.7368        5.7386       5.099456       0.03469
   4     651.6        0.6436        0.0020        5.4662        5.4682       4.824616       0.03759
   3     718.7        0.6497        0.0021        5.1912        5.1933       4.543604       0.03532
   2     792.3        0.6576        0.0022        4.9395        4.9417       4.284145       0.02976
   1     891.5        0.6711        0.0024        4.6486        4.6510       3.979941       0.02589
   0    1013.0        0.6953        0.0025        4.3179        4.3204       3.625087       0.02464



 Wavenumbers:  4650. -  5150. cm-1, ATM      1
 LEVEL PRESSURE   UPWARD FLUX   DIFDOWN FLUX  DIRDOWN FLUX  DOWNWARD FLUX   NET FLUX    HEATING RATE
          mb          W/m2          W/m2          W/m2        W/m2          W/m2       degree/day
  51    .06700        0.4412        0.0000        6.5710        6.5710       6.129774       0.00000
  50    .07753        0.4412        0.0000        6.5708        6.5708       6.129538       0.18887
  49    .09103        0.4412        0.0000        6.5705        6.5705       6.129244       0.18362
  48    0.1069        0.4412        0.0000        6.5701        6.5701       6.128910       0.17806
  47    0.1255        0.4412        0.0000        6.5697        6.5697       6.128530       0.17238
  46    0.1487        0.4412        0.0000        6.5693        6.5693       6.128056       0.17268
  45    0.1794        0.4412        0.0000        6.5686        6.5686       6.127419       0.17473
  44    0.2165        0.4412        0.0000        6.5679        6.5679       6.126681       0.16788
  43    0.2613        0.4412        0.0000        6.5670        6.5670       6.125828       0.16078
  42    0.3336        0.4412        0.0000        6.5657        6.5657       6.124465       0.15894
  41    0.4307        0.4412        0.0000        6.5640        6.5640       6.122743       0.14971
  40    0.5894        0.4412        0.0000        6.5613        6.5613       6.120127       0.13913
  39     1.339        0.4412        0.0000        6.5516        6.5516       6.110350       0.11008
  38     1.782        0.4412        0.0000        6.5473        6.5473       6.106134       0.08026
  37     2.292        0.4412        0.0000        6.5434        6.5435       6.102247       0.06438
  36     2.964        0.4412        0.0000        6.5395        6.5395       6.098293       0.04964
  35     3.853        0.4412        0.0000        6.5355        6.5356       6.094350       0.03742
  34     5.035        0.4412        0.0000        6.5315        6.5315       6.090348       0.02859
  33     6.613        0.4412        0.0000        6.5271        6.5271       6.085954       0.02349
  32     8.786        0.4412        0.0000        6.5216        6.5216       6.080460       0.02134
  31     11.80        0.4412        0.0001        6.5135        6.5135       6.072383       0.02261
  30     15.07        0.4411        0.0001        6.5041        6.5042       6.063016       0.02418
  29     18.79        0.4411        0.0001        6.4925        6.4926       6.051503       0.02610
  28     23.16        0.4411        0.0001        6.4779        6.4780       6.036915       0.02821
  27     28.12        0.4411        0.0002        6.4599        6.4600       6.018946       0.03055
  26     33.73        0.4411        0.0002        6.4384        6.4386       5.997522       0.03221
  25     40.54        0.4410        0.0002        6.4112        6.4114       5.970407       0.03364
  24     48.69        0.4410        0.0003        6.3775        6.3778       5.936786       0.03479
  23     57.69        0.4410        0.0003        6.3404        6.3407       5.899715       0.03475
  22     68.43        0.4409        0.0004        6.2971        6.2975       5.856554       0.03393
  21     81.20        0.4409        0.0004        6.2483        6.2487       5.807779       0.03223
  20     96.49        0.4409        0.0005        6.1948        6.1953       5.754464       0.02943
  19     114.6        0.4408        0.0006        6.1381        6.1388       5.697907       0.02641
  18     136.5        0.4408        0.0007        6.0790        6.0797       5.638904       0.02269
  17     162.9        0.4408        0.0009        6.0160        6.0169       5.576092       0.02008
  16     196.4        0.4408        0.0010        5.9399        5.9409       5.500076       0.01913
  15     218.7        0.4408        0.0011        5.8896        5.8908       5.449917       0.01904
  14     243.0        0.4409        0.0012        5.8322        5.8334       5.392516       0.01991
  13     269.0        0.4410        0.0014        5.7624        5.7638       5.322719       0.02264
  12     297.5        0.4413        0.0015        5.6767        5.6782       5.236943       0.02544
  11     328.5        0.4416        0.0016        5.5726        5.5742       5.132579       0.02838
  10     361.9        0.4422        0.0018        5.4473        5.4491       5.006926       0.03179
   9     398.1        0.4429        0.0019        5.2995        5.3014       4.858480       0.03458
   8     437.6        0.4439        0.0020        5.1275        5.1295       4.685573       0.03697
   7     480.5        0.4453        0.0022        4.9290        4.9311       4.485780       0.03924
   6     533.0        0.4476        0.0023        4.6794        4.6817       4.234036       0.04050
   5     589.8        0.4509        0.0024        4.4188        4.4212       3.970340       0.03914
   4     651.6        0.4554        0.0025        4.1521        4.1546       3.699200       0.03708
   3     718.7        0.4615        0.0027        3.8929        3.8956       3.434055       0.03332
   2     792.3        0.4695        0.0028        3.6469        3.6496       3.180157       0.02912
   1     891.5        0.4830        0.0029        3.3535        3.3564       2.873320       0.02611
   0    1013.0        0.5064        0.0030        3.0383        3.0414       2.535008       0.02349



 Wavenumbers:  5150. -  6150. cm-1, ATM      1
 LEVEL PRESSURE   UPWARD FLUX   DIFDOWN FLUX  DIRDOWN FLUX  DOWNWARD FLUX   NET FLUX    HEATING RATE
          mb          W/m2          W/m2          W/m2        W/m2          W/m2       degree/day
  51    .06700        1.2382        0.0000       16.4735       16.4735      15.235312       0.00000
  50    .07753        1.2382        0.0000       16.4735       16.4735      15.235277       0.02761
  49    .09103        1.2382        0.0000       16.4734       16.4734      15.235232       0.02810
  48    0.1069        1.2382        0.0000       16.4734       16.4734      15.235179       0.02859
  47    0.1255        1.2382        0.0000       16.4733       16.4733      15.235115       0.02904
  46    0.1487        1.2382        0.0000       16.4732       16.4732      15.235031       0.03059
  45    0.1794        1.2382        0.0000       16.4731       16.4731      15.234912       0.03269
  44    0.2165        1.2382        0.0000       16.4730       16.4730      15.234765       0.03331
  43    0.2613        1.2382        0.0000       16.4728       16.4728      15.234586       0.03376
  42    0.3336        1.2382        0.0000       16.4725       16.4725      15.234280       0.03564
  41    0.4307        1.2382        0.0000       16.4720       16.4720      15.233861       0.03645
  40    0.5894        1.2382        0.0000       16.4713       16.4713      15.233160       0.03728
  39     1.339        1.2382        0.0000       16.4679       16.4679      15.229752       0.03837
  38     1.782        1.2382        0.0000       16.4659       16.4659      15.227752       0.03806
  37     2.292        1.2381        0.0001       16.4635       16.4636      15.225461       0.03795
  36     2.964        1.2381        0.0001       16.4605       16.4606      15.222492       0.03727
  35     3.853        1.2381        0.0001       16.4567       16.4567      15.218639       0.03656
  34     5.035        1.2381        0.0001       16.4516       16.4517      15.213643       0.03569
  33     6.613        1.2380        0.0002       16.4451       16.4452      15.207184       0.03453
  32     8.786        1.2380        0.0002       16.4367       16.4369      15.198873       0.03227
  31     11.80        1.2379        0.0003       16.4254       16.4257      15.187725       0.03121
  30     15.07        1.2379        0.0004       16.4141       16.4145      15.176641       0.02862
  29     18.79        1.2378        0.0005       16.4024       16.4029      15.165124       0.02611
  28     23.16        1.2377        0.0006       16.3900       16.3906      15.152868       0.02370
  27     28.12        1.2376        0.0007       16.3771       16.3778      15.140209       0.02152
  26     33.73        1.2375        0.0009       16.3641       16.3650      15.127490       0.01912
  25     40.54        1.2374        0.0010       16.3502       16.3512      15.113860       0.01691
  24     48.69        1.2372        0.0012       16.3354       16.3366      15.099400       0.01496
  23     57.69        1.2370        0.0015       16.3211       16.3225      15.085518       0.01301
  22     68.43        1.2368        0.0017       16.3062       16.3080      15.071152       0.01129
  21     81.20        1.2366        0.0021       16.2903       16.2924      15.055787       0.01015
  20     96.49        1.2363        0.0024       16.2726       16.2751      15.038749       0.00940
  19     114.6        1.2360        0.0029       16.2521       16.2550      15.018979       0.00923
  18     136.5        1.2356        0.0034       16.2245       16.2280      14.992371       0.01023
  17     162.9        1.2352        0.0041       16.1747       16.1788      14.943652       0.01557
  16     196.4        1.2346        0.0049       16.0518       16.0568      14.822138       0.03059
  15     218.7        1.2343        0.0054       15.8984       15.9038      14.669550       0.05793
  14     243.0        1.2339        0.0060       15.6153       15.6212      14.387317       0.09789
  13     269.0        1.2335        0.0064       15.1390       15.1454      13.911891       0.15423
  12     297.5        1.2332        0.0069       14.5779       14.5848      13.351576       0.16618
  11     328.5        1.2330        0.0073       13.8780       13.8854      12.652391       0.19011
  10     361.9        1.2328        0.0077       13.0814       13.0892      11.856340       0.20141
   9     398.1        1.2328        0.0080       12.2728       12.2809      11.048087       0.18830
   8     437.6        1.2330        0.0083       11.4776       11.4859      10.252910       0.17001
   7     480.5        1.2335        0.0086       10.7300       10.7385       9.505051       0.14688
   6     533.0        1.2346        0.0089       10.0326       10.0415       8.806861       0.11232
   5     589.8        1.2366        0.0093        9.5050        9.5143       8.277689       0.07855
   4     651.6        1.2399        0.0098        9.0814        9.0912       7.851225       0.05832
   3     718.7        1.2449        0.0104        8.7024        8.7128       7.467922       0.04817
   2     792.3        1.2518        0.0110        8.3379        8.3490       7.097210       0.04252
   1     891.5        1.2647        0.0119        7.9064        7.9182       6.653564       0.03775
   0    1013.0        1.2915        0.0128        7.4741        7.4869       6.195335       0.03182



 Wavenumbers:  6150. -  7700. cm-1, ATM      1
 LEVEL PRESSURE   UPWARD FLUX   DIFDOWN FLUX  DIRDOWN FLUX  DOWNWARD FLUX   NET FLUX    HEATING RATE
          mb          W/m2          W/m2          W/m2        W/m2          W/m2       degree/day
  51    .06700        1.8661        0.0000       30.4684       30.4684      28.602294       0.00000
  50    .07753        1.8661        0.0000       30.4683       30.4683      28.602243       0.04144
  49    .09103        1.8661        0.0000       30.4683       30.4683      28.602176       0.04174
  48    0.1069        1.8661        0.0000       30.4682       30.4682      28.602097       0.04202
  47    0.1255        1.8661        0.0000       30.4681       30.4681      28.602004       0.04227
  46    0.1487        1.8661        0.0000       30.4680       30.4680      28.601883       0.04411
  45    0.1794        1.8661        0.0000       30.4678       30.4678      28.601713       0.04669
  44    0.2165        1.8661        0.0000       30.4676       30.4676      28.601505       0.04715
  43    0.2613        1.8661        0.0000       30.4673       30.4673      28.601254       0.04744
  42    0.3336        1.8661        0.0000       30.4669       30.4669      28.600827       0.04974
  41    0.4307        1.8661        0.0000       30.4663       30.4663      28.600246       0.05052
  40    0.5894        1.8660        0.0001       30.4653       30.4653      28.599278       0.05146
  39     1.339        1.8660        0.0001       30.4604       30.4606      28.594595       0.05273
  38     1.782        1.8659        0.0002       30.4576       30.4578      28.591845       0.05235
  37     2.292        1.8659        0.0002       30.4543       30.4545      28.588686       0.05231
  36     2.964        1.8658        0.0003       30.4501       30.4504      28.584579       0.05156
  35     3.853        1.8657        0.0004       30.4445       30.4449      28.579222       0.05084
  34     5.035        1.8656        0.0005       30.4373       30.4378      28.572222       0.05000
  33     6.613        1.8654        0.0007       30.4278       30.4285      28.563075       0.04890
  32     8.786        1.8652        0.0009       30.4154       30.4163      28.551122       0.04642
  31     11.80        1.8649        0.0013       30.3984       30.3996      28.534737       0.04587
  30     15.07        1.8646        0.0016       30.3810       30.3826      28.518023       0.04315
  29     18.79        1.8642        0.0020       30.3623       30.3643      28.500123       0.04059
  28     23.16        1.8637        0.0025       30.3417       30.3442      28.480440       0.03806
  27     28.12        1.8632        0.0030       30.3196       30.3226      28.459340       0.03587
  26     33.73        1.8627        0.0036       30.2965       30.3001      28.437422       0.03295
  25     40.54        1.8620        0.0043       30.2708       30.2751      28.413085       0.03019
  24     48.69        1.8612        0.0052       30.2423       30.2475      28.386309       0.02771
  23     57.69        1.8603        0.0062       30.2139       30.2200      28.359744       0.02490
  22     68.43        1.8592        0.0073       30.1834       30.1907      28.331470       0.02223
  21     81.20        1.8579        0.0087       30.1500       30.1587      28.300743       0.02030
  20     96.49        1.8564        0.0103       30.1126       30.1229      28.266527       0.01888
  19     114.6        1.8546        0.0122       30.0695       30.0817      28.227145       0.01839
  18     136.5        1.8524        0.0145       30.0139       30.0284      28.175995       0.01967
  17     162.9        1.8498        0.0172       29.9225       29.9397      28.089826       0.02754
  16     196.4        1.8465        0.0207       29.7333       29.7540      27.907458       0.04590
  15     218.7        1.8444        0.0229       29.5259       29.5487      27.704349       0.07711
  14     243.0        1.8421        0.0252       29.1375       29.1626      27.320557       0.13311
  13     269.0        1.8397        0.0274       28.3800       28.4074      26.567656       0.24424
  12     297.5        1.8374        0.0294       27.3895       27.4190      25.581624       0.29245
  11     328.5        1.8350        0.0314       26.2257       26.2571      24.422036       0.31529
  10     361.9        1.8329        0.0331       24.8453       24.8785      23.045553       0.34826
   9     398.1        1.8311        0.0346       23.3471       23.3817      21.550613       0.34829
   8     437.6        1.8297        0.0359       21.7966       21.8325      20.002748       0.33094
   7     480.5        1.8293        0.0368       20.1977       20.2345      18.405177       0.31376
   6     533.0        1.8305        0.0377       18.4969       18.5346      16.704128       0.27364
   5     589.8        1.8342        0.0386       16.9754       17.0140      15.179747       0.22627
   4     651.6        1.8419        0.0395       15.6022       15.6416      13.799746       0.18872
   3     718.7        1.8544        0.0405       14.4232       14.4637      12.609314       0.14960
   2     792.3        1.8725        0.0417       13.4386       13.4803      11.607874       0.11485
   1     891.5        1.9071        0.0435       12.3736       12.4171      10.509917       0.09343
   0    1013.0        1.9788        0.0454       11.2911       11.3365       9.357768       0.08000



 Wavenumbers:  7700. -  8050. cm-1, ATM      1
 LEVEL PRESSURE   UPWARD FLUX   DIFDOWN FLUX  DIRDOWN FLUX  DOWNWARD FLUX   NET FLUX    HEATING RATE
          mb          W/m2          W/m2          W/m2        W/m2          W/m2       degree/day
  51    .06700        0.9947        0.0000        7.2006        7.2006       6.205858       0.00000
  50    .07753        0.9947        0.0000        7.2006        7.2006       6.205840       0.01472
  49    .09103        0.9947        0.0000        7.2005        7.2005       6.205817       0.01443
  48    0.1069        0.9947        0.0000        7.2005        7.2005       6.205790       0.01412
  47    0.1255        0.9947        0.0000        7.2005        7.2005       6.205760       0.01382
  46    0.1487        0.9947        0.0000        7.2004        7.2005       6.205721       0.01402
  45    0.1794        0.9947        0.0000        7.2004        7.2004       6.205669       0.01443
  44    0.2165        0.9947        0.0000        7.2003        7.2003       6.205607       0.01415
  43    0.2613        0.9947        0.0000        7.2003        7.2003       6.205533       0.01389
  42    0.3336        0.9947        0.0000        7.2001        7.2001       6.205411       0.01421
  41    0.4307        0.9947        0.0000        7.2000        7.2000       6.205250       0.01405
  40    0.5894        0.9947        0.0000        7.1997        7.1997       6.204986       0.01404
  39     1.339        0.9948        0.0001        7.1984        7.1985       6.203737       0.01405
  38     1.782        0.9948        0.0001        7.1977        7.1978       6.203004       0.01395
  37     2.292        0.9948        0.0001        7.1968        7.1969       6.202156       0.01405
  36     2.964        0.9948        0.0001        7.1957        7.1958       6.201043       0.01397
  35     3.853        0.9948        0.0002        7.1942        7.1944       6.199573       0.01395
  34     5.035        0.9948        0.0002        7.1922        7.1924       6.197622       0.01394
  33     6.613        0.9949        0.0003        7.1896        7.1899       6.195019       0.01392
  32     8.786        0.9949        0.0004        7.1860        7.1864       6.191516       0.01360
  31     11.80        0.9950        0.0005        7.1810        7.1815       6.186518       0.01399
  30     15.07        0.9950        0.0006        7.1755        7.1762       6.181167       0.01381
  29     18.79        0.9951        0.0008        7.1694        7.1702       6.175143       0.01366
  28     23.16        0.9952        0.0010        7.1623        7.1633       6.168135       0.01355
  27     28.12        0.9953        0.0012        7.1542        7.1555       6.160158       0.01356
  26     33.73        0.9954        0.0014        7.1452        7.1467       6.151280       0.01335
  25     40.54        0.9955        0.0017        7.1344        7.1362       6.140622       0.01322
  24     48.69        0.9957        0.0021        7.1215        7.1236       6.127873       0.01319
  23     57.69        0.9959        0.0025        7.1074        7.1099       6.113992       0.01301
  22     68.43        0.9961        0.0029        7.0909        7.0938       6.097630       0.01286
  21     81.20        0.9964        0.0034        7.0713        7.0748       6.078373       0.01272
  20     96.49        0.9968        0.0041        7.0484        7.0525       6.055754       0.01248
  19     114.6        0.9972        0.0048        7.0217        7.0265       6.029345       0.01233
  18     136.5        0.9977        0.0057        6.9906        6.9963       5.998648       0.01180
  17     162.9        0.9983        0.0068        6.9544        6.9612       5.962898       0.01143
  16     196.4        0.9991        0.0082        6.9087        6.9169       5.917775       0.01136
  15     218.7        0.9997        0.0090        6.8794        6.8885       5.888791       0.01100
  14     243.0        1.0003        0.0100        6.8481        6.8581       5.857817       0.01074
  13     269.0        1.0010        0.0111        6.8147        6.8258       5.824748       0.01073
  12     297.5        1.0018        0.0122        6.7791        6.7913       5.789418       0.01048
  11     328.5        1.0028        0.0134        6.7409        6.7543       5.751565       0.01029
  10     361.9        1.0039        0.0147        6.7002        6.7149       5.710990       0.01027
   9     398.1        1.0051        0.0161        6.6563        6.6724       5.667225       0.01020
   8     437.6        1.0066        0.0176        6.6089        6.6264       5.619793       0.01014
   7     480.5        1.0085        0.0192        6.5570        6.5762       5.567699       0.01023
   6     533.0        1.0110        0.0211        6.4915        6.5126       5.501559       0.01064
   5     589.8        1.0142        0.0231        6.4182        6.4414       5.427184       0.01104
   4     651.6        1.0182        0.0253        6.3359        6.3612       5.342991       0.01151
   3     718.7        1.0232        0.0276        6.2441        6.2718       5.248589       0.01186
   2     792.3        1.0292        0.0301        6.1437        6.1738       5.144611       0.01193
   1     891.5        1.0385        0.0333        6.0042        6.0375       4.998989       0.01239
   0    1013.0        1.0521        0.0370        5.8249        5.8619       4.809782       0.01314



 Wavenumbers:  8050. - 12850. cm-1, ATM      1
 LEVEL PRESSURE   UPWARD FLUX   DIFDOWN FLUX  DIRDOWN FLUX  DOWNWARD FLUX   NET FLUX    HEATING RATE
          mb          W/m2          W/m2          W/m2        W/m2          W/m2       degree/day
  51    .06700       18.2602        0.0000      100.8135      100.8135      82.553271       0.00000
  50    .07753       18.2602        0.0000      100.8135      100.8135      82.553271       0.00000
  49    .09103       18.2602        0.0001      100.8134      100.8135      82.553271       0.00000
  48    0.1069       18.2602        0.0001      100.8134      100.8134      82.553271       0.00000
  47    0.1255       18.2601        0.0001      100.8133      100.8134      82.553271      -0.00000
  46    0.1487       18.2601        0.0002      100.8132      100.8134      82.553271      -0.00000
  45    0.1794       18.2600        0.0002      100.8131      100.8133      82.553271       0.00000
  44    0.2165       18.2600        0.0003      100.8129      100.8132      82.553271       0.00000
  43    0.2613       18.2599        0.0004      100.8127      100.8132      82.553271       0.00000
  42    0.3336       18.2598        0.0006      100.8125      100.8130      82.553271      -0.00000
  41    0.4307       18.2596        0.0008      100.8121      100.8129      82.553271       0.00000
  40    0.5894       18.2593        0.0011      100.8115      100.8126      82.553271      -0.00000
  39     1.339       18.2579        0.0027      100.8085      100.8112      82.553271      -0.00000
  38     1.782       18.2572        0.0037      100.8068      100.8104      82.553271       0.00000
  37     2.292       18.2562        0.0048      100.8047      100.8095      82.553271       0.00000
  36     2.964       18.2550        0.0062      100.8021      100.8083      82.553271      -0.00000
  35     3.853       18.2534        0.0081      100.7986      100.8067      82.553271       0.00000
  34     5.035       18.2513        0.0106      100.7940      100.8046      82.553271      -0.00000
  33     6.613       18.2485        0.0140      100.7878      100.8017      82.553271       0.00000
  32     8.786       18.2446        0.0185      100.7794      100.7979      82.553271       0.00000
  31     11.80       18.2392        0.0250      100.7674      100.7924      82.553271       0.00000
  30     15.07       18.2333        0.0320      100.7546      100.7866      82.553271       0.00000
  29     18.79       18.2266        0.0399      100.7400      100.7799      82.553271      -0.00000
  28     23.16       18.2188        0.0491      100.7230      100.7721      82.553271      -0.00000
  27     28.12       18.2099        0.0597      100.7035      100.7632      82.553271       0.00000
  26     33.73       18.1999        0.0716      100.6817      100.7532      82.553271       0.00000
  25     40.54       18.1879        0.0859      100.6552      100.7411      82.553271       0.00000
  24     48.69       18.1733        0.1032      100.6234      100.7265      82.553271      -0.00000
  23     57.69       18.1572        0.1222      100.5883      100.7105      82.553271       0.00000
  22     68.43       18.1381        0.1449      100.5464      100.6913      82.553271       0.00000
  21     81.20       18.1152        0.1720      100.4965      100.6685      82.553271      -0.00000
  20     96.49       18.0880        0.2043      100.4370      100.6412      82.553271       0.00000
  19     114.6       18.0556        0.2427      100.3585      100.6012      82.545596       0.00358
  18     136.5       18.0171        0.2883      100.2634      100.5516      82.534550       0.00425
  17     162.9       17.9712        0.3426      100.1407      100.4833      82.512126       0.00717
  16     196.4       17.9116        0.4132       99.9505      100.3637      82.452179       0.01509
  15     218.7       17.8724        0.4596       99.7889      100.2486      82.376200       0.02885
  14     243.0       17.8298        0.5099       99.5472      100.0571      82.227342       0.05163
  13     269.0       17.7840        0.5641       99.1452       99.7094      81.925389       0.09795
  12     297.5       17.7351        0.6222       98.5975       99.2197      81.484602       0.13073
  11     328.5       17.6833        0.6843       97.8659       98.5502      80.866878       0.16796
  10     361.9       17.6293        0.7503       96.8848       97.6350      80.005711       0.21788
   9     398.1       17.5737        0.8197       95.6330       96.4527      78.878945       0.26251
   8     437.6       17.5180        0.8922       94.0655       94.9577      77.439653       0.30773
   7     480.5       17.4651        0.9668       92.0807       93.0476      75.582438       0.36475
   6     533.0       17.4113        1.0545       89.4449       90.4994      73.088053       0.40127
   5     589.8       17.3699        1.1447       86.5544       87.6991      70.329174       0.40951
   4     651.6       17.3495        1.2367       83.4174       84.6541      67.304669       0.41361
   3     718.7       17.3551        1.3314       80.2037       81.5351      64.180007       0.39268
   2     792.3       17.3914        1.4293       77.0811       78.5104      61.118986       0.35106
   1     891.5       17.5040        1.5551       73.2645       74.8197      57.315632       0.32365
   0    1013.0       17.8040        1.6941       68.9425       70.6365      52.832565       0.31128



 Wavenumbers: 12850. - 16000. cm-1, ATM      1
 LEVEL PRESSURE   UPWARD FLUX   DIFDOWN FLUX  DIRDOWN FLUX  DOWNWARD FLUX   NET FLUX    HEATING RATE
          mb          W/m2          W/m2          W/m2        W/m2          W/m2       degree/day
  51    .06700       27.6646        0.0000       63.1686       63.1686      35.503998       0.00000
  50    .07753       27.6645        0.0001       63.1677       63.1678      35.503220       0.62344
  49    .09103       27.6645        0.0001       63.1666       63.1668      35.502251       0.60566
  48    0.1069       27.6645        0.0002       63.1654       63.1656      35.501148       0.58704
  47    0.1255       27.6644        0.0003       63.1640       63.1643      35.499895       0.56832
  46    0.1487       27.6644        0.0004       63.1623       63.1627      35.498332       0.56951
  45    0.1794       27.6643        0.0006       63.1600       63.1605      35.496239       0.57475
  44    0.2165       27.6642        0.0007       63.1573       63.1580      35.493820       0.55026
  43    0.2613       27.6641        0.0010       63.1542       63.1552      35.491032       0.52537
  42    0.3336       27.6640        0.0013       63.1493       63.1506      35.486598       0.51702
  41    0.4307       27.6639        0.0018       63.1431       63.1450      35.481062       0.48136
  40    0.5894       27.6637        0.0026       63.1338       63.1364      35.472698       0.44475
  39     1.339       27.6640        0.0063       63.0956       63.1019      35.437930       0.39142
  38     1.782       27.6648        0.0085       63.0740       63.0825      35.417690       0.38534
  37     2.292       27.6665        0.0110       63.0477       63.0587      35.392152       0.42297
  36     2.964       27.6698        0.0143       63.0095       63.0239      35.354042       0.47840
  35     3.853       27.6756        0.0187       62.9533       62.9720      35.296322       0.54778
  34     5.035       27.6848        0.0245       62.8725       62.8970      35.212174       0.60111
  33     6.613       27.6979        0.0322       62.7621       62.7943      35.096443       0.61870
  32     8.786       27.7146        0.0426       62.6182       62.6609      34.946258       0.58327
  31     11.80       27.7357        0.0575       62.4284       62.4858      34.750102       0.54917
  30     15.07       27.7550        0.0734       62.2426       62.3160      34.560938       0.48838
  29     18.79       27.7738        0.0913       62.0493       62.1406      34.366745       0.44030
  28     23.16       27.7923        0.1122       61.8424       61.9546      34.162290       0.39535
  27     28.12       27.8094        0.1360       61.6278       61.7638      33.954394       0.35341
  26     33.73       27.8227        0.1625       61.4177       61.5802      33.757537       0.29598
  25     40.54       27.8320        0.1946       61.1983       61.3929      33.560873       0.24398
  24     48.69       27.8368        0.2332       60.9680       61.2012      33.364383       0.20334
  23     57.69       27.8357        0.2755       60.7478       61.0233      33.187605       0.16570
  22     68.43       27.8276        0.3258       60.5202       60.8460      33.018462       0.13297
  21     81.20       27.8085        0.3857       60.2938       60.6796      32.871065       0.09740
  20     96.49       27.7771        0.4571       60.0643       60.5213      32.744198       0.07002
  19     114.6       27.7406        0.5422       59.8078       60.3500      32.609336       0.06297
  18     136.5       27.6934        0.6429       59.5157       60.1586      32.465196       0.05543
  17     162.9       27.6335        0.7624       59.1770       59.9394      32.305950       0.05090
  16     196.4       27.5481        0.9169       58.7604       59.6774      32.129295       0.04447
  15     218.7       27.4892        1.0181       58.4948       59.5129      32.023710       0.04009
  14     243.0       27.4240        1.1278       58.2089       59.3367      31.912731       0.03849
  13     269.0       27.3523        1.2464       57.9006       59.1470      31.794729       0.03828
  12     297.5       27.2740        1.3742       57.5668       58.9410      31.667038       0.03787
  11     328.5       27.1897        1.5119       57.2005       58.7124      31.522775       0.03922
  10     361.9       27.0996        1.6596       56.7963       58.4560      31.356350       0.04211
   9     398.1       27.0043        1.8179       56.3475       58.1655      31.161199       0.04547
   8     437.6       26.9047        1.9870       55.8422       57.8292      30.924549       0.05060
   7     480.5       26.8032        2.1669       55.2625       57.4295      30.626299       0.05858
   6     533.0       26.6870        2.3863       54.4972       56.8834      30.196393       0.06916
   5     589.8       26.5729        2.6192       53.6307       56.2499      29.677054       0.07709
   4     651.6       26.4653        2.8650       52.6606       55.5256      29.060288       0.08434
   3     718.7       26.3664        3.1238       51.6100       54.7338      28.367423       0.08707
   2     792.3       26.2792        3.3954       50.5019       53.8973      27.618048       0.08594
   1     891.5       26.1992        3.7526       49.0197       52.7723      26.573098       0.08892
   0    1013.0       26.1794        4.1656       47.2289       51.3945      25.215178       0.09429



 Wavenumbers: 16000. - 22650. cm-1, ATM      1
 LEVEL PRESSURE   UPWARD FLUX   DIFDOWN FLUX  DIRDOWN FLUX  DOWNWARD FLUX   NET FLUX    HEATING RATE
          mb          W/m2          W/m2          W/m2        W/m2          W/m2       degree/day
  51    .06700       70.6758        0.0000      100.7153      100.7153      30.039526       0.00000
  50    .07753       70.6756        0.0003      100.7147      100.7151      30.039412       0.09203
  49    .09103       70.6755        0.0007      100.7140      100.7147      30.039245       0.10438
  48    0.1069       70.6753        0.0012      100.7131      100.7143      30.039021       0.11903
  47    0.1255       70.6751        0.0017      100.7121      100.7138      30.038722       0.13568
  46    0.1487       70.6749        0.0024      100.7108      100.7132      30.038281       0.16077
  45    0.1794       70.6746        0.0033      100.7089      100.7122      30.037591       0.18930
  44    0.2165       70.6743        0.0044      100.7066      100.7109      30.036656       0.21275
  43    0.2613       70.6740        0.0057      100.7037      100.7094      30.035387       0.23918
  42    0.3336       70.6735        0.0078      100.6987      100.7065      30.032974       0.28126
  41    0.4307       70.6731        0.0106      100.6918      100.7024      30.029338       0.31616
  40    0.5894       70.6726        0.0153      100.6797      100.6950      30.022404       0.36877
  39     1.339       70.6754        0.0371      100.6095      100.6466      29.971181       0.57668
  38     1.782       70.6808        0.0499      100.5585      100.6084      29.927559       0.83049
  37     2.292       70.6906        0.0647      100.4903      100.5550      29.864437       1.04546
  36     2.964       70.7087        0.0842      100.3868      100.4710      29.762230       1.28301
  35     3.853       70.7403        0.1099      100.2306      100.3405      29.600177       1.53792
  34     5.035       70.7897        0.1439      100.0045      100.1484      29.358684       1.72512
  33     6.613       70.8596        0.1893       99.6939       99.8832      29.023628       1.79121
  32     8.786       70.9498        0.2503       99.2881       99.5384      28.588593       1.68952
  31     11.80       71.0643        0.3373       98.7496       99.0869      28.022610       1.58457
  30     15.07       71.1703        0.4304       98.2198       98.6502      27.479902       1.40117
  29     18.79       71.2748        0.5351       97.6651       98.2003      26.925476       1.25705
  28     23.16       71.3793        0.6570       97.0671       97.7242      26.344903       1.12264
  27     28.12       71.4782        0.7959       96.4406       97.2364      25.758213       0.99733
  26     33.73       71.5595        0.9507       95.8179       96.7686      25.209117       0.82558
  25     40.54       71.6235        1.1371       95.1548       96.2919      24.668371       0.67086
  24     48.69       71.6678        1.3609       94.4420       95.8028      24.135036       0.55192
  23     57.69       71.6847        1.6057       93.7416       95.3473      23.662623       0.44282
  22     68.43       71.6705        1.8960       92.9954       94.8913      23.220793       0.34734
  21     81.20       71.6069        2.2404       92.2231       94.4635      22.856647       0.24062
  20     96.49       71.4879        2.6489       91.4110       94.0599      22.571921       0.15715
  19     114.6       71.3256        3.1304       90.5070       93.6374      22.311847       0.12144
  18     136.5       71.1194        3.6962       89.4803       93.1765      22.057027       0.09798
  17     162.9       70.8624        4.3631       88.3022       92.6653      21.802913       0.08122
  16     196.4       70.5026        5.2175       86.8606       92.0782      21.575516       0.05724
  15     218.7       70.2576        5.7724       85.9492       91.7216      21.463995       0.04234
  14     243.0       69.9880        6.3699       84.9789       91.3488      21.360773       0.03580
  13     269.0       69.6928        7.0108       83.9493       90.9601      21.267301       0.03032
  12     297.5       69.3713        7.6960       82.8589       90.5550      21.183692       0.02480
  11     328.5       69.0244        8.4278       81.6982       90.1260      21.101623       0.02231
  10     361.9       68.6521        9.2057       80.4669       89.6727      21.020584       0.02050
   9     398.1       68.2535       10.0317       79.1611       89.1929      20.939400       0.01891
   8     437.6       67.8288       10.9059       77.7777       88.6837      20.854862       0.01807
   7     480.5       67.3782       11.8285       76.3136       88.1421      20.763932       0.01786
   6     533.0       66.8309       12.9438       74.5359       87.4797      20.648811       0.01852
   5     589.8       66.2512       14.1213       72.6469       86.7683      20.517061       0.01956
   4     651.6       65.6411       15.3588       70.6456       86.0043      20.363278       0.02103
   3     718.7       65.0008       16.6537       68.5367       85.1904      20.189610       0.02183
   2     792.3       64.3331       18.0008       66.3287       84.3295      19.996327       0.02217
   1     891.5       63.4639       19.7547       63.4246       83.1794      19.715407       0.02390
   0    1013.0       62.4718       21.7639       60.0483       81.8122      19.340487       0.02603



 Wavenumbers: 22650. - 29000. cm-1, ATM      1
 LEVEL PRESSURE   UPWARD FLUX   DIFDOWN FLUX  DIRDOWN FLUX  DOWNWARD FLUX   NET FLUX    HEATING RATE
          mb          W/m2          W/m2          W/m2        W/m2          W/m2       degree/day
  51    .06700       33.0025        0.0000       38.0063       38.0063       5.003785       0.00000
  50    .07753       33.0023        0.0004       38.0057       38.0061       5.003785       0.00000
  49    .09103       33.0021        0.0009       38.0050       38.0059       5.003785       0.00000
  48    0.1069       33.0019        0.0014       38.0042       38.0057       5.003785       0.00000
  47    0.1255       33.0016        0.0020       38.0033       38.0054       5.003785      -0.00000
  46    0.1487       33.0012        0.0028       38.0022       38.0050       5.003785       0.00000
  45    0.1794       33.0007        0.0039       38.0006       38.0045       5.003785      -0.00000
  44    0.2165       33.0002        0.0052       37.9987       38.0039       5.003785       0.00000
  43    0.2613       32.9995        0.0068       37.9965       38.0033       5.003785      -0.00000
  42    0.3336       32.9983        0.0093       37.9928       38.0021       5.003785       0.00000
  41    0.4307       32.9968        0.0126       37.9880       38.0006       5.003785       0.00000
  40    0.5894       32.9944        0.0181       37.9800       37.9982       5.003785       0.00000
  39     1.339       32.9828        0.0441       37.9425       37.9866       5.003785       0.00000
  38     1.782       32.9759        0.0593       37.9204       37.9797       5.003785       0.00000
  37     2.292       32.9681        0.0769       37.8949       37.9718       5.003785       0.00000
  36     2.964       32.9577        0.1000       37.8614       37.9615       5.003785       0.00000
  35     3.853       32.9440        0.1306       37.8172       37.9478       5.003785      -0.00000
  34     5.035       32.9259        0.1711       37.7586       37.9296       5.003785       0.00000
  33     6.613       32.9016        0.2251       37.6803       37.9054       5.003785      -0.00000
  32     8.786       32.8690        0.2978       37.5750       37.8728       5.003785       0.00000
  31     11.80       32.8225        0.4015       37.4249       37.8263       5.003785       0.00000
  30     15.07       32.7727        0.5124       37.2642       37.7765       5.003785       0.00000
  29     18.79       32.7167        0.6372       37.0833       37.7205       5.003785      -0.00000
  28     23.16       32.6514        0.7822       36.8730       37.6552       5.003785       0.00000
  27     28.12       32.5772        0.9472       36.6338       37.5810       5.003785       0.00000
  26     33.73       32.4946        1.1307       36.3677       37.4983       5.003785      -0.00000
  25     40.54       32.3954        1.3506       36.0486       37.3991       5.003785       0.00000
  24     48.69       32.2767        1.6133       35.6672       37.2805       5.003785      -0.00000
  23     57.69       32.1476        1.8986       35.2527       37.1513       5.003785       0.00000
  22     68.43       31.9954        2.2343       34.7649       36.9992       5.003785       0.00000
  21     81.20       31.8164        2.6280       34.1922       36.8202       5.003785      -0.00000
  20     96.49       31.6065        3.0885       33.5217       36.6103       5.003785       0.00000
  19     114.6       31.3618        3.6233       32.7424       36.3656       5.003785      -0.00000
  18     136.5       31.0782        4.2404       31.8416       36.0820       5.003785       0.00000
  17     162.9       30.7493        4.9523       30.8008       35.7531       5.003785      -0.00000
  16     196.4       30.3366        5.8397       29.5007       35.3404       5.003785       0.00000
  15     218.7       30.0738        6.4009       28.6767       35.0776       5.003785      -0.00000
  14     243.0       29.7952        6.9922       27.8068       34.7990       5.003785       0.00000
  13     269.0       29.5015        7.6119       26.8933       34.5053       5.003785       0.00000
  12     297.5       29.1931        8.2576       25.9393       34.1969       5.003785      -0.00000
  11     328.5       28.8701        8.9288       24.9451       33.8739       5.003785       0.00000
  10     361.9       28.5337        9.6215       23.9160       33.5375       5.003785      -0.00000
   9     398.1       28.1842       10.3338       22.8541       33.1879       5.003785       0.00000
   8     437.6       27.8227       11.0620       21.7645       32.8265       5.003785      -0.00000
   7     480.5       27.4505       11.8022       20.6521       32.4543       5.003785       0.00000
   6     533.0       27.0126       12.6594       19.3569       32.0163       5.003785      -0.00000
   5     589.8       26.5638       13.5209       18.0467       31.5676       5.003785       0.00000
   4     651.6       26.1068       14.3790       16.7316       31.1106       5.003785       0.00000
   3     718.7       25.6437       15.2260       15.4214       30.6475       5.003785      -0.00000
   2     792.3       25.1774       16.0536       14.1276       30.1812       5.003785       0.00000
   1     891.5       24.5926       17.0505       12.5459       29.5964       5.003785       0.00000
   0    1013.0       23.9509       18.0829       10.8717       28.9546       5.003785       0.00000



 Wavenumbers: 29000. - 38000. cm-1, ATM      1
 LEVEL PRESSURE   UPWARD FLUX   DIFDOWN FLUX  DIRDOWN FLUX  DOWNWARD FLUX   NET FLUX    HEATING RATE
          mb          W/m2          W/m2          W/m2        W/m2          W/m2       degree/day
  51    .06700        4.7178        0.0000       13.4026       13.4026       8.684776       0.00000
  50    .07753        4.7176        0.0003       13.3983       13.3986       8.680978       3.04423
  49    .09103        4.7173        0.0007       13.3921       13.3928       8.675459       3.44948
  48    0.1069        4.7170        0.0011       13.3840       13.3851       8.668082       3.92655
  47    0.1255        4.7167        0.0016       13.3733       13.3749       8.658238       4.46293
  46    0.1487        4.7162        0.0022       13.3579       13.3600       8.643796       5.26408
  45    0.1794        4.7157        0.0030       13.3340       13.3371       8.621398       6.14891
  44    0.2165        4.7150        0.0040       13.3024       13.3064       8.591381       6.82835
  43    0.2613        4.7142        0.0051       13.2604       13.2655       8.551329       7.54963
  42    0.3336        4.7130        0.0070       13.1833       13.1903       8.477327       8.62785
  41    0.4307        4.7114        0.0095       13.0729       13.0824       8.370963       9.24815
  40    0.5894        4.7090        0.0133       12.8796       12.8929       8.183935       9.94593
  39     1.339        4.7003        0.0295       11.9165       11.9460       7.245709      10.56271
  38     1.782        4.6969        0.0378       11.4399       11.4777       6.780824       8.85066
  37     2.292        4.6942        0.0466       10.9796       11.0262       6.332027       7.43325
  36     2.964        4.6925        0.0575       10.4786       10.5361       5.843610       6.13112
  35     3.853        4.6927        0.0709        9.9429       10.0137       5.321082       4.95888
  34     5.035        4.6954        0.0876        9.4007        9.4882       4.792831       3.77361
  33     6.613        4.7009        0.1087        8.8752        8.9840       4.283098       2.72504
  32     8.786        4.7084        0.1360        8.3786        8.5146       3.806215       1.85204
  31     11.80        4.7175        0.1735        7.8897        8.0631       3.345667       1.28939
  30     15.07        4.7251        0.2121        7.5108        7.7229       2.997824       0.89806
  29     18.79        4.7319        0.2542        7.1776        7.4318       2.699854       0.67559
  28     23.16        4.7379        0.3016        6.8664        7.1680       2.430071       0.52167
  27     28.12        4.7423        0.3539        6.5780        6.9319       2.189668       0.40867
  26     33.73        4.7427        0.4109        6.3195        6.7304       1.987738       0.30361
  25     40.54        4.7378        0.4781        6.0663        6.5444       1.806635       0.22468
  24     48.69        4.7270        0.5569        5.8128        6.3697       1.642673       0.16967
  23     57.69        4.7106        0.6409        5.5777        6.2186       1.507948       0.12628
  22     68.43        4.6860        0.7380        5.3379        6.0759       1.389856       0.09284
  21     81.20        4.6492        0.8507        5.0965        5.9472       1.298001       0.06070
  20     96.49        4.5987        0.9807        4.8476        5.8284       1.229645       0.03773
  19     114.6        4.5376        1.1280        4.5799        5.7078       1.170188       0.02776
  18     136.5        4.4669        1.2923        4.2891        5.5814       1.114505       0.02141
  17     162.9        4.3859        1.4742        3.9732        5.4474       1.061474       0.01695
  16     196.4        4.2836        1.6918        3.6080        5.2998       1.016198       0.01140
  15     218.7        4.2191        1.8240        3.3898        5.2137       0.994668       0.00817
  14     243.0        4.1518        1.9584        3.1686        5.1270       0.975156       0.00677
  13     269.0        4.0822        2.0941        2.9461        5.0402       0.957963       0.00558
  12     297.5        4.0106        2.2298        2.7239        4.9537       0.943106       0.00441
  11     328.5        3.9378        2.3641        2.5029        4.8669       0.929168       0.00379
  10     361.9        3.8641        2.4957        2.2846        4.7803       0.916169       0.00329
   9     398.1        3.7901        2.6234        2.0708        4.6942       0.904104       0.00281
   8     437.6        3.7160        2.7461        1.8626        4.6087       0.892712       0.00244
   7     480.5        3.6424        2.8624        1.6621        4.5245       0.882117       0.00208
   6     533.0        3.5590        2.9862        1.4437        4.4299       0.870816       0.00182
   5     589.8        3.4773        3.0984        1.2390        4.3374       0.860124       0.00159
   4     651.6        3.3976        3.1975        1.0500        4.2475       0.849895       0.00140
   3     718.7        3.3202        3.2825        0.8778        4.1603       0.840094       0.00123
   2     792.3        3.2454        3.3524        0.7237        4.0761       0.830701       0.00108
   1     891.5        3.1554        3.4185        0.5563        3.9748       0.819373       0.00096
   0    1013.0        3.0602        3.4635        0.4039        3.8674       0.807194       0.00085



 Wavenumbers: 38000. - 50000. cm-1, ATM      1
 LEVEL PRESSURE   UPWARD FLUX   DIFDOWN FLUX  DIRDOWN FLUX  DOWNWARD FLUX   NET FLUX    HEATING RATE
          mb          W/m2          W/m2          W/m2        W/m2          W/m2       degree/day
  51    .06700        0.0051        0.0000        0.8267        0.8267       0.821528       0.00000
  50    .07753        0.0051        0.0001        0.8242        0.8243       0.819196       1.86936
  49    .09103        0.0050        0.0002        0.8207        0.8209       0.815872       2.07705
  48    0.1069        0.0049        0.0002        0.8162        0.8164       0.811514       2.31984
  47    0.1255        0.0048        0.0004        0.8103        0.8106       0.805801       2.59006
  46    0.1487        0.0047        0.0005        0.8018        0.8023       0.797567       3.00143
  45    0.1794        0.0045        0.0007        0.7889        0.7896       0.785013       3.44648
  44    0.2165        0.0044        0.0009        0.7720        0.7729       0.768507       3.75474
  43    0.2613        0.0042        0.0011        0.7500        0.7511       0.746955       4.06246
  42    0.3336        0.0039        0.0015        0.7106        0.7121       0.708267       4.51071
  41    0.4307        0.0035        0.0019        0.6566        0.6584       0.654972       4.63387
  40    0.5894        0.0029        0.0024        0.5680        0.5704       0.567464       4.65357
  39     1.339        0.0015        0.0030        0.2422        0.2452       0.243720       3.64476
  38     1.782        0.0010        0.0026        0.1493        0.1519       0.150889       1.76735
  37     2.292        0.0007        0.0022        0.0924        0.0946       0.093932       0.94336
  36     2.964        0.0005        0.0018        0.0539        0.0557       0.055224       0.48589
  35     3.853        0.0003        0.0013        0.0295        0.0308       0.030502       0.23462
  34     5.035        0.0002        0.0010        0.0154        0.0164       0.016181       0.10230
  33     6.613        0.0001        0.0007        0.0073        0.0080       0.007912       0.04420
  32     8.786        0.0000        0.0004        0.0030        0.0034       0.003390       0.01756
  31     11.80        0.0000        0.0003        0.0010        0.0012       0.001199       0.00613
  30     15.07        0.0000        0.0001        0.0003        0.0005       0.000463       0.00190
  29     18.79        0.0000        0.0001        0.0001        0.0002       0.000182       0.00064
  28     23.16        0.0000        0.0000        0.0000        0.0001       0.000071       0.00022
  27     28.12        0.0000        0.0000        0.0000        0.0000       0.000028       0.00007
  26     33.73        0.0000        0.0000        0.0000        0.0000       0.000011       0.00002
  25     40.54        0.0000        0.0000        0.0000        0.0000       0.000005       0.00001
  24     48.69        0.0000        0.0000        0.0000        0.0000       0.000002       0.00000
  23     57.69        0.0000        0.0000        0.0000        0.0000       0.000001       0.00000
  22     68.43        0.0000        0.0000        0.0000        0.0000       0.000000       0.00000
  21     81.20        0.0000        0.0000        0.0000        0.0000       0.000000       0.00000
  20     96.49        0.0000        0.0000        0.0000        0.0000       0.000000       0.00000
  19     114.6        0.0000        0.0000        0.0000        0.0000       0.000000       0.00000
  18     136.5        0.0000        0.0000        0.0000        0.0000       0.000000       0.00000
  17     162.9        0.0000        0.0000        0.0000        0.0000       0.000000       0.00000
  16     196.4        0.0000        0.0000        0.0000        0.0000       0.000000       0.00000
  15     218.7        0.0000        0.0000        0.0000        0.0000       0.000000       0.00000
  14     243.0        0.0000        0.0000        0.0000        0.0000       0.000000       0.00000
  13     269.0        0.0000        0.0000        0.0000        0.0000       0.000000       0.00000
  12     297.5        0.0000        0.0000        0.0000        0.0000       0.000000       0.00000
  11     328.5        0.0000        0.0000        0.0000        0.0000       0.000000       0.00000
  10     361.9        0.0000        0.0000        0.0000        0.0000       0.000000       0.00000
   9     398.1        0.0000        0.0000        0.0000        0.0000       0.000000       0.00000
   8     437.6        0.0000        0.0000        0.0000        0.0000       0.000000       0.00000
   7     480.5        0.0000        0.0000        0.0000        0.0000       0.000000       0.00000
   6     533.0        0.0000        0.0000        0.0000        0.0000       0.000000       0.00000
   5     589.8        0.0000        0.0000        0.0000        0.0000       0.000000       0.00000
   4     651.6        0.0000        0.0000        0.0000        0.0000       0.000000       0.00000
   3     718.7        0.0000        0.0000        0.0000        0.0000       0.000000       0.00000
   2     792.3        0.0000        0.0000        0.0000        0.0000       0.000000       0.00000
   1     891.5        0.0000        0.0000        0.0000        0.0000       0.000000       0.00000
   0    1013.0        0.0000        0.0000        0.0000        0.0000       0.000000       0.00000



 Wavenumbers:   820. -  2600. cm-1, ATM      1
 LEVEL PRESSURE   UPWARD FLUX   DIFDOWN FLUX  DIRDOWN FLUX  DOWNWARD FLUX   NET FLUX    HEATING RATE
          mb          W/m2          W/m2          W/m2        W/m2          W/m2       degree/day
  51    .06700        0.1274        0.0000        3.8670        3.8670       3.739658       0.00000
  50    .07753        0.1274        0.0000        3.8643        3.8643       3.736941       2.17769
  49    .09103        0.1274        0.0000        3.8635        3.8635       3.736131       0.50638
  48    0.1069        0.1274        0.0000        3.8626        3.8626       3.735240       0.47415
  47    0.1255        0.1274        0.0000        3.8616        3.8616       3.734279       0.43559
  46    0.1487        0.1274        0.0000        3.8605        3.8605       3.733170       0.40437
  45    0.1794        0.1274        0.0000        3.8592        3.8592       3.731835       0.36647
  44    0.2165        0.1274        0.0000        3.8578        3.8578       3.730457       0.31346
  43    0.2613        0.1274        0.0000        3.8564        3.8564       3.728997       0.27522
  42    0.3336        0.1274        0.0000        3.8541        3.8541       3.726766       0.26012
  41    0.4307        0.1274        0.0000        3.8512        3.8512       3.723883       0.25063
  40    0.5894        0.1274        0.0000        3.8465        3.8465       3.719157       0.25133
  39     1.339        0.1274        0.0000        3.8251        3.8251       3.697782       0.24064
  38     1.782        0.1274        0.0000        3.8133        3.8133       3.685969       0.22489
  37     2.292        0.1274        0.0000        3.8003        3.8003       3.672908       0.21632
  36     2.964        0.1274        0.0000        3.7841        3.7841       3.656780       0.20246
  35     3.853        0.1274        0.0000        3.7642        3.7642       3.636865       0.18899
  34     5.035        0.1274        0.0000        3.7395        3.7395       3.612175       0.17638
  33     6.613        0.1274        0.0000        3.7090        3.7090       3.581640       0.16324
  32     8.786        0.1274        0.0000        3.6726        3.6726       3.545247       0.14133
  31     11.80        0.1274        0.0000        3.6320        3.6320       3.504654       0.11365
  30     15.07        0.1274        0.0000        3.6016        3.6016       3.474271       0.07844
  29     18.79        0.1274        0.0000        3.5777        3.5777       3.450374       0.05418
  28     23.16        0.1274        0.0000        3.5564        3.5564       3.429022       0.04129
  27     28.12        0.1274        0.0000        3.5348        3.5348       3.407477       0.03662
  26     33.73        0.1274        0.0000        3.5118        3.5118       3.384446       0.03463
  25     40.54        0.1274        0.0000        3.4849        3.4849       3.357560       0.03335
  24     48.69        0.1274        0.0000        3.4537        3.4537       3.326311       0.03234
  23     57.69        0.1274        0.0000        3.4210        3.4210       3.293640       0.03062
  22     68.43        0.1274        0.0000        3.3844        3.3844       3.257057       0.02876
  21     81.20        0.1274        0.0000        3.3441        3.3441       3.216761       0.02663
  20     96.49        0.1274        0.0000        3.2998        3.2998       3.172400       0.02448
  19     114.6        0.1274        0.0000        3.2506        3.2506       3.123255       0.02295
  18     136.5        0.1274        0.0000        3.1936        3.1936       3.066209       0.02194
  17     162.9        0.1274        0.0000        3.1181        3.1181       2.990711       0.02413
  16     196.4        0.1274        0.0000        3.0090        3.0090       2.881530       0.02748
  15     218.7        0.1275        0.0000        2.9420        2.9420       2.814531       0.02544
  14     243.0        0.1275        0.0000        2.8605        2.8605       2.732975       0.02829
  13     269.0        0.1276        0.0000        2.7419        2.7420       2.614404       0.03846
  12     297.5        0.1277        0.0000        2.5729        2.5729       2.445213       0.05018
  11     328.5        0.1279        0.0000        2.3602        2.3602       2.232345       0.05788
  10     361.9        0.1281        0.0000        2.1524        2.1524       2.024300       0.05264
   9     398.1        0.1285        0.0000        1.9974        1.9974       1.868887       0.03621
   8     437.6        0.1291        0.0000        1.8835        1.8835       1.754396       0.02448
   7     480.5        0.1300        0.0000        1.7734        1.7734       1.643466       0.02179
   6     533.0        0.1314        0.0000        1.6397        1.6398       1.508355       0.02174
   5     589.8        0.1335        0.0000        1.5068        1.5069       1.373375       0.02004
   4     651.6        0.1366        0.0000        1.3807        1.3807       1.244160       0.01767
   3     718.7        0.1407        0.0000        1.2680        1.2680       1.127377       0.01468
   2     792.3        0.1457        0.0000        1.1659        1.1660       1.020264       0.01228
   1     891.5        0.1542        0.0000        1.0372        1.0373       0.883066       0.01167
   0    1013.0        0.1696        0.0000        0.8716        0.8717       0.702049       0.01257

  Modules and versions used in this calculation:

       rrtmg_sw.1col.f90:  $Revision$                    rrtmg_sw_init.f90:  $Revision$        
     rrtmgsw_cldprop.f90:  $Revision$                  rrtmgsw_cldprmc.f90:  NOT USED          
     rrtmg_sw_reftra.f90:  $Revision$                  rrtmg_sw_spcvrt.f90:  NOT USED          
     rrtmg_sw_spcvmc.f90:  NOT USED                    rrtmgsw_setcoef.f90:  NOT USED          
     rrtmg_sw_taumol.f90:  $Revision$                  rrtmg_sw_vrtqdr.f90:  NOT USED          
                rrtatm.f:  NOT USED                             util_xxx.f:  NOT USED          
                 extra.f:  NOT USED                       rrtmg_sw_k_g.f90:  $Revision$        

