

 Wavenumbers:   820. - 50000. cm-1, ATM      1
 LEVEL PRESSURE   UPWARD FLUX   DIFDOWN FLUX  DIRDOWN FLUX  DOWNWARD FLUX   NET FLUX    HEATING RATE
          mb          W/m2          W/m2          W/m2        W/m2          W/m2       degree/day
  51    .06700      172.8863        0.0000      397.8738      397.8738     224.987497       0.00000
  50    .07753      172.8857        0.0012      397.8577      397.8589     224.973215      11.44720
  49    .09103      172.8849        0.0026      397.8418      397.8444     224.959540       8.54753
  48    0.1069      172.8840        0.0043      397.8230      397.8272     224.943209       8.69304
  47    0.1255      172.8831        0.0062      397.7997      397.8058     224.922788       9.25765
  46    0.1487      172.8819        0.0086      397.7676      397.7762     224.894363      10.36133
  45    0.1794      172.8803        0.0119      397.7205      397.7324     224.852121      11.59653
  44    0.2165      172.8785        0.0158      397.6602      397.6760     224.797539      12.41637
  43    0.2613      172.8764        0.0203      397.5829      397.6032     224.726831      13.32805
  42    0.3336      172.8732        0.0278      397.4449      397.4727     224.599561      14.83843
  41    0.4307      172.8691        0.0377      397.2524      397.2901     224.420945      15.53029
  40    0.5894      172.8631        0.0535      396.9253      396.9788     224.115706      16.23223
  39     1.339      172.8452        0.1243      395.4254      395.5497     222.704436      15.88834
  38     1.782      172.8416        0.1639      394.7288      394.8927     222.051103      12.43840
  37     2.292      172.8435        0.2091      394.0572      394.2662     221.422723      10.40761
  36     2.964      172.8549        0.2676      393.3007      393.5683     220.713384       8.90435
  35     3.853      172.8824        0.3442      392.4318      392.7760     219.893537       7.78050
  34     5.035      172.9312        0.4449      391.4441      391.8889     218.957668       6.68546
  33     6.613      173.0033        0.5782      390.3268      390.9050     217.901654       5.64545
  32     8.786      173.0957        0.7566      389.0624      389.8190     216.723272       4.57641
  31     11.80      173.2074        1.0097      387.5500      388.5596     215.352277       3.83835
  30     15.07      173.3032        1.2791      386.1556      387.4347     214.131489       3.15183
  29     18.79      173.3902        1.5811      384.7502      386.3313     212.941094       2.69899
  28     23.16      173.4671        1.9309      383.2686      385.1996     211.732407       2.33721
  27     28.12      173.5264        2.3277      381.7329      384.0605     210.534177       2.03691
  26     33.73      173.5504        2.7683      380.1982      382.9665     209.416144       1.68099
  25     40.54      173.5304        3.2967      378.5384      381.8351     208.304754       1.37880
  24     48.69      173.4595        3.9280      376.7214      380.6495     207.190004       1.15359
  23     57.69      173.3368        4.6148      374.8959      379.5107     206.173910       0.95244
  22     68.43      173.1427        5.4243      372.8999      378.3242     205.181494       0.78017
  21     81.20      172.8452        6.3781      370.7496      377.1277     204.282583       0.59399
  20     96.49      172.4311        7.5000      368.4056      375.9056     203.474503       0.44600
  19     114.6      171.9211        8.8100      365.7513      374.5613     202.640171       0.38957
  18     136.5      171.3052       10.3308      362.7231      373.0540     201.748724       0.34278
  17     162.9      170.5672       12.0980      359.1748      371.2728     200.705568       0.33343
  16     196.4      169.5892       14.3249      354.5718      368.8967     199.307549       0.35190
  15     218.7      168.9451       15.7485      351.4437      367.1922     198.247114       0.40261
  14     243.0      168.2503       17.2620      347.7111      364.9732     196.722853       0.52866
  13     269.0      167.5049       18.8636      342.9441      361.8078     194.302855       0.78504
  12     297.5      166.7096       20.5509      337.4137      357.9646     191.254977       0.90397
  11     328.5      165.8677       22.3253      331.1302      353.4556     187.587815       0.99709
  10     361.9      164.9826       24.1812      324.1219      348.3031     183.320585       1.07965
   9     398.1      164.0556       26.1178      316.6066      342.7244     178.668801       1.08376
   8     437.6      163.0927       28.1303      308.5895      336.7198     173.627072       1.07795
   7     480.5      162.1031       30.2127      299.9349      330.1476     168.044471       1.09640
   6     533.0      160.9479       32.6766      289.7021      322.3787     161.430777       1.06393
   5     589.8      159.7836       35.2164      279.3388      314.5552     154.771650       0.98843
   4     651.6      158.6346       37.8199      268.7786      306.5985     147.963958       0.93097
   3     718.7      157.5148       40.4776      258.2837      298.7613     141.246461       0.84420
   2     792.3      156.4412       43.1751      248.0774      291.2525     134.811264       0.73805
   1     891.5      155.2250       46.5886      235.5216      282.1102     126.885226       0.67447
   0    1013.0      154.2480       50.3651      221.4731      271.8382     117.590206       0.64540



 Wavenumbers:  2600. -  3250. cm-1, ATM      1
 LEVEL PRESSURE   UPWARD FLUX   DIFDOWN FLUX  DIRDOWN FLUX  DOWNWARD FLUX   NET FLUX    HEATING RATE
          mb          W/m2          W/m2          W/m2        W/m2          W/m2       degree/day
  51    .06700        0.2237        0.0000        3.5066        3.5066       3.282877       0.00000
  50    .07753        0.2237        0.0000        3.5066        3.5066       3.282869       0.00640
  49    .09103        0.2237        0.0000        3.5066        3.5066       3.282859       0.00627
  48    0.1069        0.2237        0.0000        3.5066        3.5066       3.282847       0.00613
  47    0.1255        0.2237        0.0000        3.5066        3.5066       3.282834       0.00599
  46    0.1487        0.2237        0.0000        3.5066        3.5066       3.282818       0.00607
  45    0.1794        0.2237        0.0000        3.5065        3.5065       3.282795       0.00624
  44    0.2165        0.2237        0.0000        3.5065        3.5065       3.282768       0.00611
  43    0.2613        0.2237        0.0000        3.5065        3.5065       3.282736       0.00598
  42    0.3336        0.2237        0.0000        3.5064        3.5064       3.282683       0.00615
  41    0.4307        0.2237        0.0000        3.5064        3.5064       3.282612       0.00618
  40    0.5894        0.2237        0.0000        3.5062        3.5062       3.282493       0.00633
  39     1.339        0.2237        0.0000        3.5055        3.5055       3.281795       0.00787
  38     1.782        0.2237        0.0000        3.5050        3.5050       3.281264       0.01011
  37     2.292        0.2237        0.0000        3.5043        3.5043       3.280571       0.01147
  36     2.964        0.2237        0.0000        3.5033        3.5033       3.279580       0.01245
  35     3.853        0.2237        0.0000        3.5019        3.5019       3.278203       0.01307
  34     5.035        0.2237        0.0000        3.5001        3.5001       3.276342       0.01329
  33     6.613        0.2237        0.0000        3.4977        3.4977       3.273932       0.01288
  32     8.786        0.2237        0.0000        3.4947        3.4947       3.270961       0.01154
  31     11.80        0.2237        0.0000        3.4911        3.4911       3.267326       0.01018
  30     15.07        0.2237        0.0000        3.4878        3.4878       3.264105       0.00832
  29     18.79        0.2237        0.0000        3.4848        3.4848       3.261042       0.00695
  28     23.16        0.2237        0.0000        3.4816        3.4816       3.257822       0.00623
  27     28.12        0.2237        0.0000        3.4779        3.4779       3.254204       0.00615
  26     33.73        0.2237        0.0000        3.4735        3.4735       3.249738       0.00671
  25     40.54        0.2237        0.0000        3.4671        3.4671       3.243413       0.00785
  24     48.69        0.2237        0.0000        3.4582        3.4583       3.234518       0.00920
  23     57.69        0.2237        0.0000        3.4472        3.4472       3.223471       0.01036
  22     68.43        0.2237        0.0000        3.4329        3.4329       3.209212       0.01121
  21     81.20        0.2237        0.0000        3.4152        3.4152       3.191485       0.01171
  20     96.49        0.2237        0.0000        3.3940        3.3941       3.170343       0.01167
  19     114.6        0.2237        0.0000        3.3692        3.3692       3.145456       0.01162
  18     136.5        0.2238        0.0001        3.3419        3.3420       3.118242       0.01046
  17     162.9        0.2238        0.0001        3.3129        3.3129       3.089172       0.00929
  16     196.4        0.2238        0.0001        3.2793        3.2794       3.055606       0.00845
  15     218.7        0.2238        0.0001        3.2578        3.2578       3.033995       0.00820
  14     243.0        0.2239        0.0001        3.2320        3.2320       3.008132       0.00897
  13     269.0        0.2240        0.0001        3.1968        3.1969       2.972897       0.01143
  12     297.5        0.2242        0.0001        3.1489        3.1490       2.924835       0.01425
  11     328.5        0.2245        0.0001        3.0821        3.0822       2.857683       0.01826
  10     361.9        0.2249        0.0001        2.9902        2.9904       2.765463       0.02333
   9     398.1        0.2255        0.0001        2.8715        2.8716       2.646147       0.02780
   8     437.6        0.2263        0.0001        2.7276        2.7278       2.501501       0.03093
   7     480.5        0.2275        0.0001        2.5595        2.5597       2.332175       0.03326
   6     533.0        0.2295        0.0001        2.3617        2.3619       2.132414       0.03214
   5     589.8        0.2323        0.0002        2.1649        2.1651       1.932744       0.02964
   4     651.6        0.2365        0.0002        1.9608        1.9609       1.724465       0.02848
   3     718.7        0.2421        0.0002        1.7593        1.7595       1.517416       0.02602
   2     792.3        0.2494        0.0002        1.5761        1.5762       1.326822       0.02186
   1     891.5        0.2620        0.0002        1.3714        1.3716       1.109607       0.01848
   0    1013.0        0.2847        0.0002        1.1584        1.1586       0.873817       0.01637



 Wavenumbers:  3250. -  4000. cm-1, ATM      1
 LEVEL PRESSURE   UPWARD FLUX   DIFDOWN FLUX  DIRDOWN FLUX  DOWNWARD FLUX   NET FLUX    HEATING RATE
          mb          W/m2          W/m2          W/m2        W/m2          W/m2       degree/day
  51    .06700        0.0004        0.0000        5.9117        5.9117       5.911216       0.00000
  50    .07753        0.0004        0.0000        5.9075        5.9075       5.907026       3.35808
  49    .09103        0.0004        0.0000        5.9050        5.9050       5.904584       1.52677
  48    0.1069        0.0004        0.0000        5.9032        5.9032       5.902717       0.99346
  47    0.1255        0.0004        0.0000        5.9014        5.9014       5.900959       0.79708
  46    0.1487        0.0004        0.0000        5.8995        5.8995       5.899070       0.68848
  45    0.1794        0.0004        0.0000        5.8974        5.8974       5.896922       0.58983
  44    0.2165        0.0004        0.0000        5.8952        5.8952       5.894805       0.48155
  43    0.2613        0.0004        0.0000        5.8931        5.8931       5.892646       0.40696
  42    0.3336        0.0004        0.0000        5.8899        5.8899       5.889488       0.36820
  41    0.4307        0.0004        0.0000        5.8861        5.8861       5.885651       0.33365
  40    0.5894        0.0004        0.0000        5.8803        5.8803       5.879848       0.30857
  39     1.339        0.0004        0.0000        5.8597        5.8597       5.859251       0.23189
  38     1.782        0.0004        0.0000        5.8513        5.8513       5.850826       0.16039
  37     2.292        0.0004        0.0000        5.8431        5.8431       5.842655       0.13533
  36     2.964        0.0004        0.0000        5.8334        5.8334       5.833015       0.12100
  35     3.853        0.0004        0.0000        5.8213        5.8213       5.820840       0.11555
  34     5.035        0.0004        0.0000        5.8052        5.8052       5.804745       0.11498
  33     6.613        0.0004        0.0000        5.7833        5.7834       5.782923       0.11666
  32     8.786        0.0004        0.0000        5.7531        5.7531       5.752722       0.11729
  31     11.80        0.0004        0.0000        5.7090        5.7090       5.708553       0.12366
  30     15.07        0.0004        0.0000        5.6615        5.6615       5.661088       0.12254
  29     18.79        0.0004        0.0000        5.6093        5.6094       5.608953       0.11821
  28     23.16        0.0004        0.0000        5.5524        5.5524       5.552027       0.11008
  27     28.12        0.0004        0.0000        5.4935        5.4935       5.493148       0.10009
  26     33.73        0.0004        0.0000        5.4348        5.4349       5.434459       0.08824
  25     40.54        0.0004        0.0001        5.3707        5.3708       5.370398       0.07948
  24     48.69        0.0004        0.0001        5.2985        5.2985       5.298165       0.07475
  23     57.69        0.0004        0.0001        5.2215        5.2216       5.221226       0.07212
  22     68.43        0.0003        0.0001        5.1318        5.1319       5.131566       0.07048
  21     81.20        0.0003        0.0001        5.0284        5.0285       5.028136       0.06834
  20     96.49        0.0003        0.0001        4.9122        4.9123       4.912002       0.06410
  19     114.6        0.0003        0.0001        4.7780        4.7782       4.777891       0.06262
  18     136.5        0.0003        0.0002        4.6285        4.6287       4.628413       0.05748
  17     162.9        0.0002        0.0002        4.4406        4.4407       4.440500       0.06006
  16     196.4        0.0002        0.0002        4.1548        4.1550       4.154827       0.07191
  15     218.7        0.0002        0.0002        3.9564        3.9566       3.956446       0.07532
  14     243.0        0.0002        0.0002        3.7055        3.7058       3.705612       0.08700
  13     269.0        0.0001        0.0002        3.3399        3.3401       3.339973       0.11861
  12     297.5        0.0001        0.0002        2.8954        2.8956       2.895483       0.13183
  11     328.5        0.0001        0.0002        2.4388        2.4390       2.438942       0.12413
  10     361.9        0.0001        0.0002        2.0269        2.0271       2.027003       0.10422
   9     398.1        0.0001        0.0002        1.6753        1.6755       1.675415       0.08191
   8     437.6        0.0001        0.0002        1.3592        1.3594       1.359296       0.06759
   7     480.5        0.0001        0.0002        1.0616        1.0618       1.061713       0.05844
   6     533.0        0.0001        0.0001        0.7543        0.7544       0.754377       0.04944
   5     589.8        0.0001        0.0001        0.4951        0.4952       0.495181       0.03847
   4     651.6        0.0001        0.0001        0.2943        0.2943       0.294278       0.02747
   3     718.7        0.0001        0.0001        0.1528        0.1529       0.152770       0.01778
   2     792.3        0.0001        0.0000        0.0658        0.0658       0.065710       0.00998
   1     891.5        0.0003        0.0000        0.0157        0.0157       0.015360       0.00428
   0    1013.0        0.0013        0.0000        0.0013        0.0013       0.000051       0.00106



 Wavenumbers:  4000. -  4650. cm-1, ATM      1
 LEVEL PRESSURE   UPWARD FLUX   DIFDOWN FLUX  DIRDOWN FLUX  DOWNWARD FLUX   NET FLUX    HEATING RATE
          mb          W/m2          W/m2          W/m2        W/m2          W/m2       degree/day
  51    .06700        0.6313        0.0000        6.9421        6.9421       6.310771       0.00000
  50    .07753        0.6313        0.0000        6.9421        6.9421       6.310770       0.00079
  49    .09103        0.6313        0.0000        6.9421        6.9421       6.310769       0.00078
  48    0.1069        0.6313        0.0000        6.9421        6.9421       6.310767       0.00076
  47    0.1255        0.6313        0.0000        6.9421        6.9421       6.310766       0.00074
  46    0.1487        0.6313        0.0000        6.9421        6.9421       6.310764       0.00075
  45    0.1794        0.6313        0.0000        6.9421        6.9421       6.310761       0.00077
  44    0.2165        0.6313        0.0000        6.9421        6.9421       6.310757       0.00076
  43    0.2613        0.6313        0.0000        6.9420        6.9420       6.310754       0.00074
  42    0.3336        0.6313        0.0000        6.9420        6.9420       6.310747       0.00076
  41    0.4307        0.6313        0.0000        6.9420        6.9420       6.310738       0.00077
  40    0.5894        0.6313        0.0000        6.9420        6.9420       6.310723       0.00079
  39     1.339        0.6313        0.0000        6.9419        6.9419       6.310634       0.00100
  38     1.782        0.6313        0.0000        6.9418        6.9419       6.310565       0.00132
  37     2.292        0.6313        0.0000        6.9418        6.9418       6.310472       0.00155
  36     2.964        0.6313        0.0000        6.9416        6.9416       6.310332       0.00175
  35     3.853        0.6313        0.0000        6.9414        6.9414       6.310126       0.00196
  34     5.035        0.6313        0.0000        6.9411        6.9411       6.309821       0.00218
  33     6.613        0.6313        0.0000        6.9406        6.9406       6.309374       0.00239
  32     8.786        0.6313        0.0000        6.9399        6.9400       6.308714       0.00256
  31     11.80        0.6313        0.0000        6.9389        6.9389       6.307680       0.00290
  30     15.07        0.6312        0.0001        6.9377        6.9377       6.306470       0.00312
  29     18.79        0.6312        0.0001        6.9362        6.9362       6.305013       0.00330
  28     23.16        0.6312        0.0001        6.9343        6.9344       6.303211       0.00348
  27     28.12        0.6312        0.0001        6.9321        6.9322       6.301039       0.00369
  26     33.73        0.6312        0.0001        6.9294        6.9296       6.298376       0.00400
  25     40.54        0.6312        0.0001        6.9258        6.9260       6.294785       0.00445
  24     48.69        0.6311        0.0002        6.9210        6.9212       6.290033       0.00492
  23     57.69        0.6311        0.0002        6.9154        6.9156       6.284446       0.00524
  22     68.43        0.6311        0.0002        6.9083        6.9086       6.277502       0.00546
  21     81.20        0.6311        0.0003        6.8998        6.9001       6.269015       0.00561
  20     96.49        0.6310        0.0004        6.8894        6.8898       6.258771       0.00565
  19     114.6        0.6310        0.0004        6.8765        6.8770       6.245958       0.00598
  18     136.5        0.6310        0.0005        6.8610        6.8615       6.230514       0.00594
  17     162.9        0.6309        0.0006        6.8417        6.8423       6.211326       0.00613
  16     196.4        0.6309        0.0007        6.8147        6.8154       6.184449       0.00677
  15     218.7        0.6310        0.0008        6.7948        6.7956       6.164681       0.00751
  14     243.0        0.6310        0.0009        6.7698        6.7707       6.139641       0.00868
  13     269.0        0.6311        0.0010        6.7349        6.7358       6.104663       0.01135
  12     297.5        0.6314        0.0011        6.6869        6.6879       6.056518       0.01428
  11     328.5        0.6318        0.0012        6.6194        6.6205       5.988756       0.01842
  10     361.9        0.6323        0.0013        6.5295        6.5307       5.898436       0.02285
   9     398.1        0.6330        0.0014        6.4202        6.4216       5.788600       0.02559
   8     437.6        0.6339        0.0015        6.2962        6.2977       5.663737       0.02670
   7     480.5        0.6352        0.0016        6.1555        6.1571       5.521885       0.02786
   6     533.0        0.6373        0.0017        5.9675        5.9693       5.331965       0.03055
   5     589.8        0.6403        0.0019        5.7368        5.7386       5.098266       0.03469
   4     651.6        0.6448        0.0020        5.4662        5.4682       4.823418       0.03759
   3     718.7        0.6509        0.0021        5.1912        5.1933       4.542394       0.03532
   2     792.3        0.6588        0.0022        4.9395        4.9417       4.282920       0.02976
   1     891.5        0.6723        0.0024        4.6486        4.6510       3.978691       0.02589
   0    1013.0        0.6966        0.0025        4.3179        4.3204       3.623791       0.02464



 Wavenumbers:  4650. -  5150. cm-1, ATM      1
 LEVEL PRESSURE   UPWARD FLUX   DIFDOWN FLUX  DIRDOWN FLUX  DOWNWARD FLUX   NET FLUX    HEATING RATE
          mb          W/m2          W/m2          W/m2        W/m2          W/m2       degree/day
  51    .06700        0.4415        0.0000        6.5710        6.5710       6.129511       0.00000
  50    .07753        0.4415        0.0000        6.5708        6.5708       6.129275       0.18887
  49    .09103        0.4415        0.0000        6.5705        6.5705       6.128981       0.18362
  48    0.1069        0.4415        0.0000        6.5701        6.5701       6.128647       0.17806
  47    0.1255        0.4415        0.0000        6.5697        6.5697       6.128267       0.17238
  46    0.1487        0.4415        0.0000        6.5693        6.5693       6.127793       0.17268
  45    0.1794        0.4415        0.0000        6.5686        6.5686       6.127156       0.17473
  44    0.2165        0.4415        0.0000        6.5679        6.5679       6.126418       0.16788
  43    0.2613        0.4415        0.0000        6.5670        6.5670       6.125565       0.16078
  42    0.3336        0.4415        0.0000        6.5657        6.5657       6.124202       0.15894
  41    0.4307        0.4415        0.0000        6.5640        6.5640       6.122480       0.14971
  40    0.5894        0.4415        0.0000        6.5613        6.5613       6.119864       0.13913
  39     1.339        0.4415        0.0000        6.5516        6.5516       6.110087       0.11008
  38     1.782        0.4415        0.0000        6.5473        6.5473       6.105871       0.08026
  37     2.292        0.4415        0.0000        6.5434        6.5435       6.101984       0.06438
  36     2.964        0.4415        0.0000        6.5395        6.5395       6.098030       0.04964
  35     3.853        0.4415        0.0000        6.5355        6.5356       6.094087       0.03742
  34     5.035        0.4415        0.0000        6.5315        6.5315       6.090085       0.02859
  33     6.613        0.4414        0.0000        6.5271        6.5271       6.085691       0.02349
  32     8.786        0.4414        0.0000        6.5216        6.5216       6.080197       0.02134
  31     11.80        0.4414        0.0001        6.5135        6.5135       6.072120       0.02261
  30     15.07        0.4414        0.0001        6.5041        6.5042       6.062753       0.02418
  29     18.79        0.4414        0.0001        6.4925        6.4926       6.051240       0.02610
  28     23.16        0.4414        0.0001        6.4779        6.4780       6.036652       0.02821
  27     28.12        0.4414        0.0002        6.4599        6.4600       6.018683       0.03055
  26     33.73        0.4413        0.0002        6.4384        6.4386       5.997259       0.03221
  25     40.54        0.4413        0.0002        6.4112        6.4114       5.970144       0.03364
  24     48.69        0.4413        0.0003        6.3775        6.3778       5.936523       0.03479
  23     57.69        0.4412        0.0003        6.3404        6.3407       5.899452       0.03475
  22     68.43        0.4412        0.0004        6.2971        6.2975       5.856291       0.03393
  21     81.20        0.4412        0.0004        6.2483        6.2487       5.807516       0.03223
  20     96.49        0.4411        0.0005        6.1948        6.1953       5.754201       0.02943
  19     114.6        0.4411        0.0006        6.1381        6.1388       5.697643       0.02641
  18     136.5        0.4411        0.0007        6.0790        6.0797       5.638641       0.02269
  17     162.9        0.4411        0.0009        6.0160        6.0169       5.575829       0.02008
  16     196.4        0.4411        0.0010        5.9399        5.9409       5.499813       0.01913
  15     218.7        0.4411        0.0011        5.8896        5.8908       5.449654       0.01904
  14     243.0        0.4412        0.0012        5.8322        5.8334       5.392253       0.01991
  13     269.0        0.4413        0.0014        5.7624        5.7638       5.322456       0.02264
  12     297.5        0.4415        0.0015        5.6767        5.6782       5.236679       0.02544
  11     328.5        0.4419        0.0016        5.5726        5.5742       5.132315       0.02838
  10     361.9        0.4424        0.0018        5.4473        5.4491       5.006661       0.03179
   9     398.1        0.4432        0.0019        5.2995        5.3014       4.858215       0.03458
   8     437.6        0.4442        0.0020        5.1275        5.1295       4.685308       0.03697
   7     480.5        0.4456        0.0022        4.9290        4.9311       4.485513       0.03924
   6     533.0        0.4479        0.0023        4.6794        4.6817       4.233768       0.04050
   5     589.8        0.4511        0.0024        4.4188        4.4212       3.970070       0.03914
   4     651.6        0.4557        0.0025        4.1521        4.1546       3.698926       0.03708
   3     718.7        0.4618        0.0027        3.8929        3.8956       3.433778       0.03332
   2     792.3        0.4698        0.0028        3.6469        3.6496       3.179876       0.02912
   1     891.5        0.4833        0.0029        3.3535        3.3564       2.873030       0.02611
   0    1013.0        0.5067        0.0030        3.0383        3.0414       2.534704       0.02349



 Wavenumbers:  5150. -  6150. cm-1, ATM      1
 LEVEL PRESSURE   UPWARD FLUX   DIFDOWN FLUX  DIRDOWN FLUX  DOWNWARD FLUX   NET FLUX    HEATING RATE
          mb          W/m2          W/m2          W/m2        W/m2          W/m2       degree/day
  51    .06700        1.2410        0.0000       16.4735       16.4735      15.232477       0.00000
  50    .07753        1.2410        0.0000       16.4735       16.4735      15.232443       0.02761
  49    .09103        1.2410        0.0000       16.4734       16.4734      15.232398       0.02810
  48    0.1069        1.2410        0.0000       16.4734       16.4734      15.232344       0.02859
  47    0.1255        1.2410        0.0000       16.4733       16.4733      15.232280       0.02904
  46    0.1487        1.2410        0.0000       16.4732       16.4732      15.232196       0.03059
  45    0.1794        1.2410        0.0000       16.4731       16.4731      15.232077       0.03269
  44    0.2165        1.2410        0.0000       16.4730       16.4730      15.231931       0.03331
  43    0.2613        1.2410        0.0000       16.4728       16.4728      15.231752       0.03376
  42    0.3336        1.2410        0.0000       16.4725       16.4725      15.231446       0.03564
  41    0.4307        1.2410        0.0000       16.4720       16.4720      15.231027       0.03645
  40    0.5894        1.2410        0.0000       16.4713       16.4713      15.230326       0.03728
  39     1.339        1.2410        0.0000       16.4679       16.4679      15.226917       0.03837
  38     1.782        1.2410        0.0000       16.4659       16.4659      15.224918       0.03806
  37     2.292        1.2410        0.0001       16.4635       16.4636      15.222627       0.03795
  36     2.964        1.2410        0.0001       16.4605       16.4606      15.219658       0.03727
  35     3.853        1.2409        0.0001       16.4567       16.4567      15.215805       0.03656
  34     5.035        1.2409        0.0001       16.4516       16.4517      15.210809       0.03569
  33     6.613        1.2409        0.0002       16.4451       16.4452      15.204350       0.03453
  32     8.786        1.2408        0.0002       16.4367       16.4369      15.196039       0.03227
  31     11.80        1.2408        0.0003       16.4254       16.4257      15.184891       0.03121
  30     15.07        1.2407        0.0004       16.4141       16.4145      15.173807       0.02862
  29     18.79        1.2406        0.0005       16.4024       16.4029      15.162290       0.02611
  28     23.16        1.2405        0.0006       16.3900       16.3906      15.150033       0.02370
  27     28.12        1.2404        0.0007       16.3771       16.3778      15.137375       0.02152
  26     33.73        1.2403        0.0009       16.3641       16.3650      15.124656       0.01912
  25     40.54        1.2402        0.0010       16.3502       16.3512      15.111025       0.01691
  24     48.69        1.2400        0.0012       16.3354       16.3366      15.096566       0.01496
  23     57.69        1.2399        0.0015       16.3211       16.3225      15.082683       0.01301
  22     68.43        1.2397        0.0017       16.3062       16.3080      15.068317       0.01129
  21     81.20        1.2394        0.0021       16.2903       16.2924      15.052952       0.01015
  20     96.49        1.2392        0.0024       16.2726       16.2751      15.035914       0.00940
  19     114.6        1.2388        0.0029       16.2521       16.2550      15.016143       0.00923
  18     136.5        1.2385        0.0034       16.2245       16.2280      14.989535       0.01023
  17     162.9        1.2380        0.0041       16.1747       16.1788      14.940816       0.01557
  16     196.4        1.2375        0.0049       16.0518       16.0568      14.819301       0.03059
  15     218.7        1.2371        0.0054       15.8984       15.9038      14.666713       0.05793
  14     243.0        1.2367        0.0060       15.6153       15.6212      14.384480       0.09789
  13     269.0        1.2364        0.0064       15.1390       15.1454      13.909054       0.15423
  12     297.5        1.2361        0.0069       14.5779       14.5848      13.348737       0.16618
  11     328.5        1.2358        0.0073       13.8780       13.8854      12.649551       0.19011
  10     361.9        1.2357        0.0077       13.0814       13.0892      11.853500       0.20141
   9     398.1        1.2356        0.0080       12.2728       12.2809      11.045245       0.18831
   8     437.6        1.2358        0.0083       11.4776       11.4859      10.250067       0.17001
   7     480.5        1.2363        0.0086       10.7300       10.7385       9.502204       0.14688
   6     533.0        1.2375        0.0089       10.0326       10.0415       8.804010       0.11232
   5     589.8        1.2395        0.0093        9.5050        9.5143       8.274832       0.07855
   4     651.6        1.2428        0.0098        9.0814        9.0912       7.848359       0.05832
   3     718.7        1.2478        0.0104        8.7024        8.7128       7.465043       0.04817
   2     792.3        1.2547        0.0110        8.3379        8.3490       7.094312       0.04252
   1     891.5        1.2676        0.0119        7.9064        7.9182       6.650634       0.03775
   0    1013.0        1.2945        0.0128        7.4741        7.4869       6.192340       0.03182



 Wavenumbers:  6150. -  7700. cm-1, ATM      1
 LEVEL PRESSURE   UPWARD FLUX   DIFDOWN FLUX  DIRDOWN FLUX  DOWNWARD FLUX   NET FLUX    HEATING RATE
          mb          W/m2          W/m2          W/m2        W/m2          W/m2       degree/day
  51    .06700        1.8764        0.0000       30.4684       30.4684      28.591968       0.00000
  50    .07753        1.8764        0.0000       30.4683       30.4683      28.591916       0.04144
  49    .09103        1.8764        0.0000       30.4683       30.4683      28.591849       0.04174
  48    0.1069        1.8764        0.0000       30.4682       30.4682      28.591770       0.04202
  47    0.1255        1.8764        0.0000       30.4681       30.4681      28.591677       0.04227
  46    0.1487        1.8764        0.0000       30.4680       30.4680      28.591556       0.04411
  45    0.1794        1.8764        0.0000       30.4678       30.4678      28.591386       0.04669
  44    0.2165        1.8764        0.0000       30.4676       30.4676      28.591179       0.04715
  43    0.2613        1.8764        0.0000       30.4673       30.4673      28.590927       0.04744
  42    0.3336        1.8764        0.0000       30.4669       30.4669      28.590501       0.04974
  41    0.4307        1.8764        0.0000       30.4663       30.4663      28.589920       0.05052
  40    0.5894        1.8764        0.0001       30.4653       30.4653      28.588952       0.05146
  39     1.339        1.8763        0.0001       30.4604       30.4606      28.584268       0.05273
  38     1.782        1.8762        0.0002       30.4576       30.4578      28.581518       0.05235
  37     2.292        1.8762        0.0002       30.4543       30.4545      28.578360       0.05231
  36     2.964        1.8761        0.0003       30.4501       30.4504      28.574253       0.05156
  35     3.853        1.8760        0.0004       30.4445       30.4449      28.568896       0.05084
  34     5.035        1.8759        0.0005       30.4373       30.4378      28.561896       0.05000
  33     6.613        1.8757        0.0007       30.4278       30.4285      28.552748       0.04890
  32     8.786        1.8755        0.0009       30.4154       30.4163      28.540796       0.04642
  31     11.80        1.8752        0.0013       30.3984       30.3996      28.524410       0.04587
  30     15.07        1.8749        0.0016       30.3810       30.3826      28.507697       0.04315
  29     18.79        1.8745        0.0020       30.3623       30.3643      28.489796       0.04059
  28     23.16        1.8741        0.0025       30.3417       30.3442      28.470114       0.03806
  27     28.12        1.8736        0.0030       30.3196       30.3226      28.449014       0.03587
  26     33.73        1.8730        0.0036       30.2965       30.3001      28.427096       0.03295
  25     40.54        1.8723        0.0043       30.2708       30.2751      28.402759       0.03019
  24     48.69        1.8715        0.0052       30.2423       30.2475      28.375983       0.02771
  23     57.69        1.8706        0.0062       30.2139       30.2200      28.349418       0.02490
  22     68.43        1.8695        0.0073       30.1834       30.1907      28.321144       0.02223
  21     81.20        1.8682        0.0087       30.1500       30.1587      28.290416       0.02030
  20     96.49        1.8667        0.0103       30.1126       30.1229      28.256200       0.01888
  19     114.6        1.8649        0.0122       30.0695       30.0817      28.216818       0.01839
  18     136.5        1.8627        0.0145       30.0139       30.0284      28.165668       0.01967
  17     162.9        1.8602        0.0172       29.9225       29.9397      28.079499       0.02754
  16     196.4        1.8569        0.0207       29.7333       29.7540      27.897131       0.04590
  15     218.7        1.8547        0.0229       29.5259       29.5487      27.694022       0.07711
  14     243.0        1.8524        0.0252       29.1375       29.1627      27.310231       0.13311
  13     269.0        1.8501        0.0274       28.3800       28.4074      26.557328       0.24424
  12     297.5        1.8477        0.0294       27.3895       27.4190      25.571295       0.29245
  11     328.5        1.8454        0.0314       26.2257       26.2571      24.411706       0.31529
  10     361.9        1.8432        0.0331       24.8453       24.8785      23.035220       0.34826
   9     398.1        1.8414        0.0346       23.3471       23.3817      21.540275       0.34829
   8     437.6        1.8401        0.0359       21.7966       21.8325      19.992402       0.33094
   7     480.5        1.8397        0.0368       20.1977       20.2345      18.394818       0.31376
   6     533.0        1.8409        0.0377       18.4969       18.5346      16.693745       0.27365
   5     589.8        1.8447        0.0386       16.9754       17.0140      15.169325       0.22627
   4     651.6        1.8524        0.0395       15.6022       15.6416      13.789263       0.18873
   3     718.7        1.8649        0.0405       14.4232       14.4637      12.598742       0.14962
   2     792.3        1.8832        0.0417       13.4386       13.4804      11.597180       0.11487
   1     891.5        1.9181        0.0435       12.3736       12.4171      10.499001       0.09345
   0    1013.0        1.9901        0.0454       11.2911       11.3365       9.346414       0.08003



 Wavenumbers:  7700. -  8050. cm-1, ATM      1
 LEVEL PRESSURE   UPWARD FLUX   DIFDOWN FLUX  DIRDOWN FLUX  DOWNWARD FLUX   NET FLUX    HEATING RATE
          mb          W/m2          W/m2          W/m2        W/m2          W/m2       degree/day
  51    .06700        1.0178        0.0000        7.2006        7.2006       6.182833       0.00000
  50    .07753        1.0178        0.0000        7.2006        7.2006       6.182815       0.01473
  49    .09103        1.0178        0.0000        7.2005        7.2005       6.182792       0.01444
  48    0.1069        1.0178        0.0000        7.2005        7.2005       6.182765       0.01413
  47    0.1255        1.0178        0.0000        7.2005        7.2005       6.182735       0.01383
  46    0.1487        1.0178        0.0000        7.2004        7.2005       6.182696       0.01403
  45    0.1794        1.0178        0.0000        7.2004        7.2004       6.182644       0.01444
  44    0.2165        1.0178        0.0000        7.2003        7.2003       6.182581       0.01416
  43    0.2613        1.0178        0.0000        7.2003        7.2003       6.182508       0.01390
  42    0.3336        1.0178        0.0000        7.2001        7.2001       6.182386       0.01422
  41    0.4307        1.0178        0.0000        7.2000        7.2000       6.182224       0.01406
  40    0.5894        1.0178        0.0000        7.1997        7.1997       6.181960       0.01405
  39     1.339        1.0178        0.0001        7.1984        7.1985       6.180710       0.01407
  38     1.782        1.0178        0.0001        7.1977        7.1978       6.179977       0.01397
  37     2.292        1.0178        0.0001        7.1968        7.1969       6.179128       0.01406
  36     2.964        1.0178        0.0001        7.1957        7.1958       6.178014       0.01399
  35     3.853        1.0178        0.0002        7.1942        7.1944       6.176543       0.01396
  34     5.035        1.0179        0.0002        7.1922        7.1924       6.174591       0.01395
  33     6.613        1.0179        0.0003        7.1896        7.1899       6.171985       0.01393
  32     8.786        1.0179        0.0004        7.1860        7.1864       6.168480       0.01361
  31     11.80        1.0180        0.0005        7.1810        7.1815       6.163477       0.01401
  30     15.07        1.0181        0.0006        7.1755        7.1762       6.158122       0.01383
  29     18.79        1.0182        0.0008        7.1694        7.1702       6.152093       0.01367
  28     23.16        1.0182        0.0010        7.1623        7.1633       6.145079       0.01356
  27     28.12        1.0184        0.0012        7.1542        7.1555       6.137096       0.01357
  26     33.73        1.0185        0.0014        7.1452        7.1467       6.128210       0.01336
  25     40.54        1.0186        0.0017        7.1344        7.1362       6.117543       0.01323
  24     48.69        1.0188        0.0021        7.1215        7.1236       6.104783       0.01321
  23     57.69        1.0190        0.0025        7.1074        7.1099       6.090890       0.01302
  22     68.43        1.0193        0.0029        7.0909        7.0938       6.074514       0.01287
  21     81.20        1.0196        0.0034        7.0713        7.0748       6.055239       0.01274
  20     96.49        1.0199        0.0041        7.0484        7.0525       6.032599       0.01250
  19     114.6        1.0204        0.0048        7.0217        7.0265       6.006165       0.01234
  18     136.5        1.0209        0.0057        6.9906        6.9963       5.975438       0.01182
  17     162.9        1.0215        0.0068        6.9544        6.9612       5.939651       0.01144
  16     196.4        1.0224        0.0082        6.9087        6.9169       5.894481       0.01137
  15     218.7        1.0230        0.0091        6.8794        6.8885       5.865465       0.01102
  14     243.0        1.0237        0.0100        6.8481        6.8581       5.834456       0.01076
  13     269.0        1.0244        0.0111        6.8147        6.8258       5.801348       0.01074
  12     297.5        1.0253        0.0122        6.7791        6.7913       5.765976       0.01049
  11     328.5        1.0263        0.0134        6.7409        6.7544       5.728076       0.01030
  10     361.9        1.0274        0.0147        6.7002        6.7149       5.687447       0.01028
   9     398.1        1.0288        0.0161        6.6563        6.6724       5.643623       0.01021
   8     437.6        1.0303        0.0176        6.6089        6.6265       5.596123       0.01016
   7     480.5        1.0322        0.0192        6.5570        6.5762       5.543953       0.01025
   6     533.0        1.0349        0.0211        6.4915        6.5126       5.477710       0.01066
   5     589.8        1.0382        0.0232        6.4182        6.4414       5.403214       0.01106
   4     651.6        1.0424        0.0254        6.3359        6.3613       5.318876       0.01153
   3     718.7        1.0475        0.0277        6.2441        6.2718       5.224303       0.01189
   2     792.3        1.0537        0.0301        6.1437        6.1739       5.120126       0.01195
   1     891.5        1.0633        0.0333        6.0042        6.0375       4.974207       0.01242
   0    1013.0        1.0774        0.0370        5.8249        5.8619       4.784584       0.01317



 Wavenumbers:  8050. - 12850. cm-1, ATM      1
 LEVEL PRESSURE   UPWARD FLUX   DIFDOWN FLUX  DIRDOWN FLUX  DOWNWARD FLUX   NET FLUX    HEATING RATE
          mb          W/m2          W/m2          W/m2        W/m2          W/m2       degree/day
  51    .06700       21.1451        0.0000      100.8135      100.8135      79.668381       0.00000
  50    .07753       21.1451        0.0000      100.8135      100.8135      79.668381       0.00000
  49    .09103       21.1451        0.0001      100.8134      100.8135      79.668381      -0.00000
  48    0.1069       21.1451        0.0001      100.8134      100.8134      79.668381       0.00000
  47    0.1255       21.1450        0.0001      100.8133      100.8134      79.668381       0.00000
  46    0.1487       21.1450        0.0002      100.8132      100.8134      79.668381      -0.00000
  45    0.1794       21.1449        0.0002      100.8131      100.8133      79.668381       0.00000
  44    0.2165       21.1449        0.0003      100.8129      100.8132      79.668381      -0.00000
  43    0.2613       21.1448        0.0004      100.8127      100.8132      79.668381       0.00000
  42    0.3336       21.1447        0.0006      100.8125      100.8130      79.668381       0.00000
  41    0.4307       21.1445        0.0008      100.8121      100.8129      79.668381      -0.00000
  40    0.5894       21.1442        0.0011      100.8115      100.8126      79.668381      -0.00000
  39     1.339       21.1429        0.0028      100.8085      100.8113      79.668381       0.00000
  38     1.782       21.1421        0.0037      100.8068      100.8105      79.668381      -0.00000
  37     2.292       21.1412        0.0048      100.8047      100.8096      79.668381       0.00000
  36     2.964       21.1400        0.0063      100.8021      100.8084      79.668381      -0.00000
  35     3.853       21.1384        0.0082      100.7986      100.8068      79.668381       0.00000
  34     5.035       21.1363        0.0107      100.7940      100.8047      79.668381      -0.00000
  33     6.613       21.1335        0.0141      100.7878      100.8019      79.668381       0.00000
  32     8.786       21.1298        0.0187      100.7794      100.7982      79.668381       0.00000
  31     11.80       21.1244        0.0253      100.7674      100.7928      79.668381       0.00000
  30     15.07       21.1186        0.0324      100.7546      100.7870      79.668381       0.00000
  29     18.79       21.1120        0.0404      100.7400      100.7804      79.668381       0.00000
  28     23.16       21.1043        0.0498      100.7230      100.7727      79.668381      -0.00000
  27     28.12       21.0956        0.0605      100.7035      100.7639      79.668381       0.00000
  26     33.73       21.0857        0.0725      100.6817      100.7541      79.668381      -0.00000
  25     40.54       21.0738        0.0870      100.6552      100.7422      79.668381       0.00000
  24     48.69       21.0595        0.1045      100.6234      100.7278      79.668381       0.00000
  23     57.69       21.0436        0.1237      100.5883      100.7120      79.668381      -0.00000
  22     68.43       21.0248        0.1467      100.5464      100.6932      79.668381       0.00000
  21     81.20       21.0023        0.1741      100.4965      100.6707      79.668381      -0.00000
  20     96.49       20.9754        0.2068      100.4370      100.6438      79.668381      -0.00000
  19     114.6       20.9435        0.2457      100.3585      100.6042      79.660700       0.00359
  18     136.5       20.9056        0.2919      100.2634      100.5552      79.649645       0.00425
  17     162.9       20.8604        0.3469      100.1407      100.4876      79.627205       0.00717
  16     196.4       20.8017        0.4184       99.9505      100.3689      79.567231       0.01510
  15     218.7       20.7631        0.4654       99.7889      100.2543      79.491233       0.02885
  14     243.0       20.7212        0.5164       99.5472      100.0635      79.342342       0.05164
  13     269.0       20.6762        0.5712       99.1452       99.7165      79.040310       0.09798
  12     297.5       20.6282        0.6301       98.5975       99.2276      78.599357       0.13078
  11     328.5       20.5776        0.6930       97.8659       98.5589      77.981310       0.16805
  10     361.9       20.5251        0.7598       96.8848       97.6446      77.119561       0.21803
   9     398.1       20.4714        0.8302       95.6330       96.4632      75.991817       0.26274
   8     437.6       20.4183        0.9038       94.0655       94.9692      74.550907       0.30808
   7     480.5       20.3693        0.9795       92.0807       93.0602      72.690958       0.36529
   6     533.0       20.3220        1.0686       89.4449       90.5135      70.191500       0.40208
   5     589.8       20.2900        1.1602       86.5544       87.7146      67.424584       0.41070
   4     651.6       20.2837        1.2539       83.4174       84.6713      64.387590       0.41532
   3     718.7       20.3089        1.3503       80.2037       81.5540      61.245042       0.39493
   2     792.3       20.3712        1.4500       77.0811       78.5311      58.159890       0.35383
   1     891.5       20.5296        1.5783       73.2645       74.8428      54.313261       0.32733
   0    1013.0       20.9128        1.7202       68.9425       70.6627      49.749872       0.31686



 Wavenumbers: 12850. - 16000. cm-1, ATM      1
 LEVEL PRESSURE   UPWARD FLUX   DIFDOWN FLUX  DIRDOWN FLUX  DOWNWARD FLUX   NET FLUX    HEATING RATE
          mb          W/m2          W/m2          W/m2        W/m2          W/m2       degree/day
  51    .06700       31.7798        0.0000       63.1686       63.1686      31.388770       0.00000
  50    .07753       31.7798        0.0001       63.1677       63.1678      31.387991       0.62416
  49    .09103       31.7797        0.0001       63.1666       63.1668      31.387021       0.60648
  48    0.1069       31.7797        0.0002       63.1654       63.1656      31.385916       0.58798
  47    0.1255       31.7797        0.0003       63.1640       63.1643      31.384660       0.56939
  46    0.1487       31.7796        0.0004       63.1623       63.1627      31.383094       0.57078
  45    0.1794       31.7796        0.0006       63.1600       63.1605      31.380995       0.57624
  44    0.2165       31.7795        0.0008       63.1573       63.1581      31.378569       0.55194
  43    0.2613       31.7794        0.0010       63.1542       63.1552      31.375772       0.52725
  42    0.3336       31.7793        0.0014       63.1493       63.1507      31.371318       0.51924
  41    0.4307       31.7792        0.0019       63.1431       63.1450      31.365753       0.48385
  40    0.5894       31.7791        0.0027       63.1338       63.1365      31.357335       0.44766
  39     1.339       31.7799        0.0065       63.0956       63.1020      31.322162       0.39598
  38     1.782       31.7811        0.0087       63.0740       63.0827      31.301577       0.39191
  37     2.292       31.7834        0.0113       63.0477       63.0589      31.275540       0.43124
  36     2.964       31.7876        0.0147       63.0095       63.0242      31.236621       0.48856
  35     3.853       31.7948        0.0191       62.9533       62.9724      31.177615       0.55997
  34     5.035       31.8060        0.0251       62.8725       62.8976      31.091549       0.61482
  33     6.613       31.8219        0.0330       62.7621       62.7950      30.973146       0.63298
  32     8.786       31.8424        0.0436       62.6182       62.6619      30.819473       0.59681
  31     11.80       31.8684        0.0588       62.4284       62.4872      30.618751       0.56196
  30     15.07       31.8925        0.0751       62.2426       62.3177      30.425175       0.49978
  29     18.79       31.9163        0.0934       62.0493       62.1427      30.226440       0.45059
  28     23.16       31.9401        0.1148       61.8424       61.9572      30.017189       0.40462
  27     28.12       31.9626        0.1392       61.6278       61.7670      29.804405       0.36172
  26     33.73       31.9811        0.1664       61.4177       61.5841      29.602930       0.30292
  25     40.54       31.9959        0.1992       61.1983       61.3975      29.401675       0.24968
  24     48.69       32.0061        0.2387       60.9680       61.2067      29.200613       0.20807
  23     57.69       32.0101        0.2821       60.7478       61.0299      29.019746       0.16954
  22     68.43       32.0071        0.3336       60.5202       60.8538      28.846748       0.13600
  21     81.20       31.9927        0.3950       60.2938       60.6888      28.696148       0.09951
  20     96.49       31.9656        0.4681       60.0643       60.5324      28.566753       0.07142
  19     114.6       31.9344        0.5554       59.8078       60.3632      28.428770       0.06443
  18     136.5       31.8928        0.6586       59.5157       60.1744      28.281545       0.05661
  17     162.9       31.8391        0.7812       59.1770       59.9583      28.119196       0.05189
  16     196.4       31.7605        0.9398       58.7604       59.7002      27.939718       0.04518
  15     218.7       31.7057        1.0436       58.4948       59.5384      27.832719       0.04062
  14     243.0       31.6447        1.1562       58.2089       59.3651      27.720398       0.03896
  13     269.0       31.5774        1.2779       57.9006       59.1785      27.601115       0.03869
  12     297.5       31.5038        1.4092       57.5668       58.9759      27.472174       0.03824
  11     328.5       31.4245        1.5506       57.2005       58.7510      27.326532       0.03960
  10     361.9       31.3401        1.7023       56.7963       58.4986      27.158508       0.04251
   9     398.1       31.2511        1.8649       56.3475       58.2125      26.961411       0.04592
   8     437.6       31.1588        2.0388       55.8422       57.8810      26.722231       0.05114
   7     480.5       31.0659        2.2238       55.2625       57.4864      26.420448       0.05927
   6     533.0       30.9619        2.4495       54.4972       56.9467      25.984794       0.07008
   5     589.8       30.8626        2.6894       53.6307       56.3201      25.457498       0.07827
   4     651.6       30.7736        2.9427       52.6606       55.6033      24.829733       0.08585
   3     718.7       30.6973        3.2096       51.6100       54.8196      24.122386       0.08889
   2     792.3       30.6373        3.4900       50.5019       53.9918      23.354489       0.08807
   1     891.5       30.6004        3.8590       49.0197       52.8787      22.278355       0.09157
   0    1013.0       30.6450        4.2864       47.2289       51.5152      20.870212       0.09777



 Wavenumbers: 16000. - 22650. cm-1, ATM      1
 LEVEL PRESSURE   UPWARD FLUX   DIFDOWN FLUX  DIRDOWN FLUX  DOWNWARD FLUX   NET FLUX    HEATING RATE
          mb          W/m2          W/m2          W/m2        W/m2          W/m2       degree/day
  51    .06700       75.1583        0.0000      100.7153      100.7153      25.557037       0.00000
  50    .07753       75.1581        0.0003      100.7147      100.7151      25.556920       0.09368
  49    .09103       75.1580        0.0007      100.7140      100.7147      25.556750       0.10625
  48    0.1069       75.1578        0.0012      100.7131      100.7143      25.556522       0.12116
  47    0.1255       75.1576        0.0017      100.7121      100.7139      25.556217       0.13811
  46    0.1487       75.1574        0.0024      100.7108      100.7132      25.555768       0.16366
  45    0.1794       75.1572        0.0034      100.7089      100.7122      25.555067       0.19269
  44    0.2165       75.1569        0.0045      100.7066      100.7110      25.554115       0.21656
  43    0.2613       75.1566        0.0058      100.7037      100.7094      25.552823       0.24346
  42    0.3336       75.1563        0.0079      100.6987      100.7066      25.550367       0.28631
  41    0.4307       75.1559        0.0108      100.6918      100.7026      25.546666       0.32183
  40    0.5894       75.1556        0.0155      100.6797      100.6952      25.539607       0.37538
  39     1.339       75.1597        0.0376      100.6095      100.6472      25.487465       0.58702
  38     1.782       75.1661        0.0507      100.5585      100.6091      25.443061       0.84539
  37     2.292       75.1772        0.0657      100.4903      100.5560      25.378805       1.06424
  36     2.964       75.1975        0.0855      100.3868      100.4722      25.274760       1.30608
  35     3.853       75.2324        0.1115      100.2306      100.3421      25.109786       1.56563
  34     5.035       75.2866        0.1461      100.0045      100.1506      24.863929       1.75630
  33     6.613       75.3633        0.1922       99.6939       99.8860      24.522793       1.82372
  32     8.786       75.4624        0.2541       99.2881       99.5422      24.079822       1.72034
  31     11.80       75.5886        0.3424       98.7496       99.0921      23.503439       1.61369
  30     15.07       75.7061        0.4370       98.2198       98.6568      22.950679       1.42712
  29     18.79       75.8226        0.5433       97.6651       98.2085      22.385901       1.28053
  28     23.16       75.9399        0.6671       97.0671       97.7343      21.794395       1.14378
  27     28.12       76.0521        0.8081       96.4406       97.2487      21.196561       1.01628
  26     33.73       76.1464        0.9654       95.8179       96.7833      20.636940       0.84141
  25     40.54       76.2239        1.1548       95.1548       96.3096      20.085737       0.68383
  24     48.69       76.2821        1.3822       94.4420       95.8241      19.541992       0.56269
  23     57.69       76.3123        1.6309       93.7416       95.3725      19.060273       0.45154
  22     68.43       76.3116        1.9260       92.9954       94.9213      18.609660       0.35424
  21     81.20       76.2610        2.2761       92.2231       94.4992      18.238210       0.24545
  20     96.49       76.1546        2.6913       91.4110       94.1023      17.947723       0.16033
  19     114.6       76.0056        3.1809       90.5070       93.6879      17.682317       0.12393
  18     136.5       75.8144        3.7564       89.4803       93.2366      17.422223       0.10001
  17     162.9       75.5741        4.4347       88.3022       92.7369      17.162791       0.08292
  16     196.4       75.2342        5.3042       86.8606       92.1648      16.930574       0.05845
  15     218.7       75.0015        5.8689       85.9492       91.8181      16.816662       0.04325
  14     243.0       74.7449        6.4772       84.9789       91.4561      16.711210       0.03657
  13     269.0       74.4635        7.1299       83.9493       91.0792      16.615707       0.03098
  12     297.5       74.1565        7.8279       82.8589       90.6868      16.530273       0.02534
  11     328.5       73.8253        8.5735       81.6982       90.2717      16.446411       0.02280
  10     361.9       73.4697        9.3664       80.4669       89.8333      16.363604       0.02095
   9     398.1       73.0891       10.2086       79.1611       89.3697      16.280659       0.01932
   8     437.6       72.6837       11.1003       77.7777       88.8780      16.194302       0.01846
   7     480.5       72.2540       12.0417       76.3136       88.3554      16.101446       0.01824
   6     533.0       71.7325       13.1805       74.5359       87.7164      15.983911       0.01891
   5     589.8       71.1811       14.3835       72.6469       87.0305      15.849399       0.01997
   4     651.6       70.6019       15.6487       70.6456       86.2942      15.692349       0.02148
   3     718.7       69.9955       16.9737       68.5367       85.5104      15.514882       0.02230
   2     792.3       69.3647       18.3532       66.3287       84.6819      15.317167       0.02268
   1     891.5       68.5467       20.1515       63.4246       83.5761      15.029407       0.02449
   0    1013.0       67.6184       22.2147       60.0483       82.2631      14.644637       0.02672



 Wavenumbers: 22650. - 29000. cm-1, ATM      1
 LEVEL PRESSURE   UPWARD FLUX   DIFDOWN FLUX  DIRDOWN FLUX  DOWNWARD FLUX   NET FLUX    HEATING RATE
          mb          W/m2          W/m2          W/m2        W/m2          W/m2       degree/day
  51    .06700       34.3510        0.0000       38.0063       38.0063       3.655250       0.00000
  50    .07753       34.3509        0.0004       38.0057       38.0061       3.655250       0.00000
  49    .09103       34.3507        0.0009       38.0050       38.0059       3.655250       0.00000
  48    0.1069       34.3504        0.0014       38.0042       38.0057       3.655250      -0.00000
  47    0.1255       34.3501        0.0021       38.0033       38.0054       3.655250       0.00000
  46    0.1487       34.3498        0.0029       38.0022       38.0050       3.655250      -0.00000
  45    0.1794       34.3493        0.0040       38.0006       38.0046       3.655250       0.00000
  44    0.2165       34.3488        0.0053       37.9987       38.0040       3.655250      -0.00000
  43    0.2613       34.3481        0.0068       37.9965       38.0033       3.655250      -0.00000
  42    0.3336       34.3470        0.0094       37.9928       38.0022       3.655250       0.00000
  41    0.4307       34.3455        0.0128       37.9880       38.0008       3.655250       0.00000
  40    0.5894       34.3431        0.0183       37.9800       37.9984       3.655250      -0.00000
  39     1.339       34.3318        0.0446       37.9425       37.9870       3.655250      -0.00000
  38     1.782       34.3251        0.0600       37.9204       37.9804       3.655250       0.00000
  37     2.292       34.3174        0.0778       37.8949       37.9727       3.655250       0.00000
  36     2.964       34.3073        0.1012       37.8614       37.9626       3.655250       0.00000
  35     3.853       34.2940        0.1320       37.8172       37.9493       3.655250      -0.00000
  34     5.035       34.2763        0.1730       37.7586       37.9316       3.655250       0.00000
  33     6.613       34.2527        0.2276       37.6803       37.9079       3.655250       0.00000
  32     8.786       34.2209        0.3011       37.5750       37.8762       3.655250       0.00000
  31     11.80       34.1756        0.4060       37.4249       37.8308       3.655250       0.00000
  30     15.07       34.1270        0.5181       37.2642       37.7823       3.655250       0.00000
  29     18.79       34.0724        0.6443       37.0833       37.7276       3.655250       0.00000
  28     23.16       34.0088        0.7911       36.8730       37.6641       3.655250       0.00000
  27     28.12       33.9365        0.9580       36.6338       37.5917       3.655250      -0.00000
  26     33.73       33.8560        1.1435       36.3677       37.5112       3.655250       0.00000
  25     40.54       33.7594        1.3661       36.0486       37.4146       3.655250       0.00000
  24     48.69       33.6438        1.6318       35.6672       37.2991       3.655250       0.00000
  23     57.69       33.5181        1.9207       35.2527       37.1734       3.655250      -0.00000
  22     68.43       33.3700        2.2604       34.7649       37.0253       3.655250       0.00000
  21     81.20       33.1960        2.6590       34.1922       36.8512       3.655250       0.00000
  20     96.49       32.9919        3.1254       33.5217       36.6471       3.655250      -0.00000
  19     114.6       32.7541        3.6670       32.7424       36.4094       3.655250       0.00000
  18     136.5       32.4788        4.2925       31.8416       36.1341       3.655250       0.00000
  17     162.9       32.1598        5.0142       30.8008       35.8150       3.655250       0.00000
  16     196.4       31.7599        5.9144       29.5007       35.4151       3.655250       0.00000
  15     218.7       31.5055        6.4841       28.6767       35.1608       3.655250      -0.00000
  14     243.0       31.2362        7.0847       27.8068       34.8914       3.655250       0.00000
  13     269.0       30.9525        7.7144       26.8933       34.6077       3.655250       0.00000
  12     297.5       30.6550        8.3710       25.9393       34.3103       3.655250      -0.00000
  11     328.5       30.3438        9.0540       24.9451       33.9990       3.655250       0.00000
  10     361.9       30.0201        9.7594       23.9160       33.6754       3.655250      -0.00000
   9     398.1       29.6844       10.4856       22.8541       33.3397       3.655250       0.00000
   8     437.6       29.3379       11.2287       21.7645       32.9932       3.655250       0.00000
   7     480.5       28.9818       11.9849       20.6521       32.6371       3.655250       0.00000
   6     533.0       28.5638       12.8622       19.3569       32.2191       3.655250      -0.00000
   5     589.8       28.1369       13.7454       18.0467       31.7921       3.655250       0.00000
   4     651.6       27.7034       14.6271       16.7316       31.3587       3.655250       0.00000
   3     718.7       27.2659       15.4998       15.4214       30.9212       3.655250      -0.00000
   2     792.3       26.8273       16.3550       14.1276       30.4826       3.655250      -0.00000
   1     891.5       26.2804       17.3897       12.5459       29.9356       3.655250       0.00000
   0    1013.0       25.6848       18.4683       10.8717       29.3400       3.655250       0.00000



 Wavenumbers: 29000. - 38000. cm-1, ATM      1
 LEVEL PRESSURE   UPWARD FLUX   DIFDOWN FLUX  DIRDOWN FLUX  DOWNWARD FLUX   NET FLUX    HEATING RATE
          mb          W/m2          W/m2          W/m2        W/m2          W/m2       degree/day
  51    .06700        4.8873        0.0000       13.4026       13.4026       8.515286       0.00000
  50    .07753        4.8871        0.0003       13.3983       13.3986       8.511487       3.04438
  49    .09103        4.8868        0.0007       13.3921       13.3928       8.505968       3.44966
  48    0.1069        4.8865        0.0011       13.3840       13.3851       8.498591       3.92676
  47    0.1255        4.8862        0.0016       13.3733       13.3749       8.488746       4.46317
  46    0.1487        4.8857        0.0022       13.3579       13.3600       8.474304       5.26437
  45    0.1794        4.8852        0.0030       13.3340       13.3371       8.451904       6.14925
  44    0.2165        4.8845        0.0040       13.3024       13.3064       8.421886       6.82875
  43    0.2613        4.8837        0.0052       13.2604       13.2656       8.381831       7.55009
  42    0.3336        4.8825        0.0070       13.1833       13.1903       8.307825       8.62840
  41    0.4307        4.8810        0.0095       13.0729       13.0824       8.201453       9.24878
  40    0.5894        4.8786        0.0134       12.8796       12.8930       8.014411       9.94668
  39     1.339        4.8701        0.0296       11.9165       11.9462       7.076078      10.56393
  38     1.782        4.8668        0.0379       11.4399       11.4779       6.611101       8.85240
  37     2.292        4.8643        0.0468       10.9796       11.0264       6.162175       7.43539
  36     2.964        4.8628        0.0577       10.4786       10.5364       5.673552       6.13370
  35     3.853        4.8634        0.0712        9.9429       10.0141       5.150703       4.96193
  34     5.035        4.8668        0.0881        9.4007        9.4887       4.621980       3.77698
  33     6.613        4.8730        0.1094        8.8752        8.9846       4.111595       2.72852
  32     8.786        4.8816        0.1369        8.3786        8.5155       3.633866       1.85533
  31     11.80        4.8921        0.1746        7.8897        8.0643       3.172211       1.29249
  30     15.07        4.9011        0.2136        7.5108        7.7244       2.823292       0.90084
  29     18.79        4.9094        0.2560        7.1776        7.4336       2.524205       0.67812
  28     23.16        4.9170        0.3038        6.8664        7.1703       2.253225       0.52399
  27     28.12        4.9231        0.3567        6.5780        6.9347       2.011581       0.41078
  26     33.73        4.9253        0.4142        6.3195        6.7337       1.808457       0.30540
  25     40.54        4.9223        0.4822        6.0663        6.5484       1.626144       0.22618
  24     48.69        4.9136        0.5617        5.8128        6.3746       1.460951       0.17095
  23     57.69        4.8992        0.6466        5.5777        6.2243       1.325099       0.12734
  22     68.43        4.8769        0.7449        5.3379        6.0828       1.205919       0.09369
  21     81.20        4.8423        0.8589        5.0965        5.9554       1.113136       0.06131
  20     96.49        4.7942        0.9906        4.8476        5.8382       1.044032       0.03814
  19     114.6        4.7357        1.1397        4.5799        5.7196       0.983869       0.02809
  18     136.5        4.6680        1.3064        4.2891        5.5955       0.927467       0.02169
  17     162.9        4.5906        1.4911        3.9732        5.4643       0.873686       0.01719
  16     196.4        4.4926        1.7123        3.6080        5.3203       0.827703       0.01157
  15     218.7        4.4309        1.8469        3.3898        5.2367       0.805807       0.00831
  14     243.0        4.3666        1.9840        3.1686        5.1526       0.785941       0.00689
  13     269.0        4.3002        2.1226        2.9461        5.0686       0.768416       0.00569
  12     297.5        4.2320        2.2614        2.7239        4.9853       0.753251       0.00450
  11     328.5        4.1629        2.3990        2.5029        4.9019       0.739003       0.00387
  10     361.9        4.0933        2.5344        2.2846        4.8190       0.725696       0.00337
   9     398.1        4.0235        2.6661        2.0708        4.7368       0.713322       0.00288
   8     437.6        3.9541        2.7931        1.8626        4.6557       0.701617       0.00250
   7     480.5        3.8855        2.9140        1.6621        4.5762       0.690709       0.00214
   6     533.0        3.8083        3.0437        1.4437        4.4873       0.679046       0.00188
   5     589.8        3.7332        3.1622        1.2390        4.4012       0.667980       0.00164
   4     651.6        3.6608        3.2682        1.0500        4.3182       0.657360       0.00145
   3     718.7        3.5913        3.3607        0.8778        4.2385       0.647151       0.00128
   2     792.3        3.5251        3.4387        0.7237        4.1625       0.637332       0.00113
   1     891.5        3.4468        3.5159        0.5563        4.0722       0.625436       0.00101
   0    1013.0        3.3659        3.5746        0.4039        3.9785       0.612572       0.00089



 Wavenumbers: 38000. - 50000. cm-1, ATM      1
 LEVEL PRESSURE   UPWARD FLUX   DIFDOWN FLUX  DIRDOWN FLUX  DOWNWARD FLUX   NET FLUX    HEATING RATE
          mb          W/m2          W/m2          W/m2        W/m2          W/m2       degree/day
  51    .06700        0.0051        0.0000        0.8267        0.8267       0.821528       0.00000
  50    .07753        0.0051        0.0001        0.8242        0.8243       0.819196       1.86936
  49    .09103        0.0050        0.0002        0.8207        0.8209       0.815872       2.07705
  48    0.1069        0.0049        0.0002        0.8162        0.8164       0.811514       2.31984
  47    0.1255        0.0048        0.0004        0.8103        0.8106       0.805801       2.59006
  46    0.1487        0.0047        0.0005        0.8018        0.8023       0.797567       3.00143
  45    0.1794        0.0045        0.0007        0.7889        0.7896       0.785013       3.44648
  44    0.2165        0.0044        0.0009        0.7720        0.7729       0.768507       3.75474
  43    0.2613        0.0042        0.0011        0.7500        0.7511       0.746955       4.06246
  42    0.3336        0.0039        0.0015        0.7106        0.7121       0.708267       4.51071
  41    0.4307        0.0035        0.0019        0.6566        0.6584       0.654972       4.63387
  40    0.5894        0.0029        0.0024        0.5680        0.5704       0.567464       4.65357
  39     1.339        0.0015        0.0030        0.2422        0.2452       0.243720       3.64476
  38     1.782        0.0010        0.0026        0.1493        0.1519       0.150889       1.76735
  37     2.292        0.0007        0.0022        0.0924        0.0946       0.093932       0.94336
  36     2.964        0.0005        0.0018        0.0539        0.0557       0.055224       0.48589
  35     3.853        0.0003        0.0013        0.0295        0.0308       0.030502       0.23462
  34     5.035        0.0002        0.0010        0.0154        0.0164       0.016181       0.10230
  33     6.613        0.0001        0.0007        0.0073        0.0080       0.007912       0.04420
  32     8.786        0.0000        0.0004        0.0030        0.0034       0.003390       0.01756
  31     11.80        0.0000        0.0003        0.0010        0.0012       0.001199       0.00613
  30     15.07        0.0000        0.0001        0.0003        0.0005       0.000463       0.00190
  29     18.79        0.0000        0.0001        0.0001        0.0002       0.000182       0.00064
  28     23.16        0.0000        0.0000        0.0000        0.0001       0.000071       0.00022
  27     28.12        0.0000        0.0000        0.0000        0.0000       0.000028       0.00007
  26     33.73        0.0000        0.0000        0.0000        0.0000       0.000011       0.00002
  25     40.54        0.0000        0.0000        0.0000        0.0000       0.000005       0.00001
  24     48.69        0.0000        0.0000        0.0000        0.0000       0.000002       0.00000
  23     57.69        0.0000        0.0000        0.0000        0.0000       0.000001       0.00000
  22     68.43        0.0000        0.0000        0.0000        0.0000       0.000000       0.00000
  21     81.20        0.0000        0.0000        0.0000        0.0000       0.000000       0.00000
  20     96.49        0.0000        0.0000        0.0000        0.0000       0.000000       0.00000
  19     114.6        0.0000        0.0000        0.0000        0.0000       0.000000       0.00000
  18     136.5        0.0000        0.0000        0.0000        0.0000       0.000000       0.00000
  17     162.9        0.0000        0.0000        0.0000        0.0000       0.000000       0.00000
  16     196.4        0.0000        0.0000        0.0000        0.0000       0.000000       0.00000
  15     218.7        0.0000        0.0000        0.0000        0.0000       0.000000       0.00000
  14     243.0        0.0000        0.0000        0.0000        0.0000       0.000000       0.00000
  13     269.0        0.0000        0.0000        0.0000        0.0000       0.000000       0.00000
  12     297.5        0.0000        0.0000        0.0000        0.0000       0.000000       0.00000
  11     328.5        0.0000        0.0000        0.0000        0.0000       0.000000       0.00000
  10     361.9        0.0000        0.0000        0.0000        0.0000       0.000000       0.00000
   9     398.1        0.0000        0.0000        0.0000        0.0000       0.000000       0.00000
   8     437.6        0.0000        0.0000        0.0000        0.0000       0.000000       0.00000
   7     480.5        0.0000        0.0000        0.0000        0.0000       0.000000       0.00000
   6     533.0        0.0000        0.0000        0.0000        0.0000       0.000000       0.00000
   5     589.8        0.0000        0.0000        0.0000        0.0000       0.000000       0.00000
   4     651.6        0.0000        0.0000        0.0000        0.0000       0.000000       0.00000
   3     718.7        0.0000        0.0000        0.0000        0.0000       0.000000       0.00000
   2     792.3        0.0000        0.0000        0.0000        0.0000       0.000000       0.00000
   1     891.5        0.0000        0.0000        0.0000        0.0000       0.000000       0.00000
   0    1013.0        0.0000        0.0000        0.0000        0.0000       0.000000       0.00000



 Wavenumbers:   820. -  2600. cm-1, ATM      1
 LEVEL PRESSURE   UPWARD FLUX   DIFDOWN FLUX  DIRDOWN FLUX  DOWNWARD FLUX   NET FLUX    HEATING RATE
          mb          W/m2          W/m2          W/m2        W/m2          W/m2       degree/day
  51    .06700        0.1274        0.0000        3.8670        3.8670       3.739592       0.00000
  50    .07753        0.1274        0.0000        3.8643        3.8643       3.736875       2.17769
  49    .09103        0.1274        0.0000        3.8635        3.8635       3.736065       0.50638
  48    0.1069        0.1274        0.0000        3.8626        3.8626       3.735175       0.47415
  47    0.1255        0.1274        0.0000        3.8616        3.8616       3.734214       0.43559
  46    0.1487        0.1274        0.0000        3.8605        3.8605       3.733104       0.40437
  45    0.1794        0.1274        0.0000        3.8592        3.8592       3.731769       0.36647
  44    0.2165        0.1274        0.0000        3.8578        3.8578       3.730391       0.31346
  43    0.2613        0.1274        0.0000        3.8564        3.8564       3.728931       0.27522
  42    0.3336        0.1274        0.0000        3.8541        3.8541       3.726700       0.26012
  41    0.4307        0.1274        0.0000        3.8512        3.8512       3.723818       0.25063
  40    0.5894        0.1274        0.0000        3.8465        3.8465       3.719092       0.25133
  39     1.339        0.1274        0.0000        3.8251        3.8251       3.697717       0.24064
  38     1.782        0.1274        0.0000        3.8133        3.8133       3.685904       0.22489
  37     2.292        0.1274        0.0000        3.8003        3.8003       3.672843       0.21632
  36     2.964        0.1274        0.0000        3.7841        3.7841       3.656714       0.20246
  35     3.853        0.1274        0.0000        3.7642        3.7642       3.636800       0.18899
  34     5.035        0.1274        0.0000        3.7395        3.7395       3.612109       0.17638
  33     6.613        0.1274        0.0000        3.7090        3.7090       3.581574       0.16324
  32     8.786        0.1274        0.0000        3.6726        3.6726       3.545182       0.14133
  31     11.80        0.1274        0.0000        3.6320        3.6320       3.504588       0.11365
  30     15.07        0.1274        0.0000        3.6016        3.6016       3.474205       0.07844
  29     18.79        0.1274        0.0000        3.5777        3.5777       3.450309       0.05418
  28     23.16        0.1274        0.0000        3.5564        3.5564       3.428957       0.04129
  27     28.12        0.1274        0.0000        3.5348        3.5348       3.407412       0.03662
  26     33.73        0.1274        0.0000        3.5118        3.5118       3.384381       0.03463
  25     40.54        0.1274        0.0000        3.4849        3.4849       3.357495       0.03335
  24     48.69        0.1274        0.0000        3.4537        3.4537       3.326245       0.03234
  23     57.69        0.1274        0.0000        3.4210        3.4210       3.293574       0.03062
  22     68.43        0.1274        0.0000        3.3844        3.3844       3.256991       0.02876
  21     81.20        0.1274        0.0000        3.3441        3.3441       3.216696       0.02663
  20     96.49        0.1275        0.0000        3.2998        3.2998       3.172334       0.02448
  19     114.6        0.1275        0.0000        3.2506        3.2506       3.123190       0.02295
  18     136.5        0.1275        0.0000        3.1936        3.1936       3.066144       0.02194
  17     162.9        0.1275        0.0000        3.1181        3.1181       2.990645       0.02413
  16     196.4        0.1275        0.0000        3.0090        3.0090       2.881465       0.02748
  15     218.7        0.1275        0.0000        2.9420        2.9420       2.814465       0.02544
  14     243.0        0.1276        0.0000        2.8605        2.8605       2.732910       0.02829
  13     269.0        0.1276        0.0000        2.7419        2.7420       2.614339       0.03846
  12     297.5        0.1277        0.0000        2.5729        2.5729       2.445148       0.05018
  11     328.5        0.1279        0.0000        2.3602        2.3602       2.232280       0.05788
  10     361.9        0.1282        0.0000        2.1524        2.1524       2.024234       0.05264
   9     398.1        0.1286        0.0000        1.9974        1.9974       1.868821       0.03621
   8     437.6        0.1292        0.0000        1.8835        1.8835       1.754329       0.02448
   7     480.5        0.1300        0.0000        1.7734        1.7734       1.643399       0.02179
   6     533.0        0.1315        0.0000        1.6397        1.6398       1.508287       0.02174
   5     589.8        0.1335        0.0000        1.5068        1.5069       1.373306       0.02004
   4     651.6        0.1366        0.0000        1.3807        1.3807       1.244089       0.01767
   3     718.7        0.1407        0.0000        1.2680        1.2680       1.127304       0.01468
   2     792.3        0.1458        0.0000        1.1659        1.1660       1.020189       0.01228
   1     891.5        0.1543        0.0000        1.0372        1.0373       0.882986       0.01168
   0    1013.0        0.1697        0.0000        0.8716        0.8717       0.701962       0.01257

  Modules and versions used in this calculation:

       rrtmg_sw.1col.f90:  $Revision$                    rrtmg_sw_init.f90:  $Revision$        
     rrtmgsw_cldprop.f90:  $Revision$                  rrtmgsw_cldprmc.f90:  NOT USED          
     rrtmg_sw_reftra.f90:  $Revision$                  rrtmg_sw_spcvrt.f90:  NOT USED          
     rrtmg_sw_spcvmc.f90:  NOT USED                    rrtmgsw_setcoef.f90:  NOT USED          
     rrtmg_sw_taumol.f90:  $Revision$                  rrtmg_sw_vrtqdr.f90:  NOT USED          
                rrtatm.f:  NOT USED                             util_xxx.f:  NOT USED          
                 extra.f:  NOT USED                       rrtmg_sw_k_g.f90:  $Revision$        

