

 Wavenumbers:   820. - 50000. cm-1, ATM      1
 LEVEL PRESSURE   UPWARD FLUX   DIFDOWN FLUX  DIRDOWN FLUX  DOWNWARD FLUX   NET FLUX    HEATING RATE
          mb          W/m2          W/m2          W/m2        W/m2          W/m2       degree/day
  51    .06700      180.0284        0.0000      397.8738      397.8738     217.845360       0.00000
  50    .07753      180.0278        0.0012      397.8577      397.8589     217.831077      11.44791
  49    .09103      180.0270        0.0026      397.8418      397.8444     217.817401       8.54828
  48    0.1069      180.0262        0.0043      397.8230      397.8272     217.801068       8.69383
  47    0.1255      180.0252        0.0062      397.7997      397.8058     217.780646       9.25848
  46    0.1487      180.0240        0.0086      397.7676      397.7762     217.752218      10.36224
  45    0.1794      180.0224        0.0118      397.7205      397.7323     217.709972      11.59755
  44    0.2165      180.0206        0.0157      397.6602      397.6759     217.655386      12.41745
  43    0.2613      180.0185        0.0203      397.5829      397.6032     217.584672      13.32921
  42    0.3336      180.0152        0.0277      397.4449      397.4726     217.457391      14.83973
  41    0.4307      180.0112        0.0376      397.2524      397.2899     217.278759      15.53169
  40    0.5894      180.0052        0.0533      396.9253      396.9787     216.973490      16.23379
  39     1.339      179.9872        0.1239      395.4254      395.5492     215.562025      15.89053
  38     1.782      179.9836        0.1634      394.7288      394.8921     214.908535      12.44140
  37     2.292      179.9855        0.2083      394.0572      394.2655     214.279931      10.41131
  36     2.964      179.9971        0.2666      393.3007      393.5673     213.570235       8.90883
  35     3.853      180.0248        0.3429      392.4318      392.7747     212.749826       7.78583
  34     5.035      180.0741        0.4432      391.4441      391.8872     211.813121       6.69143
  33     6.613      180.1468        0.5760      390.3268      390.9028     210.755944       5.65167
  32     8.786      180.2400        0.7536      389.0624      389.8160     209.576036       4.58234
  31     11.80      180.3526        1.0057      387.5500      388.5557     208.203027       3.84399
  30     15.07      180.4494        1.2740      386.1556      387.4296     206.980280       3.15690
  29     18.79      180.5371        1.5748      384.7502      386.3249     205.787853       2.70360
  28     23.16      180.6147        1.9231      383.2686      385.1917     204.577005       2.34139
  27     28.12      180.6745        2.3182      381.7329      384.0510     203.376554       2.04069
  26     33.73      180.6987        2.7569      380.1982      382.9551     202.256385       1.68420
  25     40.54      180.6786        3.2830      378.5384      381.8214     201.142817       1.38151
  24     48.69      180.6072        3.9116      376.7214      380.6330     200.025830       1.15591
  23     57.69      180.4835        4.5953      374.8959      379.4912     199.007650       0.95439
  22     68.43      180.2879        5.4011      372.8999      378.3010     198.013148       0.78181
  21     81.20      179.9880        6.3506      370.7496      377.1003     197.112288       0.59527
  20     96.49      179.5706        7.4674      368.4056      375.8729     196.302376       0.44701
  19     114.6      179.0565        8.7712      365.7513      374.5224     195.465931       0.39056
  18     136.5      178.4356       10.2846      362.7231      373.0078     194.572160       0.34368
  17     162.9      177.6914       12.0431      359.1748      371.2178     193.526372       0.33428
  16     196.4      176.7051       14.2585      354.5718      368.8303     192.125235       0.35268
  15     218.7      176.0554       15.6746      351.4437      367.1182     191.062814       0.40336
  14     243.0      175.3547       17.1799      347.7111      364.8910     189.536332       0.52943
  13     269.0      174.6030       18.7725      342.9441      361.7167     187.113699       0.78589
  12     297.5      173.8012       20.4501      337.4137      357.8638     184.062591       0.90493
  11     328.5      172.9529       22.2140      331.1302      353.3442     180.391326       0.99821
  10     361.9      172.0616       24.0585      324.1219      348.1804     176.118806       1.08099
   9     398.1      171.1292       25.9828      316.6066      342.5894     171.460120       1.08537
   8     437.6      170.1623       27.9820      308.5895      336.5714     166.409156       1.07993
   7     480.5      169.1712       30.0500      299.9349      329.9849     160.813624       1.09894
   6     533.0      168.0193       32.4960      289.7021      322.1982     154.178843       1.06733
   5     589.8      166.8660       35.0165      279.3388      314.3553     147.489257       0.99295
   4     651.6      165.7402       37.5989      268.7786      306.3775     140.637242       0.93703
   3     718.7      164.6584       40.2336      258.2837      298.5173     133.858863       0.85185
   2     792.3      163.6397       42.9062      248.0774      290.9836     127.343910       0.74719
   1     891.5      162.5286       46.2858      235.5216      281.8074     119.278816       0.68630
   0    1013.0      161.7638       50.0207      221.4731      271.4938     109.729990       0.66302



 Wavenumbers:  2600. -  3250. cm-1, ATM      1
 LEVEL PRESSURE   UPWARD FLUX   DIFDOWN FLUX  DIRDOWN FLUX  DOWNWARD FLUX   NET FLUX    HEATING RATE
          mb          W/m2          W/m2          W/m2        W/m2          W/m2       degree/day
  51    .06700        0.3027        0.0000        3.5066        3.5066       3.203927       0.00000
  50    .07753        0.3027        0.0000        3.5066        3.5066       3.203919       0.00640
  49    .09103        0.3027        0.0000        3.5066        3.5066       3.203909       0.00627
  48    0.1069        0.3027        0.0000        3.5066        3.5066       3.203898       0.00613
  47    0.1255        0.3027        0.0000        3.5066        3.5066       3.203885       0.00599
  46    0.1487        0.3027        0.0000        3.5066        3.5066       3.203868       0.00607
  45    0.1794        0.3027        0.0000        3.5065        3.5065       3.203845       0.00624
  44    0.2165        0.3027        0.0000        3.5065        3.5065       3.203818       0.00611
  43    0.2613        0.3027        0.0000        3.5065        3.5065       3.203787       0.00598
  42    0.3336        0.3027        0.0000        3.5064        3.5064       3.203734       0.00615
  41    0.4307        0.3027        0.0000        3.5064        3.5064       3.203663       0.00618
  40    0.5894        0.3027        0.0000        3.5062        3.5062       3.203544       0.00633
  39     1.339        0.3027        0.0000        3.5055        3.5055       3.202845       0.00787
  38     1.782        0.3027        0.0000        3.5050        3.5050       3.202314       0.01011
  37     2.292        0.3027        0.0000        3.5043        3.5043       3.201622       0.01147
  36     2.964        0.3027        0.0000        3.5033        3.5033       3.200630       0.01245
  35     3.853        0.3027        0.0000        3.5019        3.5019       3.199253       0.01307
  34     5.035        0.3027        0.0000        3.5001        3.5001       3.197392       0.01329
  33     6.613        0.3027        0.0000        3.4977        3.4977       3.194983       0.01288
  32     8.786        0.3027        0.0000        3.4947        3.4947       3.192012       0.01154
  31     11.80        0.3027        0.0000        3.4911        3.4911       3.188376       0.01018
  30     15.07        0.3027        0.0000        3.4878        3.4878       3.185155       0.00832
  29     18.79        0.3027        0.0000        3.4848        3.4848       3.182092       0.00695
  28     23.16        0.3027        0.0000        3.4816        3.4816       3.178872       0.00623
  27     28.12        0.3027        0.0000        3.4779        3.4779       3.175254       0.00615
  26     33.73        0.3027        0.0000        3.4735        3.4735       3.170788       0.00672
  25     40.54        0.3027        0.0000        3.4671        3.4671       3.164462       0.00785
  24     48.69        0.3027        0.0000        3.4582        3.4583       3.155567       0.00920
  23     57.69        0.3027        0.0000        3.4472        3.4472       3.144519       0.01036
  22     68.43        0.3027        0.0000        3.4329        3.4329       3.130258       0.01121
  21     81.20        0.3027        0.0000        3.4152        3.4152       3.112529       0.01172
  20     96.49        0.3027        0.0000        3.3940        3.3941       3.091384       0.01167
  19     114.6        0.3027        0.0000        3.3692        3.3692       3.066493       0.01162
  18     136.5        0.3027        0.0001        3.3419        3.3420       3.039273       0.01047
  17     162.9        0.3027        0.0001        3.3129        3.3129       3.010194       0.00929
  16     196.4        0.3028        0.0001        3.2793        3.2794       2.976611       0.00845
  15     218.7        0.3029        0.0001        3.2578        3.2578       2.954984       0.00821
  14     243.0        0.3030        0.0001        3.2320        3.2320       2.929093       0.00898
  13     269.0        0.3031        0.0001        3.1968        3.1969       2.893815       0.01144
  12     297.5        0.3034        0.0001        3.1489        3.1490       2.845686       0.01427
  11     328.5        0.3037        0.0001        3.0821        3.0822       2.778433       0.01829
  10     361.9        0.3043        0.0001        2.9902        2.9904       2.686068       0.02337
   9     398.1        0.3051        0.0001        2.8715        2.8716       2.566544       0.02785
   8     437.6        0.3062        0.0001        2.7276        2.7278       2.421606       0.03099
   7     480.5        0.3078        0.0001        2.5595        2.5597       2.251852       0.03334
   6     533.0        0.3105        0.0002        2.3617        2.3619       2.051384       0.03225
   5     589.8        0.3144        0.0002        2.1649        2.1651       1.850700       0.02979
   4     651.6        0.3200        0.0002        1.9608        1.9609       1.640963       0.02868
   3     718.7        0.3276        0.0002        1.7593        1.7595       1.431926       0.02627
   2     792.3        0.3375        0.0002        1.5761        1.5762       1.238743       0.02216
   1     891.5        0.3545        0.0002        1.3714        1.3716       1.017068       0.01886
   0    1013.0        0.3853        0.0002        1.1584        1.1586       0.773236       0.01693



 Wavenumbers:  3250. -  4000. cm-1, ATM      1
 LEVEL PRESSURE   UPWARD FLUX   DIFDOWN FLUX  DIRDOWN FLUX  DOWNWARD FLUX   NET FLUX    HEATING RATE
          mb          W/m2          W/m2          W/m2        W/m2          W/m2       degree/day
  51    .06700        0.0004        0.0000        5.9117        5.9117       5.911235       0.00000
  50    .07753        0.0004        0.0000        5.9075        5.9075       5.907046       3.35808
  49    .09103        0.0004        0.0000        5.9050        5.9050       5.904603       1.52677
  48    0.1069        0.0004        0.0000        5.9032        5.9032       5.902737       0.99346
  47    0.1255        0.0004        0.0000        5.9014        5.9014       5.900978       0.79708
  46    0.1487        0.0004        0.0000        5.8995        5.8995       5.899090       0.68848
  45    0.1794        0.0004        0.0000        5.8974        5.8974       5.896941       0.58983
  44    0.2165        0.0004        0.0000        5.8952        5.8952       5.894824       0.48155
  43    0.2613        0.0004        0.0000        5.8931        5.8931       5.892665       0.40696
  42    0.3336        0.0004        0.0000        5.8899        5.8899       5.889507       0.36820
  41    0.4307        0.0004        0.0000        5.8861        5.8861       5.885670       0.33365
  40    0.5894        0.0004        0.0000        5.8803        5.8803       5.879867       0.30857
  39     1.339        0.0004        0.0000        5.8597        5.8597       5.859270       0.23189
  38     1.782        0.0004        0.0000        5.8513        5.8513       5.850845       0.16039
  37     2.292        0.0004        0.0000        5.8431        5.8431       5.842674       0.13533
  36     2.964        0.0004        0.0000        5.8334        5.8334       5.833035       0.12100
  35     3.853        0.0004        0.0000        5.8213        5.8213       5.820859       0.11555
  34     5.035        0.0004        0.0000        5.8052        5.8052       5.804764       0.11498
  33     6.613        0.0004        0.0000        5.7833        5.7834       5.782943       0.11666
  32     8.786        0.0004        0.0000        5.7531        5.7531       5.752741       0.11729
  31     11.80        0.0004        0.0000        5.7090        5.7090       5.708572       0.12366
  30     15.07        0.0004        0.0000        5.6615        5.6615       5.661108       0.12254
  29     18.79        0.0004        0.0000        5.6093        5.6094       5.608972       0.11821
  28     23.16        0.0004        0.0000        5.5524        5.5524       5.552046       0.11008
  27     28.12        0.0004        0.0000        5.4935        5.4935       5.493167       0.10009
  26     33.73        0.0004        0.0000        5.4348        5.4349       5.434478       0.08824
  25     40.54        0.0004        0.0001        5.3707        5.3708       5.370417       0.07948
  24     48.69        0.0004        0.0001        5.2985        5.2985       5.298184       0.07475
  23     57.69        0.0003        0.0001        5.2215        5.2216       5.221245       0.07212
  22     68.43        0.0003        0.0001        5.1318        5.1319       5.131585       0.07048
  21     81.20        0.0003        0.0001        5.0284        5.0285       5.028156       0.06834
  20     96.49        0.0003        0.0001        4.9122        4.9123       4.912021       0.06410
  19     114.6        0.0003        0.0001        4.7780        4.7782       4.777910       0.06262
  18     136.5        0.0003        0.0002        4.6285        4.6287       4.628432       0.05748
  17     162.9        0.0002        0.0002        4.4406        4.4407       4.440520       0.06006
  16     196.4        0.0002        0.0002        4.1548        4.1550       4.154846       0.07191
  15     218.7        0.0002        0.0002        3.9564        3.9566       3.956465       0.07532
  14     243.0        0.0001        0.0002        3.7055        3.7058       3.705631       0.08700
  13     269.0        0.0001        0.0002        3.3399        3.3401       3.339992       0.11861
  12     297.5        0.0001        0.0002        2.8954        2.8956       2.895502       0.13183
  11     328.5        0.0001        0.0002        2.4388        2.4390       2.438961       0.12413
  10     361.9        0.0001        0.0002        2.0269        2.0271       2.027023       0.10422
   9     398.1        0.0001        0.0002        1.6753        1.6755       1.675435       0.08191
   8     437.6        0.0000        0.0002        1.3592        1.3594       1.359317       0.06759
   7     480.5        0.0000        0.0002        1.0616        1.0618       1.061734       0.05844
   6     533.0        0.0000        0.0001        0.7543        0.7544       0.754401       0.04944
   5     589.8        0.0000        0.0001        0.4951        0.4952       0.495209       0.03847
   4     651.6        0.0000        0.0001        0.2943        0.2943       0.294314       0.02747
   3     718.7        0.0000        0.0001        0.1528        0.1529       0.152823       0.01778
   2     792.3        0.0000        0.0000        0.0658        0.0658       0.065797       0.00998
   1     891.5        0.0001        0.0000        0.0157        0.0157       0.015561       0.00427
   0    1013.0        0.0004        0.0000        0.0013        0.0013       0.000897       0.00102



 Wavenumbers:  4000. -  4650. cm-1, ATM      1
 LEVEL PRESSURE   UPWARD FLUX   DIFDOWN FLUX  DIRDOWN FLUX  DOWNWARD FLUX   NET FLUX    HEATING RATE
          mb          W/m2          W/m2          W/m2        W/m2          W/m2       degree/day
  51    .06700        1.2991        0.0000        6.9421        6.9421       5.642985       0.00000
  50    .07753        1.2991        0.0000        6.9421        6.9421       5.642984       0.00079
  49    .09103        1.2991        0.0000        6.9421        6.9421       5.642983       0.00078
  48    0.1069        1.2991        0.0000        6.9421        6.9421       5.642981       0.00076
  47    0.1255        1.2991        0.0000        6.9421        6.9421       5.642980       0.00074
  46    0.1487        1.2991        0.0000        6.9421        6.9421       5.642978       0.00075
  45    0.1794        1.2991        0.0000        6.9421        6.9421       5.642975       0.00077
  44    0.2165        1.2991        0.0000        6.9421        6.9421       5.642972       0.00076
  43    0.2613        1.2991        0.0000        6.9420        6.9420       5.642968       0.00074
  42    0.3336        1.2991        0.0000        6.9420        6.9420       5.642961       0.00076
  41    0.4307        1.2991        0.0000        6.9420        6.9420       5.642952       0.00077
  40    0.5894        1.2991        0.0000        6.9420        6.9420       5.642937       0.00079
  39     1.339        1.2991        0.0000        6.9419        6.9419       5.642849       0.00100
  38     1.782        1.2991        0.0000        6.9418        6.9419       5.642779       0.00132
  37     2.292        1.2991        0.0000        6.9418        6.9418       5.642686       0.00155
  36     2.964        1.2991        0.0000        6.9416        6.9416       5.642546       0.00175
  35     3.853        1.2991        0.0000        6.9414        6.9414       5.642340       0.00196
  34     5.035        1.2991        0.0000        6.9411        6.9411       5.642035       0.00218
  33     6.613        1.2991        0.0000        6.9406        6.9406       5.641587       0.00239
  32     8.786        1.2991        0.0000        6.9399        6.9400       5.640928       0.00256
  31     11.80        1.2990        0.0000        6.9389        6.9389       5.639893       0.00290
  30     15.07        1.2990        0.0001        6.9377        6.9377       5.638684       0.00312
  29     18.79        1.2990        0.0001        6.9362        6.9363       5.637226       0.00331
  28     23.16        1.2990        0.0001        6.9343        6.9344       5.635423       0.00349
  27     28.12        1.2990        0.0001        6.9321        6.9322       5.633250       0.00369
  26     33.73        1.2990        0.0001        6.9294        6.9296       5.630585       0.00401
  25     40.54        1.2990        0.0002        6.9258        6.9260       5.626992       0.00446
  24     48.69        1.2989        0.0002        6.9210        6.9212       5.622236       0.00492
  23     57.69        1.2989        0.0002        6.9154        6.9156       5.616643       0.00524
  22     68.43        1.2989        0.0003        6.9083        6.9086       5.609691       0.00547
  21     81.20        1.2989        0.0003        6.8998        6.9001       5.601192       0.00562
  20     96.49        1.2989        0.0004        6.8894        6.8898       5.590930       0.00566
  19     114.6        1.2989        0.0004        6.8765        6.8770       5.578090       0.00600
  18     136.5        1.2989        0.0005        6.8610        6.8615       5.562606       0.00595
  17     162.9        1.2989        0.0006        6.8417        6.8423       5.543354       0.00615
  16     196.4        1.2990        0.0007        6.8147        6.8154       5.516365       0.00679
  15     218.7        1.2992        0.0008        6.7948        6.7957       5.496497       0.00754
  14     243.0        1.2994        0.0009        6.7698        6.7707       5.471310       0.00874
  13     269.0        1.2998        0.0010        6.7349        6.7359       5.436096       0.01142
  12     297.5        1.3004        0.0011        6.6869        6.6880       5.387595       0.01438
  11     328.5        1.3012        0.0012        6.6194        6.6206       5.319331       0.01856
  10     361.9        1.3024        0.0013        6.5295        6.5308       5.228353       0.02302
   9     398.1        1.3040        0.0014        6.4202        6.4216       5.117663       0.02579
   8     437.6        1.3060        0.0016        6.2962        6.2977       4.991684       0.02694
   7     480.5        1.3088        0.0017        6.1555        6.1572       4.848334       0.02815
   6     533.0        1.3133        0.0018        5.9675        5.9693       4.656038       0.03093
   5     589.8        1.3198        0.0019        5.7368        5.7387       4.418941       0.03519
   4     651.6        1.3291        0.0021        5.4662        5.4683       4.139202       0.03826
   3     718.7        1.3419        0.0022        5.1912        5.1934       3.851528       0.03615
   2     792.3        1.3583        0.0023        4.9395        4.9418       3.583497       0.03074
   1     891.5        1.3865        0.0025        4.6486        4.6511       3.264658       0.02713
   0    1013.0        1.4369        0.0027        4.3179        4.3205       2.883655       0.02646



 Wavenumbers:  4650. -  5150. cm-1, ATM      1
 LEVEL PRESSURE   UPWARD FLUX   DIFDOWN FLUX  DIRDOWN FLUX  DOWNWARD FLUX   NET FLUX    HEATING RATE
          mb          W/m2          W/m2          W/m2        W/m2          W/m2       degree/day
  51    .06700        0.8776        0.0000        6.5710        6.5710       5.693421       0.00000
  50    .07753        0.8776        0.0000        6.5708        6.5708       5.693185       0.18887
  49    .09103        0.8776        0.0000        6.5705        6.5705       5.692892       0.18362
  48    0.1069        0.8776        0.0000        6.5701        6.5701       5.692557       0.17806
  47    0.1255        0.8776        0.0000        6.5697        6.5697       5.692177       0.17238
  46    0.1487        0.8776        0.0000        6.5693        6.5693       5.691703       0.17268
  45    0.1794        0.8776        0.0000        6.5686        6.5686       5.691067       0.17473
  44    0.2165        0.8776        0.0000        6.5679        6.5679       5.690329       0.16788
  43    0.2613        0.8776        0.0000        6.5670        6.5670       5.689476       0.16078
  42    0.3336        0.8776        0.0000        6.5657        6.5657       5.688112       0.15894
  41    0.4307        0.8776        0.0000        6.5640        6.5640       5.686391       0.14971
  40    0.5894        0.8776        0.0000        6.5613        6.5613       5.683774       0.13913
  39     1.339        0.8776        0.0000        6.5516        6.5516       5.673997       0.11008
  38     1.782        0.8776        0.0000        6.5473        6.5473       5.669781       0.08026
  37     2.292        0.8776        0.0000        6.5434        6.5435       5.665894       0.06438
  36     2.964        0.8776        0.0000        6.5395        6.5395       5.661940       0.04964
  35     3.853        0.8776        0.0000        6.5355        6.5356       5.657997       0.03742
  34     5.035        0.8775        0.0000        6.5315        6.5315       5.653995       0.02859
  33     6.613        0.8775        0.0000        6.5271        6.5271       5.649601       0.02349
  32     8.786        0.8775        0.0001        6.5216        6.5216       5.644106       0.02134
  31     11.80        0.8775        0.0001        6.5135        6.5135       5.636028       0.02262
  30     15.07        0.8775        0.0001        6.5041        6.5042       5.626659       0.02419
  29     18.79        0.8775        0.0001        6.4925        6.4926       5.615144       0.02611
  28     23.16        0.8775        0.0001        6.4779        6.4780       5.600553       0.02821
  27     28.12        0.8775        0.0002        6.4599        6.4600       5.582579       0.03055
  26     33.73        0.8774        0.0002        6.4384        6.4386       5.561149       0.03222
  25     40.54        0.8774        0.0002        6.4112        6.4115       5.534027       0.03365
  24     48.69        0.8774        0.0003        6.3775        6.3778       5.500394       0.03480
  23     57.69        0.8774        0.0003        6.3404        6.3407       5.463308       0.03476
  22     68.43        0.8774        0.0004        6.2971        6.2975       5.420126       0.03395
  21     81.20        0.8774        0.0005        6.2483        6.2487       5.371322       0.03225
  20     96.49        0.8774        0.0005        6.1948        6.1954       5.317968       0.02945
  19     114.6        0.8774        0.0006        6.1381        6.1388       5.261356       0.02643
  18     136.5        0.8775        0.0007        6.0790        6.0797       5.202278       0.02272
  17     162.9        0.8776        0.0009        6.0160        6.0169       5.139361       0.02011
  16     196.4        0.8777        0.0010        5.9399        5.9409       5.063181       0.01918
  15     218.7        0.8779        0.0012        5.8896        5.8908       5.012892       0.01909
  14     243.0        0.8781        0.0013        5.8322        5.8335       4.955318       0.01997
  13     269.0        0.8785        0.0014        5.7624        5.7638       4.885271       0.02272
  12     297.5        0.8791        0.0015        5.6767        5.6783       4.799136       0.02555
  11     328.5        0.8800        0.0017        5.5726        5.5743       4.694284       0.02851
  10     361.9        0.8812        0.0018        5.4473        5.4491       4.567973       0.03196
   9     398.1        0.8828        0.0020        5.2995        5.3014       4.418651       0.03479
   8     437.6        0.8850        0.0021        5.1275        5.1296       4.244577       0.03722
   7     480.5        0.8880        0.0022        4.9290        4.9312       4.043207       0.03955
   6     533.0        0.8928        0.0024        4.6794        4.6818       3.788994       0.04089
   5     589.8        0.8994        0.0025        4.4188        4.4213       3.521893       0.03965
   4     651.6        0.9087        0.0026        4.1521        4.1547       3.246012       0.03773
   3     718.7        0.9211        0.0028        3.8929        3.8957       2.974570       0.03411
   2     792.3        0.9372        0.0029        3.6469        3.6498       2.712547       0.03005
   1     891.5        0.9646        0.0030        3.3535        3.3565       2.391921       0.02728
   0    1013.0        1.0115        0.0032        3.0383        3.0415       2.030054       0.02513



 Wavenumbers:  5150. -  6150. cm-1, ATM      1
 LEVEL PRESSURE   UPWARD FLUX   DIFDOWN FLUX  DIRDOWN FLUX  DOWNWARD FLUX   NET FLUX    HEATING RATE
          mb          W/m2          W/m2          W/m2        W/m2          W/m2       degree/day
  51    .06700        2.3712        0.0000       16.4735       16.4735      14.102297       0.00000
  50    .07753        2.3712        0.0000       16.4735       16.4735      14.102262       0.02761
  49    .09103        2.3712        0.0000       16.4734       16.4734      14.102218       0.02811
  48    0.1069        2.3712        0.0000       16.4734       16.4734      14.102164       0.02859
  47    0.1255        2.3712        0.0000       16.4733       16.4733      14.102100       0.02904
  46    0.1487        2.3712        0.0000       16.4732       16.4732      14.102016       0.03060
  45    0.1794        2.3712        0.0000       16.4731       16.4731      14.101897       0.03269
  44    0.2165        2.3712        0.0000       16.4730       16.4730      14.101750       0.03331
  43    0.2613        2.3712        0.0000       16.4728       16.4728      14.101571       0.03376
  42    0.3336        2.3712        0.0000       16.4725       16.4725      14.101265       0.03564
  41    0.4307        2.3712        0.0000       16.4720       16.4720      14.100846       0.03646
  40    0.5894        2.3712        0.0000       16.4713       16.4713      14.100145       0.03729
  39     1.339        2.3712        0.0000       16.4679       16.4679      14.096736       0.03838
  38     1.782        2.3712        0.0000       16.4659       16.4659      14.094736       0.03807
  37     2.292        2.3712        0.0001       16.4635       16.4636      14.092444       0.03796
  36     2.964        2.3711        0.0001       16.4605       16.4606      14.089474       0.03728
  35     3.853        2.3711        0.0001       16.4567       16.4568      14.085620       0.03658
  34     5.035        2.3711        0.0001       16.4516       16.4517      14.080622       0.03570
  33     6.613        2.3711        0.0002       16.4451       16.4452      14.074160       0.03455
  32     8.786        2.3710        0.0002       16.4367       16.4369      14.065845       0.03229
  31     11.80        2.3710        0.0003       16.4254       16.4257      14.054690       0.03123
  30     15.07        2.3709        0.0004       16.4141       16.4145      14.043598       0.02864
  29     18.79        2.3709        0.0005       16.4024       16.4029      14.032071       0.02614
  28     23.16        2.3708        0.0006       16.3900       16.3906      14.019803       0.02372
  27     28.12        2.3707        0.0007       16.3771       16.3778      14.007130       0.02154
  26     33.73        2.3706        0.0009       16.3641       16.3650      13.994392       0.01915
  25     40.54        2.3705        0.0011       16.3502       16.3512      13.980737       0.01694
  24     48.69        2.3704        0.0013       16.3354       16.3366      13.966244       0.01500
  23     57.69        2.3703        0.0015       16.3211       16.3226      13.952321       0.01305
  22     68.43        2.3701        0.0018       16.3062       16.3080      13.937904       0.01133
  21     81.20        2.3700        0.0021       16.2903       16.2924      13.922475       0.01020
  20     96.49        2.3698        0.0025       16.2726       16.2751      13.905357       0.00945
  19     114.6        2.3696        0.0030       16.2521       16.2551      13.885490       0.00928
  18     136.5        2.3693        0.0035       16.2245       16.2281      13.858763       0.01028
  17     162.9        2.3691        0.0042       16.1747       16.1790      13.809897       0.01562
  16     196.4        2.3687        0.0051       16.0518       16.0569      13.688182       0.03064
  15     218.7        2.3685        0.0056       15.8984       15.9040      13.535456       0.05798
  14     243.0        2.3683        0.0061       15.6153       15.6214      13.253062       0.09794
  13     269.0        2.3682        0.0066       15.1390       15.1456      12.777439       0.15429
  12     297.5        2.3681        0.0071       14.5779       14.5850      12.216874       0.16626
  11     328.5        2.3682        0.0076       13.8780       13.8856      11.517365       0.19019
  10     361.9        2.3685        0.0080       13.0814       13.0894      10.720889       0.20152
   9     398.1        2.3691        0.0083       12.2728       12.2812       9.912079       0.18843
   8     437.6        2.3701        0.0087       11.4776       11.4862       9.116154       0.17017
   7     480.5        2.3717        0.0089       10.7300       10.7389       8.367244       0.14708
   6     533.0        2.3746        0.0093       10.0326       10.0419       7.667327       0.11259
   5     589.8        2.3791        0.0097        9.5050        9.5148       7.135611       0.07892
   4     651.6        2.3863        0.0103        9.0814        9.0917       6.705356       0.05884
   3     718.7        2.3966        0.0109        8.7024        8.7134       6.316715       0.04884
   2     792.3        2.4107        0.0116        8.3379        8.3496       5.938843       0.04334
   1     891.5        2.4367        0.0125        7.9064        7.9189       5.482218       0.03886
   0    1013.0        2.4898        0.0135        7.4741        7.4876       4.997842       0.03363



 Wavenumbers:  6150. -  7700. cm-1, ATM      1
 LEVEL PRESSURE   UPWARD FLUX   DIFDOWN FLUX  DIRDOWN FLUX  DOWNWARD FLUX   NET FLUX    HEATING RATE
          mb          W/m2          W/m2          W/m2        W/m2          W/m2       degree/day
  51    .06700        3.4923        0.0000       30.4684       30.4684      26.976037       0.00000
  50    .07753        3.4923        0.0000       30.4683       30.4683      26.975985       0.04144
  49    .09103        3.4923        0.0000       30.4683       30.4683      26.975918       0.04174
  48    0.1069        3.4923        0.0000       30.4682       30.4682      26.975839       0.04202
  47    0.1255        3.4923        0.0000       30.4681       30.4681      26.975746       0.04227
  46    0.1487        3.4923        0.0000       30.4680       30.4680      26.975625       0.04411
  45    0.1794        3.4923        0.0000       30.4678       30.4678      26.975455       0.04669
  44    0.2165        3.4923        0.0000       30.4676       30.4676      26.975248       0.04715
  43    0.2613        3.4923        0.0000       30.4673       30.4673      26.974996       0.04744
  42    0.3336        3.4923        0.0000       30.4669       30.4669      26.974569       0.04974
  41    0.4307        3.4923        0.0000       30.4663       30.4663      26.973988       0.05052
  40    0.5894        3.4923        0.0001       30.4653       30.4653      26.973021       0.05146
  39     1.339        3.4922        0.0001       30.4604       30.4606      26.968337       0.05273
  38     1.782        3.4922        0.0002       30.4576       30.4578      26.965587       0.05235
  37     2.292        3.4921        0.0002       30.4543       30.4546      26.962429       0.05231
  36     2.964        3.4921        0.0003       30.4501       30.4504      26.958322       0.05156
  35     3.853        3.4920        0.0004       30.4445       30.4449      26.952964       0.05084
  34     5.035        3.4919        0.0005       30.4373       30.4378      26.945965       0.05000
  33     6.613        3.4917        0.0007       30.4278       30.4285      26.936817       0.04890
  32     8.786        3.4915        0.0010       30.4154       30.4163      26.924864       0.04642
  31     11.80        3.4912        0.0013       30.3984       30.3997      26.908479       0.04587
  30     15.07        3.4909        0.0017       30.3810       30.3826      26.891766       0.04315
  29     18.79        3.4905        0.0021       30.3623       30.3644      26.873865       0.04059
  28     23.16        3.4901        0.0025       30.3417       30.3442      26.854182       0.03806
  27     28.12        3.4896        0.0031       30.3196       30.3227      26.833082       0.03587
  26     33.73        3.4890        0.0037       30.2965       30.3002      26.811164       0.03296
  25     40.54        3.4884        0.0044       30.2708       30.2752      26.786826       0.03019
  24     48.69        3.4876        0.0053       30.2423       30.2476      26.760050       0.02771
  23     57.69        3.4867        0.0063       30.2139       30.2202      26.733484       0.02490
  22     68.43        3.4856        0.0075       30.1834       30.1908      26.705210       0.02223
  21     81.20        3.4844        0.0089       30.1500       30.1589      26.674481       0.02030
  20     96.49        3.4829        0.0105       30.1126       30.1231      26.640263       0.01889
  19     114.6        3.4811        0.0125       30.0695       30.0820      26.600879       0.01839
  18     136.5        3.4790        0.0148       30.0139       30.0287      26.549725       0.01967
  17     162.9        3.4765        0.0176       29.9225       29.9401      26.463548       0.02755
  16     196.4        3.4733        0.0211       29.7333       29.7545      26.281163       0.04591
  15     218.7        3.4712        0.0234       29.5259       29.5493      26.078035       0.07712
  14     243.0        3.4690        0.0258       29.1375       29.1632      25.694210       0.13312
  13     269.0        3.4668        0.0280       28.3800       28.4080      24.941234       0.24426
  12     297.5        3.4647        0.0302       27.3895       27.4197      23.955054       0.29249
  11     328.5        3.4627        0.0322       26.2257       26.2579      22.795193       0.31536
  10     361.9        3.4611        0.0340       24.8453       24.8793      21.418238       0.34838
   9     398.1        3.4601        0.0356       23.3471       23.3827      19.922529       0.34847
   8     437.6        3.4601        0.0369       21.7966       21.8336      18.373422       0.33121
   7     480.5        3.4619        0.0380       20.1977       20.2357      16.773800       0.31416
   6     533.0        3.4670        0.0390       18.4969       18.5359      15.068950       0.27426
   5     589.8        3.4769        0.0400       16.9754       17.0154      13.538470       0.22717
   4     651.6        3.4944        0.0410       15.6022       15.6432      12.148838       0.19004
   3     718.7        3.5210        0.0422       14.4232       14.4654      10.944375       0.15137
   2     792.3        3.5585        0.0436       13.4386       13.4822       9.923772       0.11705
   1     891.5        3.6283        0.0456       12.3736       12.4192       8.790854       0.09641
   0    1013.0        3.7692        0.0478       11.2911       11.3389       7.569739       0.08479



 Wavenumbers:  7700. -  8050. cm-1, ATM      1
 LEVEL PRESSURE   UPWARD FLUX   DIFDOWN FLUX  DIRDOWN FLUX  DOWNWARD FLUX   NET FLUX    HEATING RATE
          mb          W/m2          W/m2          W/m2        W/m2          W/m2       degree/day
  51    .06700        1.8121        0.0000        7.2006        7.2006       5.388527       0.00000
  50    .07753        1.8121        0.0000        7.2006        7.2006       5.388508       0.01514
  49    .09103        1.8121        0.0000        7.2005        7.2005       5.388484       0.01483
  48    0.1069        1.8121        0.0000        7.2005        7.2005       5.388457       0.01452
  47    0.1255        1.8121        0.0000        7.2005        7.2005       5.388425       0.01421
  46    0.1487        1.8121        0.0000        7.2004        7.2005       5.388386       0.01442
  45    0.1794        1.8121        0.0000        7.2004        7.2004       5.388332       0.01484
  44    0.2165        1.8121        0.0000        7.2003        7.2003       5.388268       0.01455
  43    0.2613        1.8121        0.0000        7.2003        7.2003       5.388192       0.01428
  42    0.3336        1.8121        0.0000        7.2001        7.2001       5.388067       0.01461
  41    0.4307        1.8121        0.0000        7.2000        7.2000       5.387901       0.01445
  40    0.5894        1.8121        0.0000        7.1997        7.1997       5.387629       0.01443
  39     1.339        1.8121        0.0001        7.1984        7.1985       5.386345       0.01445
  38     1.782        1.8122        0.0001        7.1977        7.1978       5.385591       0.01435
  37     2.292        1.8122        0.0001        7.1968        7.1969       5.384719       0.01445
  36     2.964        1.8123        0.0001        7.1957        7.1958       5.383574       0.01437
  35     3.853        1.8123        0.0002        7.1942        7.1944       5.382063       0.01435
  34     5.035        1.8124        0.0002        7.1922        7.1925       5.380056       0.01433
  33     6.613        1.8125        0.0003        7.1896        7.1899       5.377378       0.01432
  32     8.786        1.8127        0.0004        7.1860        7.1864       5.373775       0.01399
  31     11.80        1.8129        0.0005        7.1810        7.1815       5.368632       0.01440
  30     15.07        1.8131        0.0007        7.1755        7.1762       5.363127       0.01422
  29     18.79        1.8134        0.0008        7.1694        7.1703       5.356927       0.01406
  28     23.16        1.8137        0.0010        7.1623        7.1634       5.349713       0.01395
  27     28.12        1.8140        0.0013        7.1542        7.1555       5.341500       0.01396
  26     33.73        1.8144        0.0015        7.1452        7.1468       5.332357       0.01375
  25     40.54        1.8149        0.0018        7.1344        7.1363       5.321377       0.01362
  24     48.69        1.8155        0.0022        7.1215        7.1237       5.308237       0.01360
  23     57.69        1.8161        0.0026        7.1074        7.1100       5.293927       0.01341
  22     68.43        1.8169        0.0030        7.0909        7.0939       5.277049       0.01327
  21     81.20        1.8178        0.0036        7.0713        7.0750       5.257174       0.01313
  20     96.49        1.8189        0.0043        7.0484        7.0527       5.233813       0.01289
  19     114.6        1.8202        0.0051        7.0217        7.0267       5.206515       0.01275
  18     136.5        1.8218        0.0060        6.9906        6.9966       5.174752       0.01221
  17     162.9        1.8238        0.0071        6.9544        6.9615       5.137717       0.01184
  16     196.4        1.8264        0.0085        6.9087        6.9173       5.090903       0.01178
  15     218.7        1.8281        0.0095        6.8794        6.8889       5.060791       0.01143
  14     243.0        1.8300        0.0105        6.8481        6.8586       5.028573       0.01117
  13     269.0        1.8322        0.0116        6.8147        6.8263       4.994133       0.01117
  12     297.5        1.8346        0.0128        6.7791        6.7919       4.957287       0.01093
  11     328.5        1.8373        0.0141        6.7409        6.7550       4.917748       0.01075
  10     361.9        1.8403        0.0154        6.7002        6.7156       4.875288       0.01074
   9     398.1        1.8438        0.0169        6.6563        6.6732       4.829407       0.01069
   8     437.6        1.8477        0.0185        6.6089        6.6273       4.779587       0.01065
   7     480.5        1.8524        0.0201        6.5570        6.5771       4.724756       0.01077
   6     533.0        1.8587        0.0222        6.4915        6.5136       4.654976       0.01123
   5     589.8        1.8663        0.0243        6.4182        6.4426       4.576298       0.01168
   4     651.6        1.8755        0.0266        6.3359        6.3625       4.486978       0.01221
   3     718.7        1.8867        0.0291        6.2441        6.2732       4.386510       0.01263
   2     792.3        1.8999        0.0317        6.1437        6.1754       4.275467       0.01274
   1     891.5        1.9199        0.0351        6.0042        6.0392       4.119305       0.01329
   0    1013.0        1.9486        0.0390        5.8249        5.8639       3.915319       0.01416



 Wavenumbers:  8050. - 12850. cm-1, ATM      1
 LEVEL PRESSURE   UPWARD FLUX   DIFDOWN FLUX  DIRDOWN FLUX  DOWNWARD FLUX   NET FLUX    HEATING RATE
          mb          W/m2          W/m2          W/m2        W/m2          W/m2       degree/day
  51    .06700       23.4818        0.0000      100.8135      100.8135      77.331723       0.00000
  50    .07753       23.4818        0.0000      100.8135      100.8135      77.331723       0.00000
  49    .09103       23.4817        0.0001      100.8134      100.8135      77.331723       0.00000
  48    0.1069       23.4817        0.0001      100.8134      100.8134      77.331723       0.00000
  47    0.1255       23.4817        0.0001      100.8133      100.8134      77.331723      -0.00000
  46    0.1487       23.4816        0.0002      100.8132      100.8134      77.331723       0.00000
  45    0.1794       23.4816        0.0002      100.8131      100.8133      77.331723       0.00000
  44    0.2165       23.4815        0.0003      100.8129      100.8133      77.331723      -0.00000
  43    0.2613       23.4815        0.0004      100.8127      100.8132      77.331723       0.00000
  42    0.3336       23.4813        0.0006      100.8125      100.8130      77.331723       0.00000
  41    0.4307       23.4812        0.0008      100.8121      100.8129      77.331723       0.00000
  40    0.5894       23.4809        0.0011      100.8115      100.8126      77.331723      -0.00000
  39     1.339       23.4796        0.0028      100.8085      100.8113      77.331723      -0.00000
  38     1.782       23.4788        0.0038      100.8068      100.8105      77.331723      -0.00000
  37     2.292       23.4779        0.0049      100.8047      100.8096      77.331723       0.00000
  36     2.964       23.4767        0.0063      100.8021      100.8084      77.331723      -0.00000
  35     3.853       23.4752        0.0083      100.7986      100.8069      77.331723       0.00000
  34     5.035       23.4731        0.0108      100.7940      100.8048      77.331723      -0.00000
  33     6.613       23.4703        0.0143      100.7878      100.8021      77.331723       0.00000
  32     8.786       23.4666        0.0189      100.7794      100.7983      77.331723       0.00000
  31     11.80       23.4613        0.0256      100.7674      100.7930      77.331723       0.00000
  30     15.07       23.4556        0.0327      100.7546      100.7873      77.331723      -0.00000
  29     18.79       23.4491        0.0408      100.7400      100.7808      77.331723      -0.00000
  28     23.16       23.4415        0.0503      100.7230      100.7732      77.331723       0.00000
  27     28.12       23.4328        0.0611      100.7035      100.7646      77.331723       0.00000
  26     33.73       23.4231        0.0732      100.6817      100.7548      77.331723      -0.00000
  25     40.54       23.4114        0.0878      100.6552      100.7431      77.331723       0.00000
  24     48.69       23.3972        0.1055      100.6234      100.7289      77.331723      -0.00000
  23     57.69       23.3815        0.1250      100.5883      100.7133      77.331723       0.00000
  22     68.43       23.3629        0.1482      100.5464      100.6946      77.331723       0.00000
  21     81.20       23.3407        0.1759      100.4965      100.6724      77.331723      -0.00000
  20     96.49       23.3141        0.2089      100.4370      100.6459      77.331723       0.00000
  19     114.6       23.2826        0.2482      100.3585      100.6067      77.324036       0.00359
  18     136.5       23.2452        0.2948      100.2634      100.5582      77.312974       0.00425
  17     162.9       23.2006        0.3504      100.1407      100.4911      77.290522       0.00718
  16     196.4       23.1426        0.4226       99.9505      100.3732      77.230526       0.01510
  15     218.7       23.1045        0.4701       99.7889      100.2590      77.154512       0.02886
  14     243.0       23.0632        0.5216       99.5472      100.0688      77.005594       0.05165
  13     269.0       23.0187        0.5770       99.1452       99.7222      76.703498       0.09800
  12     297.5       22.9715        0.6365       98.5975       99.2339      76.262411       0.13082
  11     328.5       22.9218        0.7001       97.8659       98.5659      75.644102       0.16812
  10     361.9       22.8705        0.7676       96.8848       97.6524      74.781882       0.21815
   9     398.1       22.8184        0.8388       95.6330       96.4718      73.653346       0.26292
   8     437.6       22.7675        0.9132       94.0655       94.9786      72.211126       0.30836
   7     480.5       22.7216        0.9898       92.0807       93.0705      70.348962       0.36572
   6     533.0       22.6794        1.0800       89.4449       90.5248      67.845396       0.40274
   5     589.8       22.6552        1.1728       86.5544       87.7272      65.071973       0.41167
   4     651.6       22.6603        1.2678       83.4174       84.6852      62.024864       0.41670
   3     718.7       22.7014        1.3656       80.2037       81.5693      58.867830       0.39675
   2     792.3       22.7847        1.4668       77.0811       78.5479      55.763132       0.35607
   1     891.5       22.9802        1.5971       73.2645       74.8616      51.881444       0.33031
   0    1013.0       23.4309        1.7414       68.9425       70.6839      47.252947       0.32138



 Wavenumbers: 12850. - 16000. cm-1, ATM      1
 LEVEL PRESSURE   UPWARD FLUX   DIFDOWN FLUX  DIRDOWN FLUX  DOWNWARD FLUX   NET FLUX    HEATING RATE
          mb          W/m2          W/m2          W/m2        W/m2          W/m2       degree/day
  51    .06700       32.6464        0.0000       63.1686       63.1686      30.522170       0.00000
  50    .07753       32.6464        0.0001       63.1677       63.1678      30.521392       0.62432
  49    .09103       32.6463        0.0001       63.1666       63.1668      30.520421       0.60665
  48    0.1069       32.6463        0.0002       63.1654       63.1656      30.519316       0.58818
  47    0.1255       32.6463        0.0003       63.1640       63.1643      30.518060       0.56962
  46    0.1487       32.6462        0.0004       63.1623       63.1627      30.516493       0.57105
  45    0.1794       32.6462        0.0006       63.1600       63.1606      30.514393       0.57656
  44    0.2165       32.6461        0.0008       63.1573       63.1581      30.511965       0.55229
  43    0.2613       32.6460        0.0010       63.1542       63.1552      30.509166       0.52765
  42    0.3336       32.6459        0.0014       63.1493       63.1507      30.504708       0.51971
  41    0.4307       32.6459        0.0019       63.1431       63.1450      30.499137       0.48438
  40    0.5894       32.6458        0.0027       63.1338       63.1365      30.490707       0.44828
  39     1.339       32.6466        0.0065       63.0956       63.1021      30.455449       0.39695
  38     1.782       32.6480        0.0087       63.0740       63.0828      30.434791       0.39330
  37     2.292       32.6503        0.0113       63.0477       63.0590      30.408648       0.43300
  36     2.964       32.6547        0.0147       63.0095       63.0243      30.369556       0.49071
  35     3.853       32.6622        0.0192       62.9533       62.9725      30.310279       0.56256
  34     5.035       32.6739        0.0252       62.8725       62.8977      30.223805       0.61773
  33     6.613       32.6904        0.0331       62.7621       62.7952      30.104835       0.63601
  32     8.786       32.7117        0.0438       62.6182       62.6621      29.950423       0.59968
  31     11.80       32.7387        0.0591       62.4284       62.4875      29.748732       0.56467
  30     15.07       32.7638        0.0755       62.2426       62.3181      29.554221       0.50219
  29     18.79       32.7887        0.0939       62.0493       62.1432      29.354522       0.45278
  28     23.16       32.8135        0.1154       61.8424       61.9578      29.144255       0.40659
  27     28.12       32.8372        0.1398       61.6278       61.7677      28.930434       0.36348
  26     33.73       32.8569        0.1672       61.4177       61.5849      28.727980       0.30440
  25     40.54       32.8727        0.2002       61.1983       61.3985      28.525751       0.25089
  24     48.69       32.8842        0.2399       60.9680       61.2079      28.323719       0.20907
  23     57.69       32.8893        0.2835       60.7478       61.0313      28.141986       0.17035
  22     68.43       32.8873        0.3353       60.5202       60.8555      27.968169       0.13664
  21     81.20       32.8739        0.3970       60.2938       60.6908      27.816891       0.09996
  20     96.49       32.8478        0.4705       60.0643       60.5347      27.686959       0.07171
  19     114.6       32.8177        0.5582       59.8078       60.3660      27.548317       0.06474
  18     136.5       32.7773        0.6620       59.5157       60.1777      27.400441       0.05686
  17     162.9       32.7248        0.7852       59.1770       59.9623      27.237437       0.05210
  16     196.4       32.6477        0.9446       58.7604       59.7050      27.057364       0.04533
  15     218.7       32.5937        1.0490       58.4948       59.5438      26.950066       0.04074
  14     243.0       32.5336        1.1622       58.2089       59.3711      26.837461       0.03906
  13     269.0       32.4673        1.2846       57.9006       59.1852      26.717907       0.03878
  12     297.5       32.3946        1.4165       57.5668       58.9833      26.588702       0.03832
  11     328.5       32.3164        1.5587       57.2005       58.7592      26.442767       0.03968
  10     361.9       32.2332        1.7113       56.7963       58.5076      26.274404       0.04260
   9     398.1       32.1455        1.8749       56.3475       58.2224      26.076894       0.04602
   8     437.6       32.0547        2.0497       55.8422       57.8919      25.837176       0.05125
   7     480.5       31.9637        2.2358       55.2625       57.4984      25.534641       0.05942
   6     533.0       31.8623        2.4629       54.4972       56.9600      25.097763       0.07028
   5     589.8       31.7662        2.7042       53.6307       56.3349      24.568771       0.07852
   4     651.6       31.6810        2.9591       52.6606       55.6197      23.938663       0.08617
   3     718.7       31.6095        3.2277       51.6100       54.8378      23.228227       0.08928
   2     792.3       31.5554        3.5099       50.5019       54.0118      22.456379       0.08852
   1     891.5       31.5276        3.8815       49.0197       52.9012      21.373585       0.09214
   0    1013.0       31.5860        4.3118       47.2289       51.5407      19.954702       0.09852



 Wavenumbers: 16000. - 22650. cm-1, ATM      1
 LEVEL PRESSURE   UPWARD FLUX   DIFDOWN FLUX  DIRDOWN FLUX  DOWNWARD FLUX   NET FLUX    HEATING RATE
          mb          W/m2          W/m2          W/m2        W/m2          W/m2       degree/day
  51    .06700       75.7963        0.0000      100.7153      100.7153      24.918961       0.00000
  50    .07753       75.7962        0.0003      100.7147      100.7151      24.918843       0.09391
  49    .09103       75.7961        0.0007      100.7140      100.7147      24.918673       0.10651
  48    0.1069       75.7959        0.0012      100.7131      100.7143      24.918445       0.12146
  47    0.1255       75.7957        0.0017      100.7121      100.7139      24.918139       0.13844
  46    0.1487       75.7955        0.0024      100.7108      100.7132      24.917689       0.16405
  45    0.1794       75.7953        0.0034      100.7089      100.7122      24.916986       0.19316
  44    0.2165       75.7950        0.0045      100.7066      100.7110      24.916031       0.21709
  43    0.2613       75.7947        0.0058      100.7037      100.7095      24.914737       0.24406
  42    0.3336       75.7944        0.0079      100.6987      100.7066      24.912275       0.28700
  41    0.4307       75.7940        0.0108      100.6918      100.7026      24.908565       0.32261
  40    0.5894       75.7938        0.0155      100.6797      100.6953      24.901489       0.37630
  39     1.339       75.7980        0.0377      100.6095      100.6472      24.849220       0.58845
  38     1.782       75.8045        0.0508      100.5585      100.6092      24.804708       0.84745
  37     2.292       75.8158        0.0659      100.4903      100.5561      24.740295       1.06683
  36     2.964       75.8364        0.0857      100.3868      100.4724      24.635996       1.30927
  35     3.853       75.8718        0.1118      100.2306      100.3424      24.470620       1.56945
  34     5.035       75.9267        0.1464      100.0045      100.1509      24.224161       1.76060
  33     6.613       76.0043        0.1926       99.6939       99.8865      23.882185       1.82820
  32     8.786       76.1046        0.2547       99.2881       99.5427      23.438119       1.72459
  31     11.80       76.2325        0.3432       98.7496       99.0928      22.860301       1.61771
  30     15.07       76.3516        0.4379       98.2198       98.6577      22.306153       1.43070
  29     18.79       76.4697        0.5445       97.6651       98.2096      21.739947       1.28376
  28     23.16       76.5888        0.6686       97.0671       97.7357      21.146933       1.14670
  27     28.12       76.7029        0.8099       96.4406       97.2505      20.547560       1.01889
  26     33.73       76.7989        0.9675       95.8179       96.7854      19.986487       0.84359
  25     40.54       76.8783        1.1573       95.1548       96.3122      19.433841       0.68562
  24     48.69       76.9386        1.3852       94.4420       95.8272      18.888660       0.56418
  23     57.69       76.9705        1.6346       93.7416       95.3762      18.405657       0.45274
  22     68.43       76.9718        1.9303       92.9954       94.9256      17.953832       0.35519
  21     81.20       76.9230        2.2812       92.2231       94.5043      17.581375       0.24611
  20     96.49       76.8183        2.6974       91.4110       94.1084      17.290092       0.16077
  19     114.6       76.6713        3.1882       90.5070       93.6952      17.023950       0.12427
  18     136.5       76.4822        3.7651       89.4803       93.2453      16.763126       0.10029
  17     162.9       76.2443        4.4451       88.3022       92.7473      16.502958       0.08316
  16     196.4       75.9073        5.3167       86.8606       92.1773      16.270075       0.05862
  15     218.7       75.6762        5.8829       85.9492       91.8321      16.155833       0.04337
  14     243.0       75.4216        6.4927       84.9789       91.4716      16.050072       0.03668
  13     269.0       75.1421        7.1471       83.9493       91.0964      15.954287       0.03107
  12     297.5       74.8372        7.8469       82.8589       90.7058      15.868601       0.02541
  11     328.5       74.5082        8.5945       81.6982       90.2927      15.784491       0.02287
  10     361.9       74.1551        9.3896       80.4669       89.8566      15.701440       0.02101
   9     398.1       73.7770       10.2341       79.1611       89.3953      15.618252       0.01938
   8     437.6       73.3745       11.1284       77.7777       88.9061      15.531644       0.01852
   7     480.5       72.9477       12.0726       76.3136       88.3862      15.438522       0.01829
   6     533.0       72.4300       13.2147       74.5359       87.7506      15.320656       0.01896
   5     589.8       71.8826       14.4214       72.6469       87.0684      15.185765       0.02002
   4     651.6       71.3079       15.6905       70.6456       86.3361      15.028267       0.02154
   3     718.7       70.7063       17.0199       68.5367       85.5566      14.850279       0.02237
   2     792.3       70.0808       18.4041       66.3287       84.7328      14.651958       0.02275
   1     891.5       69.2702       20.2088       63.4246       83.6334      14.363262       0.02457
   0    1013.0       68.3510       22.2799       60.0483       82.3282      13.977147       0.02681



 Wavenumbers: 22650. - 29000. cm-1, ATM      1
 LEVEL PRESSURE   UPWARD FLUX   DIFDOWN FLUX  DIRDOWN FLUX  DOWNWARD FLUX   NET FLUX    HEATING RATE
          mb          W/m2          W/m2          W/m2        W/m2          W/m2       degree/day
  51    .06700       32.9214        0.0000       38.0063       38.0063       5.084930       0.00000
  50    .07753       32.9212        0.0004       38.0057       38.0061       5.084930       0.00000
  49    .09103       32.9210        0.0009       38.0050       38.0059       5.084930       0.00000
  48    0.1069       32.9207        0.0014       38.0042       38.0057       5.084930      -0.00000
  47    0.1255       32.9204        0.0020       38.0033       38.0054       5.084930       0.00000
  46    0.1487       32.9201        0.0028       38.0022       38.0050       5.084930      -0.00000
  45    0.1794       32.9196        0.0039       38.0006       38.0045       5.084930       0.00000
  44    0.2165       32.9190        0.0052       37.9987       38.0039       5.084930      -0.00000
  43    0.2613       32.9183        0.0068       37.9965       38.0033       5.084930       0.00000
  42    0.3336       32.9172        0.0093       37.9928       38.0021       5.084930       0.00000
  41    0.4307       32.9157        0.0126       37.9880       38.0006       5.084930       0.00000
  40    0.5894       32.9132        0.0181       37.9800       37.9982       5.084930       0.00000
  39     1.339       32.9016        0.0440       37.9425       37.9865       5.084930       0.00000
  38     1.782       32.8948        0.0593       37.9204       37.9797       5.084930       0.00000
  37     2.292       32.8869        0.0769       37.8949       37.9718       5.084930      -0.00000
  36     2.964       32.8765        0.1000       37.8614       37.9614       5.084930      -0.00000
  35     3.853       32.8628        0.1305       37.8172       37.9477       5.084930      -0.00000
  34     5.035       32.8446        0.1710       37.7586       37.9295       5.084930       0.00000
  33     6.613       32.8204        0.2250       37.6803       37.9053       5.084930       0.00000
  32     8.786       32.7877        0.2976       37.5750       37.8726       5.084930       0.00000
  31     11.80       32.7411        0.4012       37.4249       37.8261       5.084930       0.00000
  30     15.07       32.6913        0.5120       37.2642       37.7762       5.084930       0.00000
  29     18.79       32.6351        0.6367       37.0833       37.7201       5.084930       0.00000
  28     23.16       32.5698        0.7817       36.8730       37.6547       5.084930      -0.00000
  27     28.12       32.4954        0.9466       36.6338       37.5804       5.084930       0.00000
  26     33.73       32.4127        1.1299       36.3677       37.4976       5.084930       0.00000
  25     40.54       32.3133        1.3497       36.0486       37.3983       5.084930      -0.00000
  24     48.69       32.1945        1.6122       35.6672       37.2794       5.084930       0.00000
  23     57.69       32.0652        1.8974       35.2527       37.1501       5.084930      -0.00000
  22     68.43       31.9128        2.2328       34.7649       36.9977       5.084930       0.00000
  21     81.20       31.7335        2.6262       34.1922       36.8185       5.084930       0.00000
  20     96.49       31.5232        3.0864       33.5217       36.6082       5.084930      -0.00000
  19     114.6       31.2782        3.6208       32.7424       36.3631       5.084930       0.00000
  18     136.5       30.9941        4.2375       31.8416       36.0791       5.084930       0.00000
  17     162.9       30.6647        4.9488       30.8008       35.7496       5.084930       0.00000
  16     196.4       30.2512        5.8355       29.5007       35.3361       5.084930      -0.00000
  15     218.7       29.9879        6.3961       28.6767       35.0728       5.084930       0.00000
  14     243.0       29.7088        6.9870       27.8068       34.7938       5.084930       0.00000
  13     269.0       29.4145        7.6061       26.8933       34.4994       5.084930       0.00000
  12     297.5       29.1056        8.2512       25.9393       34.1905       5.084930       0.00000
  11     328.5       28.7819        8.9217       24.9451       33.8668       5.084930       0.00000
  10     361.9       28.4447        9.6136       23.9160       33.5296       5.084930       0.00000
   9     398.1       28.0944       10.3252       22.8541       33.1793       5.084930      -0.00000
   8     437.6       27.7321       11.0526       21.7645       32.8170       5.084930       0.00000
   7     480.5       27.3590       11.7918       20.6521       32.4439       5.084930      -0.00000
   6     533.0       26.9199       12.6479       19.3569       32.0048       5.084930       0.00000
   5     589.8       26.4700       13.5082       18.0467       31.5549       5.084930       0.00000
   4     651.6       26.0116       14.3649       16.7316       31.0965       5.084930       0.00000
   3     718.7       25.5470       15.2105       15.4214       30.6320       5.084930       0.00000
   2     792.3       25.0792       16.0365       14.1276       30.1641       5.084930      -0.00000
   1     891.5       24.4922       17.0313       12.5459       29.5772       5.084930      -0.00000
   0    1013.0       23.8479       18.0611       10.8717       28.9328       5.084930       0.00000



 Wavenumbers: 29000. - 38000. cm-1, ATM      1
 LEVEL PRESSURE   UPWARD FLUX   DIFDOWN FLUX  DIRDOWN FLUX  DOWNWARD FLUX   NET FLUX    HEATING RATE
          mb          W/m2          W/m2          W/m2        W/m2          W/m2       degree/day
  51    .06700        4.8044        0.0000       13.4026       13.4026       8.598240       0.00000
  50    .07753        4.8041        0.0003       13.3983       13.3986       8.594442       3.04431
  49    .09103        4.8039        0.0007       13.3921       13.3928       8.588923       3.44957
  48    0.1069        4.8036        0.0011       13.3840       13.3851       8.581546       3.92666
  47    0.1255        4.8032        0.0016       13.3733       13.3749       8.571702       4.46305
  46    0.1487        4.8028        0.0022       13.3579       13.3600       8.557260       5.26423
  45    0.1794        4.8022        0.0030       13.3340       13.3371       8.534861       6.14908
  44    0.2165        4.8015        0.0040       13.3024       13.3064       8.504843       6.82856
  43    0.2613        4.8008        0.0051       13.2604       13.2656       8.464790       7.54987
  42    0.3336        4.7995        0.0070       13.1833       13.1903       8.390786       8.62814
  41    0.4307        4.7980        0.0095       13.0729       13.0824       8.284417       9.24847
  40    0.5894        4.7956        0.0134       12.8796       12.8930       8.097382       9.94631
  39     1.339        4.7870        0.0296       11.9165       11.9461       7.159101      10.56333
  38     1.782        4.7836        0.0379       11.4399       11.4778       6.694170       8.85155
  37     2.292        4.7810        0.0467       10.9796       11.0263       6.245307       7.43435
  36     2.964        4.7795        0.0576       10.4786       10.5362       5.756784       6.13244
  35     3.853        4.7798        0.0710        9.9429       10.0139       5.234091       4.96045
  34     5.035        4.7829        0.0878        9.4007        9.4885       4.705598       3.77534
  33     6.613        4.7887        0.1090        8.8752        8.9843       4.195531       2.72682
  32     8.786        4.7968        0.1365        8.3786        8.5150       3.718214       1.85373
  31     11.80        4.8066        0.1741        7.8897        8.0637       3.257099       1.29098
  30     15.07        4.8150        0.2129        7.5108        7.7237       2.908704       0.89949
  29     18.79        4.8226        0.2551        7.1776        7.4327       2.610161       0.67689
  28     23.16        4.8294        0.3027        6.8664        7.1691       2.339765       0.52286
  27     28.12        4.8346        0.3553        6.5780        6.9333       2.098725       0.40975
  26     33.73        4.8359        0.4126        6.3195        6.7321       1.896183       0.30453
  25     40.54        4.8320        0.4802        6.0663        6.5465       1.714460       0.22545
  24     48.69        4.8223        0.5593        5.8128        6.3722       1.549866       0.17033
  23     57.69        4.8069        0.6438        5.5777        6.2215       1.414562       0.12683
  22     68.43        4.7835        0.7415        5.3379        6.0794       1.295912       0.09328
  21     81.20        4.7478        0.8549        5.0965        5.9514       1.203581       0.06101
  20     96.49        4.6985        0.9857        4.8476        5.8334       1.134841       0.03794
  19     114.6        4.6388        1.1340        4.5799        5.7138       1.075022       0.02793
  18     136.5        4.5696        1.2995        4.2891        5.5886       1.018970       0.02155
  17     162.9        4.4905        1.4829        3.9732        5.4560       0.965554       0.01707
  16     196.4        4.3904        1.7023        3.6080        5.3103       0.919915       0.01149
  15     218.7        4.3272        1.8357        3.3898        5.2254       0.898197       0.00825
  14     243.0        4.2616        1.9715        3.1686        5.1401       0.878503       0.00683
  13     269.0        4.1936        2.1086        2.9461        5.0547       0.861140       0.00563
  12     297.5        4.1237        2.2459        2.7239        4.9699       0.846125       0.00445
  11     328.5        4.0528        2.3819        2.5029        4.8848       0.832028       0.00383
  10     361.9        3.9812        2.5155        2.2846        4.8001       0.818871       0.00333
   9     398.1        3.9093        2.6452        2.0708        4.7160       0.806647       0.00285
   8     437.6        3.8376        2.7701        1.8626        4.6327       0.795095       0.00247
   7     480.5        3.7666        2.8888        1.6621        4.5509       0.784339       0.00211
   6     533.0        3.6864        3.0156        1.4437        4.4592       0.772852       0.00185
   5     589.8        3.6080        3.1310        1.2390        4.3700       0.761968       0.00162
   4     651.6        3.5321        3.2336        1.0500        4.2836       0.751539       0.00143
   3     718.7        3.4587        3.3224        0.8778        4.2003       0.741528       0.00126
   2     792.3        3.3883        3.3965        0.7237        4.1202       0.731917       0.00110
   1     891.5        3.3042        3.4682        0.5563        4.0245       0.720297       0.00099
   0    1013.0        3.2164        3.5203        0.4039        3.9242       0.707766       0.00087



 Wavenumbers: 38000. - 50000. cm-1, ATM      1
 LEVEL PRESSURE   UPWARD FLUX   DIFDOWN FLUX  DIRDOWN FLUX  DOWNWARD FLUX   NET FLUX    HEATING RATE
          mb          W/m2          W/m2          W/m2        W/m2          W/m2       degree/day
  51    .06700        0.0051        0.0000        0.8267        0.8267       0.821528       0.00000
  50    .07753        0.0051        0.0001        0.8242        0.8243       0.819196       1.86936
  49    .09103        0.0050        0.0002        0.8207        0.8209       0.815872       2.07705
  48    0.1069        0.0049        0.0002        0.8162        0.8164       0.811514       2.31984
  47    0.1255        0.0048        0.0004        0.8103        0.8106       0.805801       2.59006
  46    0.1487        0.0047        0.0005        0.8018        0.8023       0.797567       3.00143
  45    0.1794        0.0045        0.0007        0.7889        0.7896       0.785013       3.44648
  44    0.2165        0.0044        0.0009        0.7720        0.7729       0.768507       3.75474
  43    0.2613        0.0042        0.0011        0.7500        0.7511       0.746955       4.06246
  42    0.3336        0.0039        0.0015        0.7106        0.7121       0.708267       4.51071
  41    0.4307        0.0035        0.0019        0.6566        0.6584       0.654972       4.63387
  40    0.5894        0.0029        0.0024        0.5680        0.5704       0.567464       4.65357
  39     1.339        0.0015        0.0030        0.2422        0.2452       0.243720       3.64476
  38     1.782        0.0010        0.0026        0.1493        0.1519       0.150889       1.76735
  37     2.292        0.0007        0.0022        0.0924        0.0946       0.093932       0.94336
  36     2.964        0.0005        0.0018        0.0539        0.0557       0.055224       0.48589
  35     3.853        0.0003        0.0013        0.0295        0.0308       0.030502       0.23462
  34     5.035        0.0002        0.0010        0.0154        0.0164       0.016181       0.10230
  33     6.613        0.0001        0.0007        0.0073        0.0080       0.007912       0.04420
  32     8.786        0.0000        0.0004        0.0030        0.0034       0.003390       0.01756
  31     11.80        0.0000        0.0003        0.0010        0.0012       0.001199       0.00613
  30     15.07        0.0000        0.0001        0.0003        0.0005       0.000463       0.00190
  29     18.79        0.0000        0.0001        0.0001        0.0002       0.000182       0.00064
  28     23.16        0.0000        0.0000        0.0000        0.0001       0.000071       0.00022
  27     28.12        0.0000        0.0000        0.0000        0.0000       0.000028       0.00007
  26     33.73        0.0000        0.0000        0.0000        0.0000       0.000011       0.00002
  25     40.54        0.0000        0.0000        0.0000        0.0000       0.000005       0.00001
  24     48.69        0.0000        0.0000        0.0000        0.0000       0.000002       0.00000
  23     57.69        0.0000        0.0000        0.0000        0.0000       0.000001       0.00000
  22     68.43        0.0000        0.0000        0.0000        0.0000       0.000000       0.00000
  21     81.20        0.0000        0.0000        0.0000        0.0000       0.000000       0.00000
  20     96.49        0.0000        0.0000        0.0000        0.0000       0.000000       0.00000
  19     114.6        0.0000        0.0000        0.0000        0.0000       0.000000       0.00000
  18     136.5        0.0000        0.0000        0.0000        0.0000       0.000000       0.00000
  17     162.9        0.0000        0.0000        0.0000        0.0000       0.000000       0.00000
  16     196.4        0.0000        0.0000        0.0000        0.0000       0.000000       0.00000
  15     218.7        0.0000        0.0000        0.0000        0.0000       0.000000       0.00000
  14     243.0        0.0000        0.0000        0.0000        0.0000       0.000000       0.00000
  13     269.0        0.0000        0.0000        0.0000        0.0000       0.000000       0.00000
  12     297.5        0.0000        0.0000        0.0000        0.0000       0.000000       0.00000
  11     328.5        0.0000        0.0000        0.0000        0.0000       0.000000       0.00000
  10     361.9        0.0000        0.0000        0.0000        0.0000       0.000000       0.00000
   9     398.1        0.0000        0.0000        0.0000        0.0000       0.000000       0.00000
   8     437.6        0.0000        0.0000        0.0000        0.0000       0.000000       0.00000
   7     480.5        0.0000        0.0000        0.0000        0.0000       0.000000       0.00000
   6     533.0        0.0000        0.0000        0.0000        0.0000       0.000000       0.00000
   5     589.8        0.0000        0.0000        0.0000        0.0000       0.000000       0.00000
   4     651.6        0.0000        0.0000        0.0000        0.0000       0.000000       0.00000
   3     718.7        0.0000        0.0000        0.0000        0.0000       0.000000       0.00000
   2     792.3        0.0000        0.0000        0.0000        0.0000       0.000000       0.00000
   1     891.5        0.0000        0.0000        0.0000        0.0000       0.000000       0.00000
   0    1013.0        0.0000        0.0000        0.0000        0.0000       0.000000       0.00000



 Wavenumbers:   820. -  2600. cm-1, ATM      1
 LEVEL PRESSURE   UPWARD FLUX   DIFDOWN FLUX  DIRDOWN FLUX  DOWNWARD FLUX   NET FLUX    HEATING RATE
          mb          W/m2          W/m2          W/m2        W/m2          W/m2       degree/day
  51    .06700        0.2176        0.0000        3.8670        3.8670       3.649379       0.00000
  50    .07753        0.2176        0.0000        3.8643        3.8643       3.646662       2.17769
  49    .09103        0.2176        0.0000        3.8635        3.8635       3.645852       0.50638
  48    0.1069        0.2176        0.0000        3.8626        3.8626       3.644961       0.47415
  47    0.1255        0.2176        0.0000        3.8616        3.8616       3.644000       0.43559
  46    0.1487        0.2176        0.0000        3.8605        3.8605       3.642891       0.40437
  45    0.1794        0.2176        0.0000        3.8592        3.8592       3.641556       0.36648
  44    0.2165        0.2176        0.0000        3.8578        3.8578       3.640178       0.31346
  43    0.2613        0.2176        0.0000        3.8564        3.8564       3.638718       0.27522
  42    0.3336        0.2176        0.0000        3.8541        3.8541       3.636487       0.26012
  41    0.4307        0.2176        0.0000        3.8512        3.8512       3.633605       0.25063
  40    0.5894        0.2176        0.0000        3.8465        3.8465       3.628878       0.25134
  39     1.339        0.2176        0.0000        3.8251        3.8251       3.607503       0.24065
  38     1.782        0.2176        0.0000        3.8133        3.8133       3.595690       0.22489
  37     2.292        0.2176        0.0000        3.8003        3.8003       3.582629       0.21633
  36     2.964        0.2176        0.0000        3.7841        3.7841       3.566500       0.20247
  35     3.853        0.2176        0.0000        3.7642        3.7642       3.546586       0.18899
  34     5.035        0.2176        0.0000        3.7395        3.7395       3.521895       0.17638
  33     6.613        0.2176        0.0000        3.7090        3.7090       3.491359       0.16324
  32     8.786        0.2176        0.0000        3.6726        3.6726       3.454967       0.14134
  31     11.80        0.2176        0.0000        3.6320        3.6320       3.414372       0.11365
  30     15.07        0.2176        0.0000        3.6016        3.6016       3.383989       0.07844
  29     18.79        0.2176        0.0000        3.5777        3.5777       3.360091       0.05418
  28     23.16        0.2177        0.0000        3.5564        3.5564       3.338737       0.04129
  27     28.12        0.2177        0.0000        3.5348        3.5348       3.317191       0.03663
  26     33.73        0.2177        0.0000        3.5118        3.5118       3.294159       0.03463
  25     40.54        0.2177        0.0000        3.4849        3.4849       3.267271       0.03336
  24     48.69        0.2177        0.0000        3.4537        3.4537       3.236019       0.03234
  23     57.69        0.2177        0.0000        3.4210        3.4210       3.203345       0.03063
  22     68.43        0.2177        0.0000        3.3844        3.3844       3.166759       0.02876
  21     81.20        0.2177        0.0000        3.3441        3.3441       3.126460       0.02663
  20     96.49        0.2177        0.0000        3.2998        3.2998       3.082094       0.02449
  19     114.6        0.2177        0.0000        3.2506        3.2506       3.032944       0.02295
  18     136.5        0.2177        0.0000        3.1936        3.1936       2.975891       0.02194
  17     162.9        0.2177        0.0000        3.1181        3.1181       2.900380       0.02414
  16     196.4        0.2178        0.0000        3.0090        3.0090       2.791175       0.02749
  15     218.7        0.2178        0.0000        2.9420        2.9420       2.724157       0.02544
  14     243.0        0.2179        0.0000        2.8605        2.8605       2.642574       0.02830
  13     269.0        0.2180        0.0000        2.7419        2.7420       2.523956       0.03848
  12     297.5        0.2182        0.0000        2.5729        2.5729       2.354687       0.05020
  11     328.5        0.2185        0.0000        2.3602        2.3602       2.141692       0.05791
  10     361.9        0.2190        0.0000        2.1524        2.1524       1.933446       0.05269
   9     398.1        0.2197        0.0000        1.9974        1.9974       1.777742       0.03628
   8     437.6        0.2207        0.0000        1.8835        1.8835       1.662839       0.02457
   7     480.5        0.2221        0.0000        1.7734        1.7734       1.551302       0.02191
   6     533.0        0.2246        0.0000        1.6397        1.6398       1.415175       0.02190
   5     589.8        0.2281        0.0000        1.5068        1.5069       1.278727       0.02025
   4     651.6        0.2334        0.0000        1.3807        1.3807       1.147316       0.01797
   3     718.7        0.2404        0.0000        1.2680        1.2680       1.027622       0.01504
   2     792.3        0.2491        0.0000        1.1659        1.1660       0.916929       0.01270
   1     891.5        0.2636        0.0000        1.0372        1.0373       0.773710       0.01219
   0    1013.0        0.2899        0.0000        0.8716        0.8717       0.581757       0.01333

  Modules and versions used in this calculation:

       rrtmg_sw.1col.f90:  $Revision$                    rrtmg_sw_init.f90:  $Revision$        
     rrtmgsw_cldprop.f90:  $Revision$                  rrtmgsw_cldprmc.f90:  NOT USED          
     rrtmg_sw_reftra.f90:  $Revision$                  rrtmg_sw_spcvrt.f90:  NOT USED          
     rrtmg_sw_spcvmc.f90:  NOT USED                    rrtmgsw_setcoef.f90:  NOT USED          
     rrtmg_sw_taumol.f90:  $Revision$                  rrtmg_sw_vrtqdr.f90:  NOT USED          
                rrtatm.f:  NOT USED                             util_xxx.f:  NOT USED          
                 extra.f:  NOT USED                       rrtmg_sw_k_g.f90:  $Revision$        

