

 Wavenumbers:   820. - 50000. cm-1, ATM      1
 LEVEL PRESSURE   UPWARD FLUX   DIFDOWN FLUX  DIRDOWN FLUX  DOWNWARD FLUX   NET FLUX    HEATING RATE
          mb          W/m2          W/m2          W/m2        W/m2          W/m2       degree/day
  51    .06700      180.1815        0.0000      397.8738      397.8738     217.692333       0.00000
  50    .07753      180.1808        0.0012      397.8577      397.8589     217.678049      11.44849
  49    .09103      180.1801        0.0026      397.8418      397.8444     217.664371       8.54900
  48    0.1069      180.1792        0.0043      397.8230      397.8273     217.648037       8.69472
  47    0.1255      180.1783        0.0062      397.7997      397.8059     217.627613       9.25955
  46    0.1487      180.1771        0.0086      397.7676      397.7763     217.599181      10.36358
  45    0.1794      180.1755        0.0119      397.7205      397.7324     217.556929      11.59919
  44    0.2165      180.1737        0.0158      397.6602      397.6761     217.502334      12.41936
  43    0.2613      180.1717        0.0204      397.5829      397.6033     217.431609      13.33142
  42    0.3336      180.1686        0.0280      397.4449      397.4729     217.304305      14.84239
  41    0.4307      180.1646        0.0379      397.2524      397.2903     217.125637      15.53475
  40    0.5894      180.1588        0.0538      396.9253      396.9791     216.820300      16.23744
  39     1.339      180.1420        0.1250      395.4254      395.5503     215.408305      15.89650
  38     1.782      180.1393        0.1648      394.7288      394.8936     214.754355      12.45015
  37     2.292      180.1423        0.2102      394.0572      394.2674     214.125083      10.42239
  36     2.964      180.1555        0.2691      393.3007      393.5698     213.414300       8.92248
  35     3.853      180.1858        0.3461      392.4318      392.7779     212.592161       7.80224
  34     5.035      180.2386        0.4474      391.4441      391.8915     211.652872       6.70989
  33     6.613      180.3163        0.5816      390.3268      390.9084     210.592099       5.67090
  32     8.786      180.4159        0.7610      389.0624      389.8234     209.407505       4.60053
  31     11.80      180.5373        1.0157      387.5500      388.5657     208.028373       3.86113
  30     15.07      180.6428        1.2869      386.1556      387.4425     206.799719       3.17215
  29     18.79      180.7397        1.5908      384.7502      386.3410     205.601218       2.71737
  28     23.16      180.8275        1.9428      383.2686      385.2115     204.383963       2.35378
  27     28.12      180.8980        2.3421      381.7329      384.0750     203.176988       2.05178
  26     33.73      180.9332        2.7857      380.1982      382.9839     202.050684       1.69343
  25     40.54      180.9249        3.3176      378.5384      381.8560     200.931061       1.38902
  24     48.69      180.8665        3.9531      376.7214      380.6746     199.808100       1.16209
  23     57.69      180.7558        4.6445      374.8959      379.5404     198.784649       0.95933
  22     68.43      180.5742        5.4596      372.8999      378.3595     197.785278       0.78564
  21     81.20      180.2892        6.4201      370.7496      377.1698     196.880568       0.59782
  20     96.49      179.8877        7.5500      368.4056      375.9556     196.067899       0.44854
  19     114.6      179.3920        8.8696      365.7513      374.6208     195.228861       0.39177
  18     136.5      178.7921       10.4018      362.7231      373.1249     194.332743       0.34458
  17     162.9      178.0724       12.1825      359.1748      371.3573     193.284859       0.33495
  16     196.4      177.1164       14.4271      354.5718      368.9990     191.882513       0.35299
  15     218.7      176.4862       15.8624      351.4437      367.3061     190.819903       0.40343
  14     243.0      175.8063       17.3887      347.7111      365.0999     189.293579       0.52938
  13     269.0      175.0767       19.0042      342.9441      361.9483     186.871622       0.78567
  12     297.5      174.2984       20.7065      337.4137      358.1202     183.821846       0.90453
  11     328.5      173.4749       22.4973      331.1302      353.6275     180.152608       0.99766
  10     361.9      172.6098       24.3709      324.1219      348.4928     175.882998       1.08025
   9     398.1      171.7049       26.3267      316.6066      342.9332     171.228349       1.08443
   8     437.6      170.7664       28.3599      308.5895      336.9493     166.182921       1.07874
   7     480.5      169.8043       30.4646      299.9349      330.3995     160.595184       1.09741
   6     533.0      168.6853       32.9562      289.7021      322.6584     153.973121       1.06528
   5     589.8      167.5631       35.5263      279.3388      314.8651     147.302034       0.99021
   4     651.6      166.4640       38.1626      268.7786      306.9412     140.477156       0.93332
   3     718.7      165.4032       40.8558      258.2837      299.1395     133.736293       0.84714
   2     792.3      164.3985       43.5916      248.0774      291.6691     127.270571       0.74155
   1     891.5      163.2876       47.0576      235.5216      282.5792     119.291623       0.67897
   0    1013.0      162.4666       50.8978      221.4731      272.3709     109.904372       0.65181



 Wavenumbers:  2600. -  3250. cm-1, ATM      1
 LEVEL PRESSURE   UPWARD FLUX   DIFDOWN FLUX  DIRDOWN FLUX  DOWNWARD FLUX   NET FLUX    HEATING RATE
          mb          W/m2          W/m2          W/m2        W/m2          W/m2       degree/day
  51    .06700        0.2237        0.0000        3.5066        3.5066       3.282877       0.00000
  50    .07753        0.2237        0.0000        3.5066        3.5066       3.282869       0.00640
  49    .09103        0.2237        0.0000        3.5066        3.5066       3.282859       0.00627
  48    0.1069        0.2237        0.0000        3.5066        3.5066       3.282847       0.00613
  47    0.1255        0.2237        0.0000        3.5066        3.5066       3.282834       0.00599
  46    0.1487        0.2237        0.0000        3.5066        3.5066       3.282818       0.00607
  45    0.1794        0.2237        0.0000        3.5065        3.5065       3.282795       0.00624
  44    0.2165        0.2237        0.0000        3.5065        3.5065       3.282768       0.00611
  43    0.2613        0.2237        0.0000        3.5065        3.5065       3.282736       0.00598
  42    0.3336        0.2237        0.0000        3.5064        3.5064       3.282683       0.00615
  41    0.4307        0.2237        0.0000        3.5064        3.5064       3.282612       0.00618
  40    0.5894        0.2237        0.0000        3.5062        3.5062       3.282493       0.00633
  39     1.339        0.2237        0.0000        3.5055        3.5055       3.281795       0.00787
  38     1.782        0.2237        0.0000        3.5050        3.5050       3.281264       0.01011
  37     2.292        0.2237        0.0000        3.5043        3.5043       3.280571       0.01147
  36     2.964        0.2237        0.0000        3.5033        3.5033       3.279580       0.01245
  35     3.853        0.2237        0.0000        3.5019        3.5019       3.278203       0.01307
  34     5.035        0.2237        0.0000        3.5001        3.5001       3.276342       0.01329
  33     6.613        0.2237        0.0000        3.4977        3.4977       3.273932       0.01288
  32     8.786        0.2237        0.0000        3.4947        3.4947       3.270961       0.01154
  31     11.80        0.2237        0.0000        3.4911        3.4911       3.267326       0.01018
  30     15.07        0.2237        0.0000        3.4878        3.4878       3.264105       0.00832
  29     18.79        0.2237        0.0000        3.4848        3.4848       3.261042       0.00695
  28     23.16        0.2237        0.0000        3.4816        3.4816       3.257822       0.00623
  27     28.12        0.2237        0.0000        3.4779        3.4779       3.254204       0.00615
  26     33.73        0.2237        0.0000        3.4735        3.4735       3.249738       0.00671
  25     40.54        0.2237        0.0000        3.4671        3.4671       3.243413       0.00785
  24     48.69        0.2237        0.0000        3.4582        3.4583       3.234518       0.00920
  23     57.69        0.2237        0.0000        3.4472        3.4472       3.223471       0.01036
  22     68.43        0.2237        0.0000        3.4329        3.4329       3.209212       0.01121
  21     81.20        0.2237        0.0000        3.4152        3.4152       3.191485       0.01171
  20     96.49        0.2237        0.0000        3.3940        3.3941       3.170343       0.01167
  19     114.6        0.2237        0.0000        3.3692        3.3692       3.145456       0.01162
  18     136.5        0.2238        0.0001        3.3419        3.3420       3.118242       0.01046
  17     162.9        0.2238        0.0001        3.3129        3.3129       3.089171       0.00929
  16     196.4        0.2238        0.0001        3.2793        3.2794       3.055606       0.00845
  15     218.7        0.2238        0.0001        3.2578        3.2578       3.033995       0.00820
  14     243.0        0.2239        0.0001        3.2320        3.2320       3.008132       0.00897
  13     269.0        0.2240        0.0001        3.1968        3.1969       2.972897       0.01143
  12     297.5        0.2242        0.0001        3.1489        3.1490       2.924835       0.01425
  11     328.5        0.2245        0.0001        3.0821        3.0822       2.857683       0.01826
  10     361.9        0.2249        0.0001        2.9902        2.9904       2.765463       0.02333
   9     398.1        0.2255        0.0001        2.8715        2.8716       2.646147       0.02780
   8     437.6        0.2263        0.0001        2.7276        2.7278       2.501501       0.03093
   7     480.5        0.2275        0.0001        2.5595        2.5597       2.332175       0.03326
   6     533.0        0.2295        0.0001        2.3617        2.3619       2.132414       0.03214
   5     589.8        0.2323        0.0002        2.1649        2.1651       1.932744       0.02964
   4     651.6        0.2365        0.0002        1.9608        1.9609       1.724465       0.02848
   3     718.7        0.2421        0.0002        1.7593        1.7595       1.517416       0.02602
   2     792.3        0.2494        0.0002        1.5761        1.5762       1.326822       0.02186
   1     891.5        0.2620        0.0002        1.3714        1.3716       1.109607       0.01848
   0    1013.0        0.2847        0.0002        1.1584        1.1586       0.873817       0.01637



 Wavenumbers:  3250. -  4000. cm-1, ATM      1
 LEVEL PRESSURE   UPWARD FLUX   DIFDOWN FLUX  DIRDOWN FLUX  DOWNWARD FLUX   NET FLUX    HEATING RATE
          mb          W/m2          W/m2          W/m2        W/m2          W/m2       degree/day
  51    .06700        0.0004        0.0000        5.9117        5.9117       5.911216       0.00000
  50    .07753        0.0004        0.0000        5.9075        5.9075       5.907026       3.35808
  49    .09103        0.0004        0.0000        5.9050        5.9050       5.904584       1.52677
  48    0.1069        0.0004        0.0000        5.9032        5.9032       5.902717       0.99346
  47    0.1255        0.0004        0.0000        5.9014        5.9014       5.900959       0.79708
  46    0.1487        0.0004        0.0000        5.8995        5.8995       5.899070       0.68848
  45    0.1794        0.0004        0.0000        5.8974        5.8974       5.896922       0.58983
  44    0.2165        0.0004        0.0000        5.8952        5.8952       5.894805       0.48155
  43    0.2613        0.0004        0.0000        5.8931        5.8931       5.892646       0.40696
  42    0.3336        0.0004        0.0000        5.8899        5.8899       5.889488       0.36820
  41    0.4307        0.0004        0.0000        5.8861        5.8861       5.885651       0.33365
  40    0.5894        0.0004        0.0000        5.8803        5.8803       5.879848       0.30857
  39     1.339        0.0004        0.0000        5.8597        5.8597       5.859251       0.23189
  38     1.782        0.0004        0.0000        5.8513        5.8513       5.850826       0.16039
  37     2.292        0.0004        0.0000        5.8431        5.8431       5.842655       0.13533
  36     2.964        0.0004        0.0000        5.8334        5.8334       5.833015       0.12100
  35     3.853        0.0004        0.0000        5.8213        5.8213       5.820840       0.11555
  34     5.035        0.0004        0.0000        5.8052        5.8052       5.804745       0.11498
  33     6.613        0.0004        0.0000        5.7833        5.7834       5.782923       0.11666
  32     8.786        0.0004        0.0000        5.7531        5.7531       5.752722       0.11729
  31     11.80        0.0004        0.0000        5.7090        5.7090       5.708553       0.12366
  30     15.07        0.0004        0.0000        5.6615        5.6615       5.661088       0.12254
  29     18.79        0.0004        0.0000        5.6093        5.6094       5.608953       0.11821
  28     23.16        0.0004        0.0000        5.5524        5.5524       5.552027       0.11008
  27     28.12        0.0004        0.0000        5.4935        5.4935       5.493148       0.10009
  26     33.73        0.0004        0.0000        5.4348        5.4349       5.434459       0.08824
  25     40.54        0.0004        0.0001        5.3707        5.3708       5.370398       0.07948
  24     48.69        0.0004        0.0001        5.2985        5.2985       5.298165       0.07475
  23     57.69        0.0004        0.0001        5.2215        5.2216       5.221226       0.07212
  22     68.43        0.0003        0.0001        5.1318        5.1319       5.131566       0.07048
  21     81.20        0.0003        0.0001        5.0284        5.0285       5.028136       0.06834
  20     96.49        0.0003        0.0001        4.9122        4.9123       4.912002       0.06410
  19     114.6        0.0003        0.0001        4.7780        4.7782       4.777891       0.06262
  18     136.5        0.0003        0.0002        4.6285        4.6287       4.628413       0.05748
  17     162.9        0.0002        0.0002        4.4406        4.4407       4.440500       0.06006
  16     196.4        0.0002        0.0002        4.1548        4.1550       4.154827       0.07191
  15     218.7        0.0002        0.0002        3.9564        3.9566       3.956446       0.07532
  14     243.0        0.0002        0.0002        3.7055        3.7058       3.705612       0.08700
  13     269.0        0.0001        0.0002        3.3399        3.3401       3.339973       0.11861
  12     297.5        0.0001        0.0002        2.8954        2.8956       2.895483       0.13183
  11     328.5        0.0001        0.0002        2.4388        2.4390       2.438942       0.12413
  10     361.9        0.0001        0.0002        2.0269        2.0271       2.027003       0.10422
   9     398.1        0.0001        0.0002        1.6753        1.6755       1.675415       0.08191
   8     437.6        0.0001        0.0002        1.3592        1.3594       1.359296       0.06759
   7     480.5        0.0001        0.0002        1.0616        1.0618       1.061713       0.05844
   6     533.0        0.0001        0.0001        0.7543        0.7544       0.754377       0.04944
   5     589.8        0.0001        0.0001        0.4951        0.4952       0.495181       0.03847
   4     651.6        0.0001        0.0001        0.2943        0.2943       0.294278       0.02747
   3     718.7        0.0001        0.0001        0.1528        0.1529       0.152770       0.01778
   2     792.3        0.0001        0.0000        0.0658        0.0658       0.065710       0.00998
   1     891.5        0.0003        0.0000        0.0157        0.0157       0.015360       0.00428
   0    1013.0        0.0013        0.0000        0.0013        0.0013       0.000051       0.00106



 Wavenumbers:  4000. -  4650. cm-1, ATM      1
 LEVEL PRESSURE   UPWARD FLUX   DIFDOWN FLUX  DIRDOWN FLUX  DOWNWARD FLUX   NET FLUX    HEATING RATE
          mb          W/m2          W/m2          W/m2        W/m2          W/m2       degree/day
  51    .06700        0.6325        0.0000        6.9421        6.9421       6.309601       0.00000
  50    .07753        0.6325        0.0000        6.9421        6.9421       6.309600       0.00079
  49    .09103        0.6325        0.0000        6.9421        6.9421       6.309599       0.00078
  48    0.1069        0.6325        0.0000        6.9421        6.9421       6.309598       0.00076
  47    0.1255        0.6325        0.0000        6.9421        6.9421       6.309596       0.00074
  46    0.1487        0.6325        0.0000        6.9421        6.9421       6.309594       0.00075
  45    0.1794        0.6325        0.0000        6.9421        6.9421       6.309591       0.00077
  44    0.2165        0.6325        0.0000        6.9421        6.9421       6.309588       0.00076
  43    0.2613        0.6325        0.0000        6.9420        6.9420       6.309584       0.00074
  42    0.3336        0.6325        0.0000        6.9420        6.9420       6.309577       0.00076
  41    0.4307        0.6325        0.0000        6.9420        6.9420       6.309568       0.00077
  40    0.5894        0.6325        0.0000        6.9420        6.9420       6.309554       0.00079
  39     1.339        0.6325        0.0000        6.9419        6.9419       6.309465       0.00100
  38     1.782        0.6325        0.0000        6.9418        6.9419       6.309395       0.00132
  37     2.292        0.6325        0.0000        6.9418        6.9418       6.309302       0.00155
  36     2.964        0.6325        0.0000        6.9416        6.9416       6.309163       0.00175
  35     3.853        0.6325        0.0000        6.9414        6.9414       6.308956       0.00196
  34     5.035        0.6324        0.0000        6.9411        6.9411       6.308652       0.00218
  33     6.613        0.6324        0.0000        6.9406        6.9406       6.308204       0.00239
  32     8.786        0.6324        0.0000        6.9399        6.9400       6.307544       0.00256
  31     11.80        0.6324        0.0000        6.9389        6.9389       6.306510       0.00290
  30     15.07        0.6324        0.0001        6.9377        6.9377       6.305301       0.00312
  29     18.79        0.6324        0.0001        6.9362        6.9362       6.303843       0.00330
  28     23.16        0.6324        0.0001        6.9343        6.9344       6.302041       0.00348
  27     28.12        0.6324        0.0001        6.9321        6.9322       6.299870       0.00369
  26     33.73        0.6324        0.0001        6.9294        6.9296       6.297206       0.00400
  25     40.54        0.6323        0.0001        6.9258        6.9260       6.293615       0.00445
  24     48.69        0.6323        0.0002        6.9210        6.9212       6.288864       0.00492
  23     57.69        0.6323        0.0002        6.9154        6.9156       6.283276       0.00524
  22     68.43        0.6323        0.0002        6.9083        6.9086       6.276332       0.00546
  21     81.20        0.6322        0.0003        6.8998        6.9001       6.267846       0.00561
  20     96.49        0.6322        0.0004        6.8894        6.8898       6.257602       0.00565
  19     114.6        0.6322        0.0004        6.8765        6.8770       6.244788       0.00598
  18     136.5        0.6321        0.0005        6.8610        6.8615       6.229344       0.00594
  17     162.9        0.6321        0.0006        6.8417        6.8423       6.210156       0.00613
  16     196.4        0.6321        0.0007        6.8147        6.8154       6.183279       0.00677
  15     218.7        0.6321        0.0008        6.7948        6.7956       6.163511       0.00751
  14     243.0        0.6322        0.0009        6.7698        6.7707       6.138470       0.00869
  13     269.0        0.6323        0.0010        6.7349        6.7358       6.103492       0.01135
  12     297.5        0.6326        0.0011        6.6869        6.6879       6.055346       0.01428
  11     328.5        0.6329        0.0012        6.6194        6.6205       5.987583       0.01842
  10     361.9        0.6335        0.0013        6.5295        6.5307       5.897262       0.02285
   9     398.1        0.6342        0.0014        6.4202        6.4216       5.787425       0.02559
   8     437.6        0.6351        0.0015        6.2962        6.2977       5.662560       0.02670
   7     480.5        0.6364        0.0016        6.1555        6.1571       5.520705       0.02786
   6     533.0        0.6385        0.0017        5.9675        5.9693       5.330781       0.03055
   5     589.8        0.6415        0.0019        5.7368        5.7386       5.097076       0.03469
   4     651.6        0.6460        0.0020        5.4662        5.4682       4.822219       0.03759
   3     718.7        0.6521        0.0021        5.1912        5.1933       4.541184       0.03532
   2     792.3        0.6600        0.0022        4.9395        4.9417       4.281695       0.02976
   1     891.5        0.6736        0.0024        4.6486        4.6510       3.977440       0.02589
   0    1013.0        0.6979        0.0025        4.3179        4.3204       3.622495       0.02465



 Wavenumbers:  4650. -  5150. cm-1, ATM      1
 LEVEL PRESSURE   UPWARD FLUX   DIFDOWN FLUX  DIRDOWN FLUX  DOWNWARD FLUX   NET FLUX    HEATING RATE
          mb          W/m2          W/m2          W/m2        W/m2          W/m2       degree/day
  51    .06700        0.4417        0.0000        6.5710        6.5710       6.129248       0.00000
  50    .07753        0.4417        0.0000        6.5708        6.5708       6.129012       0.18887
  49    .09103        0.4417        0.0000        6.5705        6.5705       6.128719       0.18362
  48    0.1069        0.4417        0.0000        6.5701        6.5701       6.128384       0.17806
  47    0.1255        0.4417        0.0000        6.5697        6.5697       6.128004       0.17238
  46    0.1487        0.4417        0.0000        6.5693        6.5693       6.127530       0.17268
  45    0.1794        0.4417        0.0000        6.5686        6.5686       6.126894       0.17473
  44    0.2165        0.4417        0.0000        6.5679        6.5679       6.126156       0.16788
  43    0.2613        0.4417        0.0000        6.5670        6.5670       6.125303       0.16078
  42    0.3336        0.4417        0.0000        6.5657        6.5657       6.123939       0.15894
  41    0.4307        0.4417        0.0000        6.5640        6.5640       6.122218       0.14971
  40    0.5894        0.4417        0.0000        6.5613        6.5613       6.119601       0.13913
  39     1.339        0.4417        0.0000        6.5516        6.5516       6.109824       0.11008
  38     1.782        0.4417        0.0000        6.5473        6.5473       6.105608       0.08026
  37     2.292        0.4417        0.0000        6.5434        6.5435       6.101721       0.06438
  36     2.964        0.4417        0.0000        6.5395        6.5395       6.097767       0.04964
  35     3.853        0.4417        0.0000        6.5355        6.5356       6.093824       0.03742
  34     5.035        0.4417        0.0000        6.5315        6.5315       6.089822       0.02859
  33     6.613        0.4417        0.0000        6.5271        6.5271       6.085429       0.02349
  32     8.786        0.4417        0.0000        6.5216        6.5216       6.079934       0.02134
  31     11.80        0.4417        0.0001        6.5135        6.5135       6.071857       0.02261
  30     15.07        0.4417        0.0001        6.5041        6.5042       6.062491       0.02418
  29     18.79        0.4417        0.0001        6.4925        6.4926       6.050978       0.02610
  28     23.16        0.4416        0.0001        6.4779        6.4780       6.036390       0.02821
  27     28.12        0.4416        0.0002        6.4599        6.4600       6.018420       0.03055
  26     33.73        0.4416        0.0002        6.4384        6.4386       5.996996       0.03221
  25     40.54        0.4416        0.0002        6.4112        6.4114       5.969882       0.03364
  24     48.69        0.4415        0.0003        6.3775        6.3778       5.936260       0.03479
  23     57.69        0.4415        0.0003        6.3404        6.3407       5.899189       0.03475
  22     68.43        0.4415        0.0004        6.2971        6.2975       5.856028       0.03393
  21     81.20        0.4414        0.0004        6.2483        6.2487       5.807253       0.03223
  20     96.49        0.4414        0.0005        6.1948        6.1953       5.753938       0.02943
  19     114.6        0.4414        0.0006        6.1381        6.1388       5.697381       0.02641
  18     136.5        0.4413        0.0007        6.0790        6.0797       5.638378       0.02269
  17     162.9        0.4413        0.0009        6.0160        6.0169       5.575566       0.02008
  16     196.4        0.4413        0.0010        5.9399        5.9409       5.499550       0.01913
  15     218.7        0.4414        0.0011        5.8896        5.8908       5.449391       0.01904
  14     243.0        0.4414        0.0012        5.8322        5.8334       5.391989       0.01991
  13     269.0        0.4416        0.0014        5.7624        5.7638       5.322192       0.02264
  12     297.5        0.4418        0.0015        5.6767        5.6782       5.236416       0.02544
  11     328.5        0.4422        0.0016        5.5726        5.5742       5.132051       0.02838
  10     361.9        0.4427        0.0018        5.4473        5.4491       5.006397       0.03179
   9     398.1        0.4434        0.0019        5.2995        5.3014       4.857950       0.03458
   8     437.6        0.4444        0.0020        5.1275        5.1295       4.685042       0.03697
   7     480.5        0.4459        0.0022        4.9290        4.9311       4.485247       0.03924
   6     533.0        0.4482        0.0023        4.6794        4.6817       4.233500       0.04050
   5     589.8        0.4514        0.0024        4.4188        4.4212       3.969800       0.03914
   4     651.6        0.4560        0.0025        4.1521        4.1546       3.698654       0.03708
   3     718.7        0.4621        0.0027        3.8929        3.8956       3.433502       0.03332
   2     792.3        0.4701        0.0028        3.6469        3.6496       3.179594       0.02912
   1     891.5        0.4836        0.0029        3.3535        3.3564       2.872740       0.02611
   0    1013.0        0.5070        0.0030        3.0383        3.0414       2.534400       0.02349



 Wavenumbers:  5150. -  6150. cm-1, ATM      1
 LEVEL PRESSURE   UPWARD FLUX   DIFDOWN FLUX  DIRDOWN FLUX  DOWNWARD FLUX   NET FLUX    HEATING RATE
          mb          W/m2          W/m2          W/m2        W/m2          W/m2       degree/day
  51    .06700        1.2432        0.0000       16.4735       16.4735      15.230351       0.00000
  50    .07753        1.2432        0.0000       16.4735       16.4735      15.230317       0.02761
  49    .09103        1.2432        0.0000       16.4734       16.4734      15.230272       0.02810
  48    0.1069        1.2432        0.0000       16.4734       16.4734      15.230218       0.02859
  47    0.1255        1.2432        0.0000       16.4733       16.4733      15.230154       0.02904
  46    0.1487        1.2432        0.0000       16.4732       16.4732      15.230070       0.03059
  45    0.1794        1.2432        0.0000       16.4731       16.4731      15.229951       0.03269
  44    0.2165        1.2432        0.0000       16.4730       16.4730      15.229805       0.03331
  43    0.2613        1.2432        0.0000       16.4728       16.4728      15.229625       0.03376
  42    0.3336        1.2431        0.0000       16.4725       16.4725      15.229320       0.03564
  41    0.4307        1.2431        0.0000       16.4720       16.4720      15.228901       0.03645
  40    0.5894        1.2431        0.0000       16.4713       16.4713      15.228199       0.03728
  39     1.339        1.2431        0.0000       16.4679       16.4679      15.224791       0.03837
  38     1.782        1.2431        0.0000       16.4659       16.4659      15.222792       0.03806
  37     2.292        1.2431        0.0001       16.4635       16.4636      15.220501       0.03795
  36     2.964        1.2431        0.0001       16.4605       16.4606      15.217532       0.03727
  35     3.853        1.2431        0.0001       16.4567       16.4567      15.213679       0.03656
  34     5.035        1.2430        0.0001       16.4516       16.4517      15.208683       0.03569
  33     6.613        1.2430        0.0002       16.4451       16.4452      15.202223       0.03453
  32     8.786        1.2430        0.0002       16.4367       16.4369      15.193913       0.03227
  31     11.80        1.2429        0.0003       16.4254       16.4257      15.182765       0.03121
  30     15.07        1.2428        0.0004       16.4141       16.4145      15.171681       0.02862
  29     18.79        1.2427        0.0005       16.4024       16.4029      15.160163       0.02611
  28     23.16        1.2427        0.0006       16.3900       16.3906      15.147907       0.02370
  27     28.12        1.2426        0.0007       16.3771       16.3778      15.135249       0.02152
  26     33.73        1.2424        0.0009       16.3641       16.3650      15.122529       0.01912
  25     40.54        1.2423        0.0010       16.3502       16.3512      15.108899       0.01691
  24     48.69        1.2422        0.0012       16.3354       16.3366      15.094439       0.01496
  23     57.69        1.2420        0.0015       16.3211       16.3225      15.080556       0.01301
  22     68.43        1.2418        0.0017       16.3062       16.3080      15.066190       0.01129
  21     81.20        1.2416        0.0021       16.2903       16.2924      15.050826       0.01015
  20     96.49        1.2413        0.0024       16.2726       16.2751      15.033787       0.00940
  19     114.6        1.2410        0.0029       16.2521       16.2550      15.014016       0.00923
  18     136.5        1.2406        0.0034       16.2245       16.2280      14.987408       0.01023
  17     162.9        1.2401        0.0041       16.1747       16.1788      14.938688       0.01557
  16     196.4        1.2396        0.0049       16.0518       16.0568      14.817173       0.03059
  15     218.7        1.2392        0.0054       15.8984       15.9038      14.664585       0.05793
  14     243.0        1.2389        0.0060       15.6153       15.6212      14.382351       0.09789
  13     269.0        1.2385        0.0064       15.1390       15.1454      13.906925       0.15423
  12     297.5        1.2382        0.0069       14.5779       14.5848      13.346608       0.16618
  11     328.5        1.2379        0.0073       13.8780       13.8854      12.647421       0.19011
  10     361.9        1.2378        0.0077       13.0814       13.0892      11.851369       0.20141
   9     398.1        1.2378        0.0080       12.2728       12.2809      11.043113       0.18831
   8     437.6        1.2380        0.0083       11.4776       11.4859      10.247933       0.17001
   7     480.5        1.2385        0.0086       10.7300       10.7385       9.500069       0.14688
   6     533.0        1.2396        0.0089       10.0326       10.0415       8.801872       0.11232
   5     589.8        1.2416        0.0093        9.5050        9.5143       8.272689       0.07855
   4     651.6        1.2450        0.0098        9.0814        9.0912       7.846208       0.05832
   3     718.7        1.2499        0.0104        8.7024        8.7128       7.462882       0.04817
   2     792.3        1.2569        0.0110        8.3379        8.3490       7.092138       0.04252
   1     891.5        1.2698        0.0119        7.9064        7.9182       6.648436       0.03776
   0    1013.0        1.2968        0.0128        7.4741        7.4869       6.190092       0.03183



 Wavenumbers:  6150. -  7700. cm-1, ATM      1
 LEVEL PRESSURE   UPWARD FLUX   DIFDOWN FLUX  DIRDOWN FLUX  DOWNWARD FLUX   NET FLUX    HEATING RATE
          mb          W/m2          W/m2          W/m2        W/m2          W/m2       degree/day
  51    .06700        1.8867        0.0000       30.4684       30.4684      28.581641       0.00000
  50    .07753        1.8867        0.0000       30.4683       30.4683      28.581590       0.04144
  49    .09103        1.8867        0.0000       30.4683       30.4683      28.581523       0.04174
  48    0.1069        1.8867        0.0000       30.4682       30.4682      28.581444       0.04202
  47    0.1255        1.8867        0.0000       30.4681       30.4681      28.581351       0.04227
  46    0.1487        1.8867        0.0000       30.4680       30.4680      28.581230       0.04411
  45    0.1794        1.8867        0.0000       30.4678       30.4678      28.581060       0.04669
  44    0.2165        1.8867        0.0000       30.4676       30.4676      28.580852       0.04715
  43    0.2613        1.8867        0.0000       30.4673       30.4673      28.580601       0.04744
  42    0.3336        1.8867        0.0000       30.4669       30.4669      28.580174       0.04974
  41    0.4307        1.8867        0.0000       30.4663       30.4663      28.579593       0.05052
  40    0.5894        1.8867        0.0001       30.4653       30.4653      28.578625       0.05146
  39     1.339        1.8866        0.0001       30.4604       30.4606      28.573942       0.05273
  38     1.782        1.8866        0.0002       30.4576       30.4578      28.571192       0.05235
  37     2.292        1.8865        0.0002       30.4543       30.4545      28.568034       0.05231
  36     2.964        1.8864        0.0003       30.4501       30.4504      28.563926       0.05156
  35     3.853        1.8864        0.0004       30.4445       30.4449      28.558569       0.05084
  34     5.035        1.8862        0.0005       30.4373       30.4378      28.551569       0.05000
  33     6.613        1.8861        0.0007       30.4278       30.4285      28.542422       0.04890
  32     8.786        1.8859        0.0009       30.4154       30.4163      28.530469       0.04642
  31     11.80        1.8855        0.0013       30.3984       30.3996      28.514084       0.04587
  30     15.07        1.8852        0.0016       30.3810       30.3826      28.497370       0.04315
  29     18.79        1.8848        0.0020       30.3623       30.3643      28.479470       0.04059
  28     23.16        1.8844        0.0025       30.3417       30.3442      28.459787       0.03806
  27     28.12        1.8839        0.0030       30.3196       30.3226      28.438687       0.03587
  26     33.73        1.8833        0.0036       30.2965       30.3001      28.416769       0.03295
  25     40.54        1.8827        0.0043       30.2708       30.2751      28.392432       0.03019
  24     48.69        1.8818        0.0052       30.2423       30.2475      28.365657       0.02771
  23     57.69        1.8809        0.0062       30.2139       30.2200      28.339091       0.02490
  22     68.43        1.8799        0.0073       30.1834       30.1907      28.310818       0.02223
  21     81.20        1.8786        0.0087       30.1500       30.1587      28.280090       0.02030
  20     96.49        1.8770        0.0103       30.1126       30.1229      28.245874       0.01888
  19     114.6        1.8752        0.0122       30.0695       30.0817      28.206492       0.01839
  18     136.5        1.8731        0.0145       30.0139       30.0284      28.155342       0.01967
  17     162.9        1.8705        0.0172       29.9225       29.9397      28.069173       0.02754
  16     196.4        1.8672        0.0207       29.7333       29.7540      27.886804       0.04590
  15     218.7        1.8650        0.0229       29.5259       29.5487      27.683695       0.07711
  14     243.0        1.8628        0.0252       29.1375       29.1627      27.299904       0.13311
  13     269.0        1.8604        0.0274       28.3800       28.4074      26.547001       0.24424
  12     297.5        1.8580        0.0294       27.3895       27.4190      25.560967       0.29245
  11     328.5        1.8557        0.0314       26.2257       26.2571      24.401375       0.31529
  10     361.9        1.8536        0.0331       24.8453       24.8785      23.024887       0.34827
   9     398.1        1.8518        0.0346       23.3471       23.3817      21.529937       0.34829
   8     437.6        1.8504        0.0359       21.7966       21.8325      19.982056       0.33095
   7     480.5        1.8501        0.0368       20.1977       20.2345      18.384459       0.31376
   6     533.0        1.8513        0.0377       18.4969       18.5346      16.683362       0.27365
   5     589.8        1.8551        0.0386       16.9754       17.0140      15.158904       0.22628
   4     651.6        1.8629        0.0395       15.6022       15.6416      13.778780       0.18874
   3     718.7        1.8755        0.0405       14.4232       14.4637      12.588170       0.14963
   2     792.3        1.8939        0.0418       13.4386       13.4804      11.586486       0.11488
   1     891.5        1.9290        0.0435       12.3736       12.4171      10.488085       0.09347
   0    1013.0        2.0015        0.0454       11.2911       11.3365       9.335060       0.08006



 Wavenumbers:  7700. -  8050. cm-1, ATM      1
 LEVEL PRESSURE   UPWARD FLUX   DIFDOWN FLUX  DIRDOWN FLUX  DOWNWARD FLUX   NET FLUX    HEATING RATE
          mb          W/m2          W/m2          W/m2        W/m2          W/m2       degree/day
  51    .06700        1.0397        0.0000        7.2006        7.2006       6.160877       0.00000
  50    .07753        1.0397        0.0000        7.2006        7.2006       6.160858       0.01474
  49    .09103        1.0397        0.0000        7.2005        7.2005       6.160835       0.01445
  48    0.1069        1.0397        0.0000        7.2005        7.2005       6.160809       0.01414
  47    0.1255        1.0397        0.0000        7.2005        7.2005       6.160778       0.01384
  46    0.1487        1.0397        0.0000        7.2004        7.2005       6.160740       0.01404
  45    0.1794        1.0397        0.0000        7.2004        7.2004       6.160687       0.01445
  44    0.2165        1.0397        0.0000        7.2003        7.2003       6.160625       0.01418
  43    0.2613        1.0397        0.0000        7.2003        7.2003       6.160551       0.01391
  42    0.3336        1.0397        0.0000        7.2001        7.2001       6.160429       0.01423
  41    0.4307        1.0397        0.0000        7.2000        7.2000       6.160267       0.01408
  40    0.5894        1.0397        0.0000        7.1997        7.1997       6.160003       0.01406
  39     1.339        1.0397        0.0001        7.1984        7.1985       6.158752       0.01408
  38     1.782        1.0397        0.0001        7.1977        7.1978       6.158018       0.01398
  37     2.292        1.0398        0.0001        7.1968        7.1969       6.157169       0.01407
  36     2.964        1.0398        0.0001        7.1957        7.1958       6.156054       0.01400
  35     3.853        1.0398        0.0002        7.1942        7.1944       6.154582       0.01397
  34     5.035        1.0398        0.0002        7.1922        7.1924       6.152628       0.01396
  33     6.613        1.0399        0.0003        7.1896        7.1899       6.150020       0.01394
  32     8.786        1.0399        0.0004        7.1860        7.1864       6.146512       0.01362
  31     11.80        1.0400        0.0005        7.1810        7.1815       6.141506       0.01402
  30     15.07        1.0400        0.0006        7.1755        7.1762       6.136147       0.01384
  29     18.79        1.0401        0.0008        7.1694        7.1702       6.130113       0.01368
  28     23.16        1.0402        0.0010        7.1623        7.1633       6.123093       0.01357
  27     28.12        1.0404        0.0012        7.1542        7.1555       6.115104       0.01358
  26     33.73        1.0405        0.0014        7.1452        7.1467       6.106211       0.01337
  25     40.54        1.0406        0.0017        7.1344        7.1362       6.095535       0.01324
  24     48.69        1.0408        0.0021        7.1215        7.1236       6.082764       0.01322
  23     57.69        1.0410        0.0025        7.1074        7.1099       6.068860       0.01303
  22     68.43        1.0413        0.0029        7.0909        7.0938       6.052470       0.01289
  21     81.20        1.0416        0.0035        7.0713        7.0748       6.033178       0.01275
  20     96.49        1.0420        0.0041        7.0484        7.0525       6.010519       0.01251
  19     114.6        1.0425        0.0048        7.0217        7.0265       5.984061       0.01235
  18     136.5        1.0430        0.0057        6.9906        6.9963       5.953305       0.01183
  17     162.9        1.0437        0.0068        6.9544        6.9612       5.917484       0.01145
  16     196.4        1.0446        0.0082        6.9087        6.9169       5.872268       0.01138
  15     218.7        1.0453        0.0091        6.8794        6.8885       5.843222       0.01103
  14     243.0        1.0460        0.0100        6.8481        6.8582       5.812179       0.01077
  13     269.0        1.0468        0.0111        6.8147        6.8258       5.779035       0.01075
  12     297.5        1.0477        0.0122        6.7791        6.7913       5.743621       0.01050
  11     328.5        1.0487        0.0134        6.7409        6.7544       5.705676       0.01032
  10     361.9        1.0499        0.0147        6.7002        6.7149       5.664997       0.01029
   9     398.1        1.0513        0.0161        6.6563        6.6724       5.621116       0.01022
   8     437.6        1.0529        0.0176        6.6089        6.6265       5.573552       0.01017
   7     480.5        1.0549        0.0192        6.5570        6.5762       5.521308       0.01026
   6     533.0        1.0577        0.0211        6.4915        6.5126       5.454968       0.01067
   5     589.8        1.0611        0.0232        6.4182        6.4415       5.380356       0.01107
   4     651.6        1.0654        0.0254        6.3359        6.3613       5.295881       0.01155
   3     718.7        1.0707        0.0277        6.2441        6.2719       5.201144       0.01191
   2     792.3        1.0771        0.0302        6.1437        6.1739       5.096778       0.01197
   1     891.5        1.0870        0.0334        6.0042        6.0376       4.950576       0.01244
   0    1013.0        1.1014        0.0371        5.8249        5.8620       4.760555       0.01319



 Wavenumbers:  8050. - 12850. cm-1, ATM      1
 LEVEL PRESSURE   UPWARD FLUX   DIFDOWN FLUX  DIRDOWN FLUX  DOWNWARD FLUX   NET FLUX    HEATING RATE
          mb          W/m2          W/m2          W/m2        W/m2          W/m2       degree/day
  51    .06700       23.2253        0.0000      100.8135      100.8135      77.588186       0.00000
  50    .07753       23.2253        0.0000      100.8135      100.8135      77.588186       0.00000
  49    .09103       23.2253        0.0001      100.8134      100.8135      77.588186       0.00000
  48    0.1069       23.2253        0.0001      100.8134      100.8134      77.588186       0.00000
  47    0.1255       23.2252        0.0001      100.8133      100.8134      77.588186       0.00000
  46    0.1487       23.2252        0.0002      100.8132      100.8134      77.588186      -0.00000
  45    0.1794       23.2251        0.0002      100.8131      100.8133      77.588186       0.00000
  44    0.2165       23.2251        0.0003      100.8129      100.8133      77.588186       0.00000
  43    0.2613       23.2250        0.0004      100.8127      100.8132      77.588186       0.00000
  42    0.3336       23.2249        0.0006      100.8125      100.8130      77.588186      -0.00000
  41    0.4307       23.2247        0.0008      100.8121      100.8129      77.588186       0.00000
  40    0.5894       23.2244        0.0011      100.8115      100.8126      77.588186      -0.00000
  39     1.339       23.2231        0.0028      100.8085      100.8113      77.588186       0.00000
  38     1.782       23.2223        0.0037      100.8068      100.8105      77.588186      -0.00000
  37     2.292       23.2214        0.0049      100.8047      100.8096      77.588186       0.00000
  36     2.964       23.2202        0.0063      100.8021      100.8084      77.588186      -0.00000
  35     3.853       23.2187        0.0083      100.7986      100.8069      77.588186       0.00000
  34     5.035       23.2166        0.0108      100.7940      100.8048      77.588186      -0.00000
  33     6.613       23.2139        0.0143      100.7878      100.8020      77.588186       0.00000
  32     8.786       23.2101        0.0189      100.7794      100.7983      77.588186       0.00000
  31     11.80       23.2048        0.0256      100.7674      100.7930      77.588186       0.00000
  30     15.07       23.1991        0.0327      100.7546      100.7872      77.588186       0.00000
  29     18.79       23.1926        0.0408      100.7400      100.7808      77.588186      -0.00000
  28     23.16       23.1850        0.0502      100.7230      100.7732      77.588186       0.00000
  27     28.12       23.1763        0.0610      100.7035      100.7645      77.588186       0.00000
  26     33.73       23.1666        0.0731      100.6817      100.7548      77.588186       0.00000
  25     40.54       23.1548        0.0877      100.6552      100.7430      77.588186       0.00000
  24     48.69       23.1406        0.1054      100.6234      100.7288      77.588186       0.00000
  23     57.69       23.1249        0.1248      100.5883      100.7131      77.588186       0.00000
  22     68.43       23.1063        0.1480      100.5464      100.6945      77.588186       0.00000
  21     81.20       23.0840        0.1757      100.4965      100.6722      77.588186      -0.00000
  20     96.49       23.0574        0.2087      100.4370      100.6456      77.588186       0.00000
  19     114.6       23.0259        0.2479      100.3585      100.6064      77.580501       0.00359
  18     136.5       22.9884        0.2945      100.2634      100.5579      77.569439       0.00425
  17     162.9       22.9437        0.3500      100.1407      100.4907      77.546988       0.00718
  16     196.4       22.8857        0.4222       99.9505      100.3727      77.486994       0.01510
  15     218.7       22.8475        0.4696       99.7889      100.2585      77.410982       0.02886
  14     243.0       22.8061        0.5210       99.5472      100.0682      77.262068       0.05165
  13     269.0       22.7616        0.5764       99.1452       99.7216      76.959979       0.09800
  12     297.5       22.7143        0.6358       98.5975       99.2332      76.518906       0.13082
  11     328.5       22.6645        0.6993       97.8659       98.5652      75.900626       0.16811
  10     361.9       22.6131        0.7667       96.8848       97.6515      75.038457       0.21814
   9     398.1       22.5608        0.8378       95.6330       96.4708      73.910009       0.26290
   8     437.6       22.5097        0.9121       94.0655       94.9776      72.467933       0.30832
   7     480.5       22.4634        0.9886       92.0807       93.0694      70.606012       0.36567
   6     533.0       22.4207        1.0787       89.4449       90.5236      68.102897       0.40267
   5     589.8       22.3956        1.1714       86.5544       87.7258      65.330189       0.41156
   4     651.6       22.3994        1.2662       83.4174       84.6836      62.284191       0.41655
   3     718.7       22.4388        1.3639       80.2037       81.5676      59.128750       0.39655
   2     792.3       22.5198        1.4650       77.0811       78.5460      56.026203       0.35583
   1     891.5       22.7112        1.5950       73.2645       74.8596      52.148381       0.32998
   0    1013.0       23.1544        1.7391       68.9425       70.6815      47.527096       0.32088



 Wavenumbers: 12850. - 16000. cm-1, ATM      1
 LEVEL PRESSURE   UPWARD FLUX   DIFDOWN FLUX  DIRDOWN FLUX  DOWNWARD FLUX   NET FLUX    HEATING RATE
          mb          W/m2          W/m2          W/m2        W/m2          W/m2       degree/day
  51    .06700       34.1015        0.0000       63.1686       63.1686      29.067075       0.00000
  50    .07753       34.1015        0.0001       63.1677       63.1678      29.066295       0.62457
  49    .09103       34.1014        0.0001       63.1666       63.1668      29.065324       0.60694
  48    0.1069       34.1014        0.0002       63.1654       63.1656      29.064219       0.58851
  47    0.1255       34.1014        0.0003       63.1640       63.1643      29.062962       0.57000
  46    0.1487       34.1013        0.0004       63.1623       63.1627      29.061394       0.57149
  45    0.1794       34.1013        0.0006       63.1600       63.1606      29.059292       0.57708
  44    0.2165       34.1012        0.0008       63.1573       63.1581      29.056861       0.55288
  43    0.2613       34.1011        0.0010       63.1542       63.1552      29.054058       0.52832
  42    0.3336       34.1011        0.0014       63.1493       63.1507      29.049594       0.52049
  41    0.4307       34.1010        0.0019       63.1431       63.1450      29.044013       0.48526
  40    0.5894       34.1010        0.0027       63.1338       63.1365      29.035564       0.44930
  39     1.339       34.1020        0.0065       63.0956       63.1021      29.000163       0.39855
  38     1.782       34.1034        0.0088       63.0740       63.0828      28.979383       0.39561
  37     2.292       34.1060        0.0114       63.0477       63.0591      28.953065       0.43591
  36     2.964       34.1107        0.0148       63.0095       63.0244      28.913688       0.49429
  35     3.853       34.1187        0.0194       62.9533       62.9726      28.853958       0.56685
  34     5.035       34.1311        0.0254       62.8725       62.8979      28.766809       0.62256
  33     6.613       34.1486        0.0334       62.7621       62.7955      28.646898       0.64104
  32     8.786       34.1712        0.0442       62.6182       62.6624      28.491259       0.60445
  31     11.80       34.2000        0.0596       62.4284       62.4879      28.287960       0.56917
  30     15.07       34.2268        0.0761       62.2426       62.3187      28.091895       0.50620
  29     18.79       34.2533        0.0946       62.0493       62.1439      27.890597       0.45640
  28     23.16       34.2801        0.1163       61.8424       61.9587      27.678641       0.40985
  27     28.12       34.3057        0.1410       61.6278       61.7688      27.463100       0.36641
  26     33.73       34.3272        0.1686       61.4177       61.5862      27.259020       0.30684
  25     40.54       34.3450        0.2018       61.1983       61.4001      27.055175       0.25289
  24     48.69       34.3583        0.2419       60.9680       61.2099      26.851533       0.21074
  23     57.69       34.3652        0.2858       60.7478       61.0336      26.668360       0.17170
  22     68.43       34.3650        0.3380       60.5202       60.8582      26.493187       0.13771
  21     81.20       34.3533        0.4003       60.2938       60.6941      26.340780       0.10071
  20     96.49       34.3287        0.4744       60.0643       60.5386      26.209958       0.07220
  19     114.6       34.3004        0.5629       59.8078       60.3706      26.070215       0.06525
  18     136.5       34.2620        0.6675       59.5157       60.1833      25.921249       0.05728
  17     162.9       34.2118        0.7919       59.1770       59.9689      25.757149       0.05245
  16     196.4       34.1370        0.9527       58.7604       59.7131      25.576079       0.04558
  15     218.7       34.0845        1.0580       58.4948       59.5528      25.468282       0.04093
  14     243.0       34.0259        1.1722       58.2089       59.3811      25.355203       0.03922
  13     269.0       33.9611        1.2957       57.9006       59.1963      25.235198       0.03893
  12     297.5       33.8901        1.4289       57.5668       58.9956      25.105553       0.03845
  11     328.5       33.8137        1.5723       57.2005       58.7728      24.959132       0.03981
  10     361.9       33.7325        1.7263       56.7963       58.5227      24.790206       0.04274
   9     398.1       33.6470        1.8915       56.3475       58.2390      24.592012       0.04617
   8     437.6       33.5588        2.0680       55.8422       57.9102      24.351406       0.05144
   7     480.5       33.4708        2.2559       55.2625       57.5184      24.047630       0.05966
   6     533.0       33.3736        2.4852       54.4972       56.9824      23.608736       0.07060
   5     589.8       33.2828        2.7290       53.6307       56.3597      23.076953       0.07893
   4     651.6       33.2041        2.9866       52.6606       55.6471      22.442987       0.08670
   3     718.7       33.1406        3.2580       51.6100       54.8681      21.727475       0.08992
   2     792.3       33.0960        3.5433       50.5019       54.0452      20.949138       0.08927
   1     891.5       33.0833        3.9191       49.0197       52.9387      19.855423       0.09307
   0    1013.0       33.1644        4.3545       47.2289       51.5833      18.418970       0.09974



 Wavenumbers: 16000. - 22650. cm-1, ATM      1
 LEVEL PRESSURE   UPWARD FLUX   DIFDOWN FLUX  DIRDOWN FLUX  DOWNWARD FLUX   NET FLUX    HEATING RATE
          mb          W/m2          W/m2          W/m2        W/m2          W/m2       degree/day
  51    .06700       77.3266        0.0000      100.7153      100.7153      23.388680       0.00000
  50    .07753       77.3265        0.0003      100.7147      100.7151      23.388562       0.09448
  49    .09103       77.3263        0.0007      100.7140      100.7147      23.388391       0.10716
  48    0.1069       77.3262        0.0012      100.7131      100.7143      23.388161       0.12219
  47    0.1255       77.3260        0.0018      100.7121      100.7139      23.387854       0.13928
  46    0.1487       77.3258        0.0024      100.7108      100.7132      23.387401       0.16505
  45    0.1794       77.3256        0.0034      100.7089      100.7123      23.386694       0.19433
  44    0.2165       77.3253        0.0045      100.7066      100.7110      23.385733       0.21840
  43    0.2613       77.3251        0.0058      100.7037      100.7095      23.384431       0.24553
  42    0.3336       77.3247        0.0080      100.6987      100.7067      23.381954       0.28874
  41    0.4307       77.3244        0.0109      100.6918      100.7027      23.378221       0.32457
  40    0.5894       77.3242        0.0156      100.6797      100.6953      23.371103       0.37858
  39     1.339       77.3289        0.0379      100.6095      100.6474      23.318517       0.59201
  38     1.782       77.3357        0.0510      100.5585      100.6095      23.273735       0.85259
  37     2.292       77.3475        0.0662      100.4903      100.5564      23.208932       1.07331
  36     2.964       77.3688        0.0861      100.3868      100.4728      23.103999       1.31723
  35     3.853       77.4053        0.1123      100.2306      100.3429      22.937615       1.57901
  34     5.035       77.4620        0.1472      100.0045      100.1516      22.689652       1.77135
  33     6.613       77.5419        0.1936       99.6939       99.8874      22.345580       1.83941
  32     8.786       77.6452        0.2560       99.2881       99.5440      21.898777       1.73522
  31     11.80       77.7772        0.3449       98.7496       99.0945      21.317374       1.62775
  30     15.07       77.9002        0.4401       98.2198       98.6600      20.759760       1.43965
  29     18.79       78.0224        0.5473       97.6651       98.2124      20.189985       1.29186
  28     23.16       78.1459        0.6720       97.0671       97.7391      19.593202       1.15399
  27     28.12       78.2647        0.8141       96.4406       97.2546      18.989986       1.02543
  26     33.73       78.3651        0.9725       95.8179       96.7904      18.425284       0.84904
  25     40.54       78.4491        1.1633       95.1548       96.3182      17.869033       0.69009
  24     48.69       78.5142        1.3925       94.4420       95.8344      17.320262       0.56789
  23     57.69       78.5507        1.6432       93.7416       95.3848      16.834051       0.45575
  22     68.43       78.5566        1.9405       92.9954       94.9358      16.379197       0.35758
  21     81.20       78.5122        2.2933       92.2231       94.5165      16.004222       0.24778
  20     96.49       78.4119        2.7119       91.4110       94.1228      15.710952       0.16186
  19     114.6       78.2694        3.2054       90.5070       93.7124      15.442973       0.12513
  18     136.5       78.0854        3.7855       89.4803       93.2657      15.180331       0.10099
  17     162.9       77.8533        4.4694       88.3022       92.7716      14.918332       0.08375
  16     196.4       77.5230        5.3461       86.8606       92.2068      14.683788       0.05904
  15     218.7       77.2962        5.9157       85.9492       91.8649      14.568722       0.04369
  14     243.0       77.0459        6.5292       84.9789       91.5081      14.462194       0.03695
  13     269.0       76.7712        7.1876       83.9493       91.1369      14.365708       0.03130
  12     297.5       76.4712        7.8917       82.8589       90.7506      14.279394       0.02560
  11     328.5       76.1476        8.6440       81.6982       90.3422      14.194666       0.02304
  10     361.9       75.8001        9.4442       80.4669       89.9111      14.111006       0.02117
   9     398.1       75.4282       10.2942       79.1611       89.4554      14.027210       0.01952
   8     437.6       75.0322       11.1944       77.7777       88.9721      13.939975       0.01865
   7     480.5       74.6125       12.1450       76.3136       88.4587      13.846189       0.01842
   6     533.0       74.1035       13.2952       74.5359       87.8310      13.727491       0.01909
   5     589.8       73.5658       14.5105       72.6469       87.1574      13.591646       0.02016
   4     651.6       73.0016       15.7890       70.6456       86.4346      13.433020       0.02169
   3     718.7       72.4116       17.1286       68.5367       85.6653      13.253720       0.02253
   2     792.3       71.7987       18.5239       66.3287       84.8525      13.053868       0.02292
   1     891.5       71.0054       20.3436       63.4246       83.7682      12.762809       0.02477
   0    1013.0       70.1081       22.4330       60.0483       82.4814      12.373290       0.02705



 Wavenumbers: 22650. - 29000. cm-1, ATM      1
 LEVEL PRESSURE   UPWARD FLUX   DIFDOWN FLUX  DIRDOWN FLUX  DOWNWARD FLUX   NET FLUX    HEATING RATE
          mb          W/m2          W/m2          W/m2        W/m2          W/m2       degree/day
  51    .06700       34.9583        0.0000       38.0063       38.0063       3.048022       0.00000
  50    .07753       34.9581        0.0004       38.0057       38.0061       3.048022       0.00000
  49    .09103       34.9579        0.0009       38.0050       38.0059       3.048022       0.00000
  48    0.1069       34.9577        0.0014       38.0042       38.0057       3.048022       0.00000
  47    0.1255       34.9574        0.0021       38.0033       38.0054       3.048022      -0.00000
  46    0.1487       34.9570        0.0029       38.0022       38.0051       3.048022       0.00000
  45    0.1794       34.9566        0.0040       38.0006       38.0046       3.048022      -0.00000
  44    0.2165       34.9560        0.0053       37.9987       38.0040       3.048022      -0.00000
  43    0.2613       34.9554        0.0069       37.9965       38.0034       3.048022       0.00000
  42    0.3336       34.9543        0.0094       37.9928       38.0023       3.048022       0.00000
  41    0.4307       34.9528        0.0128       37.9880       38.0008       3.048022       0.00000
  40    0.5894       34.9504        0.0184       37.9800       37.9985       3.048022      -0.00000
  39     1.339       34.9392        0.0448       37.9425       37.9873       3.048022      -0.00000
  38     1.782       34.9327        0.0603       37.9204       37.9807       3.048022       0.00000
  37     2.292       34.9251        0.0782       37.8949       37.9731       3.048022       0.00000
  36     2.964       34.9151        0.1017       37.8614       37.9631       3.048022       0.00000
  35     3.853       34.9019        0.1327       37.8172       37.9499       3.048022      -0.00000
  34     5.035       34.8844        0.1738       37.7586       37.9324       3.048022      -0.00000
  33     6.613       34.8610        0.2288       37.6803       37.9091       3.048022       0.00000
  32     8.786       34.8296        0.3026       37.5750       37.8777       3.048022       0.00000
  31     11.80       34.7848        0.4080       37.4249       37.8328       3.048022       0.00000
  30     15.07       34.7369        0.5207       37.2642       37.7849       3.048022      -0.00000
  29     18.79       34.6829        0.6476       37.0833       37.7309       3.048022       0.00000
  28     23.16       34.6200        0.7951       36.8730       37.6681       3.048022      -0.00000
  27     28.12       34.5486        0.9628       36.6338       37.5966       3.048022       0.00000
  26     33.73       34.4690        1.1493       36.3677       37.5170       3.048022      -0.00000
  25     40.54       34.3736        1.3730       36.0486       37.4216       3.048022       0.00000
  24     48.69       34.2594        1.6402       35.6672       37.3075       3.048022       0.00000
  23     57.69       34.1353        1.9306       35.2527       37.1833       3.048022       0.00000
  22     68.43       33.9890        2.2721       34.7649       37.0371       3.048022      -0.00000
  21     81.20       33.8172        2.6730       34.1922       36.8652       3.048022       0.00000
  20     96.49       33.6157        3.1420       33.5217       36.6637       3.048022       0.00000
  19     114.6       33.3811        3.6868       32.7424       36.4291       3.048022       0.00000
  18     136.5       33.1095        4.3159       31.8416       36.1575       3.048022      -0.00000
  17     162.9       32.7949        5.0422       30.8008       35.8430       3.048022      -0.00000
  16     196.4       32.4008        5.9481       29.5007       35.4488       3.048022       0.00000
  15     218.7       32.1503        6.5216       28.6767       35.1983       3.048022      -0.00000
  14     243.0       31.8851        7.1264       27.8068       34.9331       3.048022       0.00000
  13     269.0       31.6059        7.7606       26.8933       34.6539       3.048022      -0.00000
  12     297.5       31.3134        8.4221       25.9393       34.3614       3.048022       0.00000
  11     328.5       31.0075        9.1104       24.9451       34.0555       3.048022       0.00000
  10     361.9       30.6896        9.8216       23.9160       33.7376       3.048022      -0.00000
   9     398.1       30.3601       10.5540       22.8541       33.4081       3.048022       0.00000
   8     437.6       30.0203       11.3039       21.7645       33.0683       3.048022      -0.00000
   7     480.5       29.6715       12.0674       20.6521       32.7195       3.048022       0.00000
   6     533.0       29.2625       12.9536       19.3569       32.3105       3.048022      -0.00000
   5     589.8       28.8453       13.8466       18.0467       31.8934       3.048022       0.00000
   4     651.6       28.4225       14.7389       16.7316       31.4706       3.048022       0.00000
   3     718.7       27.9966       15.6232       15.4214       31.0446       3.048022       0.00000
   2     792.3       27.5705       16.4909       14.1276       30.6185       3.048022       0.00000
   1     891.5       27.0406       17.5427       12.5459       30.0886       3.048022       0.00000
   0    1013.0       26.4658       18.6421       10.8717       29.5138       3.048022      -0.00000



 Wavenumbers: 29000. - 38000. cm-1, ATM      1
 LEVEL PRESSURE   UPWARD FLUX   DIFDOWN FLUX  DIRDOWN FLUX  DOWNWARD FLUX   NET FLUX    HEATING RATE
          mb          W/m2          W/m2          W/m2        W/m2          W/m2       degree/day
  51    .06700        4.9692        0.0000       13.4026       13.4026       8.433437       0.00000
  50    .07753        4.9689        0.0003       13.3983       13.3986       8.429639       3.04446
  49    .09103        4.9687        0.0007       13.3921       13.3928       8.424120       3.44975
  48    0.1069        4.9684        0.0011       13.3840       13.3851       8.416743       3.92686
  47    0.1255        4.9680        0.0016       13.3733       13.3749       8.406898       4.46329
  46    0.1487        4.9676        0.0022       13.3579       13.3600       8.392455       5.26451
  45    0.1794        4.9670        0.0030       13.3340       13.3371       8.370055       6.14942
  44    0.2165        4.9664        0.0040       13.3024       13.3064       8.340035       6.82895
  43    0.2613        4.9656        0.0052       13.2604       13.2656       8.299979       7.55031
  42    0.3336        4.9644        0.0071       13.1833       13.1903       8.225971       8.62867
  41    0.4307        4.9628        0.0095       13.0729       13.0824       8.119595       9.24908
  40    0.5894        4.9605        0.0134       12.8796       12.8930       7.932546       9.94705
  39     1.339        4.9521        0.0297       11.9165       11.9462       6.994161      10.56451
  38     1.782        4.9488        0.0380       11.4399       11.4780       6.529140       8.85324
  37     2.292        4.9464        0.0469       10.9796       11.0265       6.080152       7.43643
  36     2.964        4.9451        0.0579       10.4786       10.5365       5.591429       6.13494
  35     3.853        4.9459        0.0714        9.9429       10.0143       5.068425       4.96340
  34     5.035        4.9495        0.0883        9.4007        9.4890       4.539473       3.77862
  33     6.613        4.9561        0.1097        8.8752        8.9849       4.028772       2.73020
  32     8.786        4.9652        0.1373        8.3786        8.5159       3.550634       1.85692
  31     11.80        4.9764        0.1752        7.8897        8.0649       3.088444       1.29399
  30     15.07        4.9861        0.2143        7.5108        7.7251       2.739004       0.90218
  29     18.79        4.9952        0.2569        7.1776        7.4345       2.439375       0.67935
  28     23.16        5.0035        0.3049        6.8664        7.1714       2.167817       0.52511
  27     28.12        5.0105        0.3580        6.5780        6.9360       1.925573       0.41180
  26     33.73        5.0135        0.4159        6.3195        6.7353       1.721871       0.30627
  25     40.54        5.0114        0.4841        6.0663        6.5504       1.538972       0.22691
  24     48.69        5.0037        0.5641        5.8128        6.3769       1.373183       0.17157
  23     57.69        4.9903        0.6494        5.5777        6.2271       1.236786       0.12785
  22     68.43        4.9690        0.7482        5.3379        6.0861       1.117079       0.09411
  21     81.20        4.9355        0.8629        5.0965        5.9594       1.023848       0.06161
  20     96.49        4.8886        0.9953        4.8476        5.8430       0.954381       0.03834
  19     114.6        4.8314        1.1454        4.5799        5.7253       0.893876       0.02825
  18     136.5        4.7651        1.3132        4.2891        5.6023       0.837127       0.02182
  17     162.9        4.6895        1.4993        3.9732        5.4725       0.782984       0.01731
  16     196.4        4.5936        1.7222        3.6080        5.3302       0.736658       0.01166
  15     218.7        4.5332        1.8580        3.3898        5.2477       0.714584       0.00838
  14     243.0        4.4704        1.9964        3.1686        5.1649       0.694547       0.00695
  13     269.0        4.4055        2.1363        2.9461        5.0824       0.676861       0.00574
  12     297.5        4.3390        2.2766        2.7239        5.0006       0.661547       0.00454
  11     328.5        4.2717        2.4159        2.5029        4.9188       0.647151       0.00391
  10     361.9        4.2040        2.5531        2.2846        4.8376       0.633694       0.00340
   9     398.1        4.1363        2.6867        2.0708        4.7575       0.621171       0.00292
   8     437.6        4.0691        2.8158        1.8626        4.6784       0.609314       0.00253
   7     480.5        4.0029        2.9390        1.6621        4.6011       0.598254       0.00217
   6     533.0        3.9287        3.0714        1.4437        4.5151       0.586416       0.00190
   5     589.8        3.8569        3.1930        1.2390        4.4320       0.575169       0.00167
   4     651.6        3.7880        3.3023        1.0500        4.3523       0.564361       0.00148
   3     718.7        3.7223        3.3985        0.8778        4.2763       0.553954       0.00131
   2     792.3        3.6602        3.4804        0.7237        4.2042       0.543929       0.00115
   1     891.5        3.5875        3.5630        0.5563        4.1193       0.531758       0.00104
   0    1013.0        3.5136        3.6282        0.4039        4.0321       0.518562       0.00092



 Wavenumbers: 38000. - 50000. cm-1, ATM      1
 LEVEL PRESSURE   UPWARD FLUX   DIFDOWN FLUX  DIRDOWN FLUX  DOWNWARD FLUX   NET FLUX    HEATING RATE
          mb          W/m2          W/m2          W/m2        W/m2          W/m2       degree/day
  51    .06700        0.0051        0.0000        0.8267        0.8267       0.821528       0.00000
  50    .07753        0.0051        0.0001        0.8242        0.8243       0.819196       1.86936
  49    .09103        0.0050        0.0002        0.8207        0.8209       0.815872       2.07705
  48    0.1069        0.0049        0.0002        0.8162        0.8164       0.811514       2.31984
  47    0.1255        0.0048        0.0004        0.8103        0.8106       0.805801       2.59006
  46    0.1487        0.0047        0.0005        0.8018        0.8023       0.797567       3.00143
  45    0.1794        0.0045        0.0007        0.7889        0.7896       0.785013       3.44648
  44    0.2165        0.0044        0.0009        0.7720        0.7729       0.768507       3.75474
  43    0.2613        0.0042        0.0011        0.7500        0.7511       0.746955       4.06246
  42    0.3336        0.0039        0.0015        0.7106        0.7121       0.708267       4.51071
  41    0.4307        0.0035        0.0019        0.6566        0.6584       0.654972       4.63387
  40    0.5894        0.0029        0.0024        0.5680        0.5704       0.567464       4.65357
  39     1.339        0.0015        0.0030        0.2422        0.2452       0.243720       3.64476
  38     1.782        0.0010        0.0026        0.1493        0.1519       0.150889       1.76735
  37     2.292        0.0007        0.0022        0.0924        0.0946       0.093932       0.94336
  36     2.964        0.0005        0.0018        0.0539        0.0557       0.055224       0.48589
  35     3.853        0.0003        0.0013        0.0295        0.0308       0.030502       0.23462
  34     5.035        0.0002        0.0010        0.0154        0.0164       0.016181       0.10230
  33     6.613        0.0001        0.0007        0.0073        0.0080       0.007912       0.04420
  32     8.786        0.0000        0.0004        0.0030        0.0034       0.003390       0.01756
  31     11.80        0.0000        0.0003        0.0010        0.0012       0.001199       0.00613
  30     15.07        0.0000        0.0001        0.0003        0.0005       0.000463       0.00190
  29     18.79        0.0000        0.0001        0.0001        0.0002       0.000182       0.00064
  28     23.16        0.0000        0.0000        0.0000        0.0001       0.000071       0.00022
  27     28.12        0.0000        0.0000        0.0000        0.0000       0.000028       0.00007
  26     33.73        0.0000        0.0000        0.0000        0.0000       0.000011       0.00002
  25     40.54        0.0000        0.0000        0.0000        0.0000       0.000005       0.00001
  24     48.69        0.0000        0.0000        0.0000        0.0000       0.000002       0.00000
  23     57.69        0.0000        0.0000        0.0000        0.0000       0.000001       0.00000
  22     68.43        0.0000        0.0000        0.0000        0.0000       0.000000       0.00000
  21     81.20        0.0000        0.0000        0.0000        0.0000       0.000000       0.00000
  20     96.49        0.0000        0.0000        0.0000        0.0000       0.000000       0.00000
  19     114.6        0.0000        0.0000        0.0000        0.0000       0.000000       0.00000
  18     136.5        0.0000        0.0000        0.0000        0.0000       0.000000       0.00000
  17     162.9        0.0000        0.0000        0.0000        0.0000       0.000000       0.00000
  16     196.4        0.0000        0.0000        0.0000        0.0000       0.000000       0.00000
  15     218.7        0.0000        0.0000        0.0000        0.0000       0.000000       0.00000
  14     243.0        0.0000        0.0000        0.0000        0.0000       0.000000       0.00000
  13     269.0        0.0000        0.0000        0.0000        0.0000       0.000000       0.00000
  12     297.5        0.0000        0.0000        0.0000        0.0000       0.000000       0.00000
  11     328.5        0.0000        0.0000        0.0000        0.0000       0.000000       0.00000
  10     361.9        0.0000        0.0000        0.0000        0.0000       0.000000       0.00000
   9     398.1        0.0000        0.0000        0.0000        0.0000       0.000000       0.00000
   8     437.6        0.0000        0.0000        0.0000        0.0000       0.000000       0.00000
   7     480.5        0.0000        0.0000        0.0000        0.0000       0.000000       0.00000
   6     533.0        0.0000        0.0000        0.0000        0.0000       0.000000       0.00000
   5     589.8        0.0000        0.0000        0.0000        0.0000       0.000000       0.00000
   4     651.6        0.0000        0.0000        0.0000        0.0000       0.000000       0.00000
   3     718.7        0.0000        0.0000        0.0000        0.0000       0.000000       0.00000
   2     792.3        0.0000        0.0000        0.0000        0.0000       0.000000       0.00000
   1     891.5        0.0000        0.0000        0.0000        0.0000       0.000000       0.00000
   0    1013.0        0.0000        0.0000        0.0000        0.0000       0.000000       0.00000



 Wavenumbers:   820. -  2600. cm-1, ATM      1
 LEVEL PRESSURE   UPWARD FLUX   DIFDOWN FLUX  DIRDOWN FLUX  DOWNWARD FLUX   NET FLUX    HEATING RATE
          mb          W/m2          W/m2          W/m2        W/m2          W/m2       degree/day
  51    .06700        0.1274        0.0000        3.8670        3.8670       3.739592       0.00000
  50    .07753        0.1274        0.0000        3.8643        3.8643       3.736875       2.17769
  49    .09103        0.1274        0.0000        3.8635        3.8635       3.736065       0.50638
  48    0.1069        0.1274        0.0000        3.8626        3.8626       3.735175       0.47415
  47    0.1255        0.1274        0.0000        3.8616        3.8616       3.734214       0.43559
  46    0.1487        0.1274        0.0000        3.8605        3.8605       3.733104       0.40437
  45    0.1794        0.1274        0.0000        3.8592        3.8592       3.731769       0.36647
  44    0.2165        0.1274        0.0000        3.8578        3.8578       3.730391       0.31346
  43    0.2613        0.1274        0.0000        3.8564        3.8564       3.728931       0.27522
  42    0.3336        0.1274        0.0000        3.8541        3.8541       3.726700       0.26012
  41    0.4307        0.1274        0.0000        3.8512        3.8512       3.723818       0.25063
  40    0.5894        0.1274        0.0000        3.8465        3.8465       3.719092       0.25133
  39     1.339        0.1274        0.0000        3.8251        3.8251       3.697717       0.24064
  38     1.782        0.1274        0.0000        3.8133        3.8133       3.685904       0.22489
  37     2.292        0.1274        0.0000        3.8003        3.8003       3.672843       0.21632
  36     2.964        0.1274        0.0000        3.7841        3.7841       3.656714       0.20246
  35     3.853        0.1274        0.0000        3.7642        3.7642       3.636800       0.18899
  34     5.035        0.1274        0.0000        3.7395        3.7395       3.612109       0.17638
  33     6.613        0.1274        0.0000        3.7090        3.7090       3.581574       0.16324
  32     8.786        0.1274        0.0000        3.6726        3.6726       3.545182       0.14133
  31     11.80        0.1274        0.0000        3.6320        3.6320       3.504588       0.11365
  30     15.07        0.1274        0.0000        3.6016        3.6016       3.474205       0.07844
  29     18.79        0.1274        0.0000        3.5777        3.5777       3.450309       0.05418
  28     23.16        0.1274        0.0000        3.5564        3.5564       3.428957       0.04129
  27     28.12        0.1274        0.0000        3.5348        3.5348       3.407412       0.03662
  26     33.73        0.1274        0.0000        3.5118        3.5118       3.384381       0.03463
  25     40.54        0.1274        0.0000        3.4849        3.4849       3.357495       0.03335
  24     48.69        0.1274        0.0000        3.4537        3.4537       3.326245       0.03234
  23     57.69        0.1274        0.0000        3.4210        3.4210       3.293574       0.03062
  22     68.43        0.1274        0.0000        3.3844        3.3844       3.256991       0.02876
  21     81.20        0.1274        0.0000        3.3441        3.3441       3.216696       0.02663
  20     96.49        0.1275        0.0000        3.2998        3.2998       3.172334       0.02448
  19     114.6        0.1275        0.0000        3.2506        3.2506       3.123190       0.02295
  18     136.5        0.1275        0.0000        3.1936        3.1936       3.066144       0.02194
  17     162.9        0.1275        0.0000        3.1181        3.1181       2.990645       0.02413
  16     196.4        0.1275        0.0000        3.0090        3.0090       2.881465       0.02748
  15     218.7        0.1275        0.0000        2.9420        2.9420       2.814465       0.02544
  14     243.0        0.1276        0.0000        2.8605        2.8605       2.732910       0.02829
  13     269.0        0.1276        0.0000        2.7419        2.7420       2.614339       0.03846
  12     297.5        0.1277        0.0000        2.5729        2.5729       2.445148       0.05018
  11     328.5        0.1279        0.0000        2.3602        2.3602       2.232280       0.05788
  10     361.9        0.1282        0.0000        2.1524        2.1524       2.024234       0.05264
   9     398.1        0.1286        0.0000        1.9974        1.9974       1.868821       0.03621
   8     437.6        0.1292        0.0000        1.8835        1.8835       1.754329       0.02448
   7     480.5        0.1300        0.0000        1.7734        1.7734       1.643399       0.02179
   6     533.0        0.1315        0.0000        1.6397        1.6398       1.508287       0.02174
   5     589.8        0.1335        0.0000        1.5068        1.5069       1.373306       0.02004
   4     651.6        0.1366        0.0000        1.3807        1.3807       1.244089       0.01767
   3     718.7        0.1407        0.0000        1.2680        1.2680       1.127304       0.01468
   2     792.3        0.1458        0.0000        1.1659        1.1660       1.020189       0.01228
   1     891.5        0.1543        0.0000        1.0372        1.0373       0.882986       0.01168
   0    1013.0        0.1697        0.0000        0.8716        0.8717       0.701962       0.01257

  Modules and versions used in this calculation:

       rrtmg_sw.1col.f90:  $Revision$                    rrtmg_sw_init.f90:  $Revision$        
     rrtmgsw_cldprop.f90:  $Revision$                  rrtmgsw_cldprmc.f90:  NOT USED          
     rrtmg_sw_reftra.f90:  $Revision$                  rrtmg_sw_spcvrt.f90:  NOT USED          
     rrtmg_sw_spcvmc.f90:  NOT USED                    rrtmgsw_setcoef.f90:  NOT USED          
     rrtmg_sw_taumol.f90:  $Revision$                  rrtmg_sw_vrtqdr.f90:  NOT USED          
                rrtatm.f:  NOT USED                             util_xxx.f:  NOT USED          
                 extra.f:  NOT USED                       rrtmg_sw_k_g.f90:  $Revision$        

