

 Wavenumbers:   820. - 50000. cm-1, ATM      1
 LEVEL PRESSURE   UPWARD FLUX   DIFDOWN FLUX  DIRDOWN FLUX  DOWNWARD FLUX   NET FLUX    HEATING RATE
          mb          W/m2          W/m2          W/m2        W/m2          W/m2       degree/day
  51    .06700      191.8303        0.0000      397.8738      397.8738     206.043484       0.00000
  50    .07753      191.8297        0.0012      397.8577      397.8589     206.029199      11.44980
  49    .09103      191.8289        0.0026      397.8418      397.8444     206.015519       8.55040
  48    0.1069      191.8281        0.0043      397.8230      397.8273     205.999182       8.69623
  47    0.1255      191.8271        0.0062      397.7997      397.8059     205.978754       9.26119
  46    0.1487      191.8259        0.0086      397.7676      397.7763     205.950317      10.36544
  45    0.1794      191.8244        0.0119      397.7205      397.7324     205.908057      11.60130
  44    0.2165      191.8226        0.0158      397.6602      397.6761     205.853453      12.42165
  43    0.2613      191.8206        0.0204      397.5829      397.6033     205.782714      13.33391
  42    0.3336      191.8175        0.0280      397.4449      397.4729     205.655385      14.84525
  41    0.4307      191.8136        0.0379      397.2524      397.2903     205.476682      15.53789
  40    0.5894      191.8078        0.0538      396.9253      396.9791     205.171277      16.24102
  39     1.339      191.7915        0.1250      395.4254      395.5503     203.758811      15.90180
  38     1.782      191.7891        0.1648      394.7288      394.8936     203.104472      12.45757
  37     2.292      191.7927        0.2102      394.0572      394.2674     202.474643      10.43161
  36     2.964      191.8068        0.2691      393.3007      393.5698     201.762966       8.93370
  35     3.853      191.8385        0.3461      392.4318      392.7779     200.939419       7.81561
  34     5.035      191.8934        0.4474      391.4441      391.8915     199.998032       6.72488
  33     6.613      191.9740        0.5816      390.3268      390.9083     198.934340       5.68650
  32     8.786      192.0775        0.7610      389.0624      389.8234     197.745931       4.61535
  31     11.80      192.2039        1.0157      387.5500      388.5657     196.361782       3.87518
  30     15.07      192.3142        1.2868      386.1556      387.4424     195.128257       3.18472
  29     18.79      192.4162        1.5907      384.7502      386.3409     193.924717       2.72879
  28     23.16      192.5093        1.9428      383.2686      385.2114     192.702113       2.36412
  27     28.12      192.5853        2.3421      381.7329      384.0749     191.489649       2.06111
  26     33.73      192.6257        2.7856      380.1982      382.9838     190.358100       1.70131
  25     40.54      192.6227        3.3175      378.5384      381.8559     189.233180       1.39559
  24     48.69      192.5696        3.9530      376.7214      380.6744     188.104841       1.16765
  23     57.69      192.4638        4.6444      374.8959      379.5403     187.076458       0.96395
  22     68.43      192.2871        5.4594      372.8999      378.3594     186.072264       0.78943
  21     81.20      192.0063        6.4200      370.7496      377.1696     185.163252       0.60066
  20     96.49      191.6087        7.5499      368.4056      375.9554     184.346791       0.45063
  19     114.6      191.1169        8.8694      365.7513      374.6207     183.503759       0.39364
  18     136.5      190.5213       10.4016      362.7231      373.1247     182.603370       0.34622
  17     162.9      189.8064       12.1824      359.1748      371.3571     181.550789       0.33645
  16     196.4      188.8556       14.4270      354.5718      368.9988     180.143205       0.35431
  15     218.7      188.2286       15.8623      351.4437      367.3060     179.077415       0.40464
  14     243.0      187.5521       17.3886      347.7111      365.0998     177.547629       0.53058
  13     269.0      186.8265       19.0041      342.9441      361.9482     175.121704       0.78696
  12     297.5      186.0530       20.7065      337.4137      358.1202     172.067214       0.90593
  11     328.5      185.2354       22.4973      331.1302      353.6275     168.392098       0.99925
  10     361.9      184.3778       24.3709      324.1219      348.4928     164.115018       1.08214
   9     398.1      183.4826       26.3267      316.6066      342.9333     159.450730       1.08667
   8     437.6      182.5570       28.3600      308.5895      336.9495     154.392503       1.08148
   7     480.5      181.6127       30.4648      299.9349      330.3997     148.786942       1.10091
   6     533.0      180.5227       32.9565      289.7021      322.6586     142.135928       1.06994
   5     589.8      179.4423       35.5266      279.3388      314.8654     135.423092       0.99641
   4     651.6      178.4040       38.1629      268.7786      306.9415     128.537500       0.94162
   3     718.7      177.4265       40.8561      258.2837      299.1398     121.713269       0.85762
   2     792.3      176.5310       43.5919      248.0774      291.6693     115.138343       0.75407
   1     891.5      175.6104       47.0577      235.5216      282.5793     106.968952       0.69518
   0    1013.0      175.1369       50.8977      221.4731      272.3708      97.233836       0.67596



 Wavenumbers:  2600. -  3250. cm-1, ATM      1
 LEVEL PRESSURE   UPWARD FLUX   DIFDOWN FLUX  DIRDOWN FLUX  DOWNWARD FLUX   NET FLUX    HEATING RATE
          mb          W/m2          W/m2          W/m2        W/m2          W/m2       degree/day
  51    .06700        0.3484        0.0000        3.5066        3.5066       3.158273       0.00000
  50    .07753        0.3484        0.0000        3.5066        3.5066       3.158265       0.00640
  49    .09103        0.3484        0.0000        3.5066        3.5066       3.158255       0.00627
  48    0.1069        0.3484        0.0000        3.5066        3.5066       3.158244       0.00613
  47    0.1255        0.3484        0.0000        3.5066        3.5066       3.158231       0.00599
  46    0.1487        0.3484        0.0000        3.5066        3.5066       3.158214       0.00607
  45    0.1794        0.3484        0.0000        3.5065        3.5065       3.158191       0.00624
  44    0.2165        0.3484        0.0000        3.5065        3.5065       3.158164       0.00611
  43    0.2613        0.3484        0.0000        3.5065        3.5065       3.158133       0.00598
  42    0.3336        0.3484        0.0000        3.5064        3.5064       3.158080       0.00615
  41    0.4307        0.3484        0.0000        3.5064        3.5064       3.158009       0.00618
  40    0.5894        0.3484        0.0000        3.5062        3.5062       3.157890       0.00633
  39     1.339        0.3483        0.0000        3.5055        3.5055       3.157191       0.00787
  38     1.782        0.3483        0.0000        3.5050        3.5050       3.156660       0.01011
  37     2.292        0.3483        0.0000        3.5043        3.5043       3.155968       0.01147
  36     2.964        0.3483        0.0000        3.5033        3.5033       3.154976       0.01245
  35     3.853        0.3483        0.0000        3.5019        3.5019       3.153599       0.01307
  34     5.035        0.3483        0.0000        3.5001        3.5001       3.151738       0.01329
  33     6.613        0.3483        0.0000        3.4977        3.4977       3.149329       0.01288
  32     8.786        0.3483        0.0000        3.4947        3.4947       3.146358       0.01154
  31     11.80        0.3483        0.0000        3.4911        3.4911       3.142722       0.01018
  30     15.07        0.3483        0.0000        3.4878        3.4878       3.139501       0.00832
  29     18.79        0.3483        0.0000        3.4848        3.4848       3.136438       0.00695
  28     23.16        0.3483        0.0000        3.4816        3.4816       3.133218       0.00623
  27     28.12        0.3483        0.0000        3.4779        3.4779       3.129600       0.00615
  26     33.73        0.3483        0.0000        3.4735        3.4735       3.125133       0.00672
  25     40.54        0.3483        0.0000        3.4671        3.4671       3.118807       0.00785
  24     48.69        0.3483        0.0000        3.4582        3.4583       3.109912       0.00921
  23     57.69        0.3483        0.0000        3.4472        3.4472       3.098863       0.01036
  22     68.43        0.3483        0.0000        3.4329        3.4329       3.084602       0.01121
  21     81.20        0.3484        0.0000        3.4152        3.4152       3.066872       0.01172
  20     96.49        0.3484        0.0000        3.3940        3.3941       3.045725       0.01167
  19     114.6        0.3484        0.0000        3.3692        3.3692       3.020832       0.01162
  18     136.5        0.3484        0.0001        3.3419        3.3420       2.993608       0.01047
  17     162.9        0.3484        0.0001        3.3129        3.3129       2.964524       0.00930
  16     196.4        0.3485        0.0001        3.2793        3.2794       2.930931       0.00846
  15     218.7        0.3485        0.0001        3.2578        3.2578       2.909294       0.00821
  14     243.0        0.3487        0.0001        3.2320        3.2320       2.883388       0.00899
  13     269.0        0.3488        0.0001        3.1968        3.1969       2.848084       0.01145
  12     297.5        0.3491        0.0001        3.1489        3.1490       2.799917       0.01429
  11     328.5        0.3496        0.0001        3.0821        3.0822       2.732606       0.01830
  10     361.9        0.3502        0.0001        2.9902        2.9904       2.640156       0.02339
   9     398.1        0.3511        0.0001        2.8715        2.8716       2.520513       0.02787
   8     437.6        0.3524        0.0001        2.7276        2.7278       2.375405       0.03102
   7     480.5        0.3543        0.0001        2.5595        2.5597       2.205404       0.03339
   6     533.0        0.3574        0.0002        2.3617        2.3619       2.004528       0.03231
   5     589.8        0.3618        0.0002        2.1649        2.1651       1.803256       0.02988
   4     651.6        0.3682        0.0002        1.9608        1.9609       1.592676       0.02880
   3     718.7        0.3770        0.0002        1.7593        1.7595       1.382490       0.02641
   2     792.3        0.3884        0.0002        1.5761        1.5762       1.187809       0.02233
   1     891.5        0.4081        0.0002        1.3714        1.3716       0.963557       0.01908
   0    1013.0        0.4435        0.0002        1.1584        1.1586       0.715074       0.01725



 Wavenumbers:  3250. -  4000. cm-1, ATM      1
 LEVEL PRESSURE   UPWARD FLUX   DIFDOWN FLUX  DIRDOWN FLUX  DOWNWARD FLUX   NET FLUX    HEATING RATE
          mb          W/m2          W/m2          W/m2        W/m2          W/m2       degree/day
  51    .06700        0.0004        0.0000        5.9117        5.9117       5.911234       0.00000
  50    .07753        0.0004        0.0000        5.9075        5.9075       5.907044       3.35808
  49    .09103        0.0004        0.0000        5.9050        5.9050       5.904601       1.52677
  48    0.1069        0.0004        0.0000        5.9032        5.9032       5.902735       0.99346
  47    0.1255        0.0004        0.0000        5.9014        5.9014       5.900977       0.79708
  46    0.1487        0.0004        0.0000        5.8995        5.8995       5.899088       0.68848
  45    0.1794        0.0004        0.0000        5.8974        5.8974       5.896940       0.58983
  44    0.2165        0.0004        0.0000        5.8952        5.8952       5.894823       0.48155
  43    0.2613        0.0004        0.0000        5.8931        5.8931       5.892664       0.40696
  42    0.3336        0.0004        0.0000        5.8899        5.8899       5.889506       0.36820
  41    0.4307        0.0004        0.0000        5.8861        5.8861       5.885668       0.33365
  40    0.5894        0.0004        0.0000        5.8803        5.8803       5.879866       0.30857
  39     1.339        0.0004        0.0000        5.8597        5.8597       5.859268       0.23189
  38     1.782        0.0004        0.0000        5.8513        5.8513       5.850844       0.16039
  37     2.292        0.0004        0.0000        5.8431        5.8431       5.842673       0.13533
  36     2.964        0.0004        0.0000        5.8334        5.8334       5.833033       0.12100
  35     3.853        0.0004        0.0000        5.8213        5.8213       5.820858       0.11555
  34     5.035        0.0004        0.0000        5.8052        5.8052       5.804762       0.11498
  33     6.613        0.0004        0.0000        5.7833        5.7834       5.782941       0.11666
  32     8.786        0.0004        0.0000        5.7531        5.7531       5.752740       0.11729
  31     11.80        0.0004        0.0000        5.7090        5.7090       5.708571       0.12366
  30     15.07        0.0004        0.0000        5.6615        5.6615       5.661106       0.12254
  29     18.79        0.0004        0.0000        5.6093        5.6094       5.608970       0.11821
  28     23.16        0.0004        0.0000        5.5524        5.5524       5.552045       0.11008
  27     28.12        0.0004        0.0000        5.4935        5.4935       5.493166       0.10009
  26     33.73        0.0004        0.0000        5.4348        5.4349       5.434477       0.08824
  25     40.54        0.0004        0.0001        5.3707        5.3708       5.370415       0.07948
  24     48.69        0.0004        0.0001        5.2985        5.2985       5.298182       0.07475
  23     57.69        0.0003        0.0001        5.2215        5.2216       5.221243       0.07212
  22     68.43        0.0003        0.0001        5.1318        5.1319       5.131583       0.07048
  21     81.20        0.0003        0.0001        5.0284        5.0285       5.028154       0.06834
  20     96.49        0.0003        0.0001        4.9122        4.9123       4.912020       0.06410
  19     114.6        0.0003        0.0001        4.7780        4.7782       4.777909       0.06262
  18     136.5        0.0003        0.0002        4.6285        4.6287       4.628430       0.05748
  17     162.9        0.0002        0.0002        4.4406        4.4407       4.440518       0.06006
  16     196.4        0.0002        0.0002        4.1548        4.1550       4.154844       0.07191
  15     218.7        0.0002        0.0002        3.9564        3.9566       3.956464       0.07532
  14     243.0        0.0001        0.0002        3.7055        3.7058       3.705629       0.08700
  13     269.0        0.0001        0.0002        3.3399        3.3401       3.339990       0.11861
  12     297.5        0.0001        0.0002        2.8954        2.8956       2.895501       0.13183
  11     328.5        0.0001        0.0002        2.4388        2.4390       2.438960       0.12413
  10     361.9        0.0001        0.0002        2.0269        2.0271       2.027022       0.10422
   9     398.1        0.0001        0.0002        1.6753        1.6755       1.675433       0.08191
   8     437.6        0.0000        0.0002        1.3592        1.3594       1.359315       0.06759
   7     480.5        0.0000        0.0002        1.0616        1.0618       1.061733       0.05844
   6     533.0        0.0000        0.0001        0.7543        0.7544       0.754399       0.04944
   5     589.8        0.0000        0.0001        0.4951        0.4952       0.495207       0.03847
   4     651.6        0.0000        0.0001        0.2943        0.2943       0.294311       0.02747
   3     718.7        0.0000        0.0001        0.1528        0.1529       0.152819       0.01778
   2     792.3        0.0001        0.0000        0.0658        0.0658       0.065790       0.00998
   1     891.5        0.0001        0.0000        0.0157        0.0157       0.015545       0.00428
   0    1013.0        0.0005        0.0000        0.0013        0.0013       0.000830       0.00102



 Wavenumbers:  4000. -  4650. cm-1, ATM      1
 LEVEL PRESSURE   UPWARD FLUX   DIFDOWN FLUX  DIRDOWN FLUX  DOWNWARD FLUX   NET FLUX    HEATING RATE
          mb          W/m2          W/m2          W/m2        W/m2          W/m2       degree/day
  51    .06700        1.4948        0.0000        6.9421        6.9421       5.447275       0.00000
  50    .07753        1.4948        0.0000        6.9421        6.9421       5.447274       0.00079
  49    .09103        1.4948        0.0000        6.9421        6.9421       5.447273       0.00078
  48    0.1069        1.4948        0.0000        6.9421        6.9421       5.447271       0.00076
  47    0.1255        1.4948        0.0000        6.9421        6.9421       5.447270       0.00074
  46    0.1487        1.4948        0.0000        6.9421        6.9421       5.447268       0.00075
  45    0.1794        1.4948        0.0000        6.9421        6.9421       5.447265       0.00077
  44    0.2165        1.4948        0.0000        6.9421        6.9421       5.447261       0.00076
  43    0.2613        1.4948        0.0000        6.9420        6.9420       5.447258       0.00074
  42    0.3336        1.4948        0.0000        6.9420        6.9420       5.447251       0.00076
  41    0.4307        1.4948        0.0000        6.9420        6.9420       5.447242       0.00077
  40    0.5894        1.4948        0.0000        6.9420        6.9420       5.447227       0.00079
  39     1.339        1.4948        0.0000        6.9419        6.9419       5.447138       0.00100
  38     1.782        1.4948        0.0000        6.9418        6.9419       5.447069       0.00132
  37     2.292        1.4948        0.0000        6.9418        6.9418       5.446976       0.00155
  36     2.964        1.4948        0.0000        6.9416        6.9416       5.446836       0.00175
  35     3.853        1.4948        0.0000        6.9414        6.9414       5.446630       0.00196
  34     5.035        1.4948        0.0000        6.9411        6.9411       5.446325       0.00218
  33     6.613        1.4948        0.0000        6.9406        6.9406       5.445877       0.00239
  32     8.786        1.4948        0.0000        6.9399        6.9400       5.445217       0.00256
  31     11.80        1.4948        0.0000        6.9389        6.9389       5.444183       0.00290
  30     15.07        1.4947        0.0001        6.9377        6.9377       5.442973       0.00312
  29     18.79        1.4947        0.0001        6.9362        6.9363       5.441515       0.00331
  28     23.16        1.4947        0.0001        6.9343        6.9344       5.439712       0.00349
  27     28.12        1.4947        0.0001        6.9321        6.9322       5.437539       0.00369
  26     33.73        1.4947        0.0001        6.9294        6.9296       5.434874       0.00401
  25     40.54        1.4947        0.0002        6.9258        6.9260       5.431280       0.00446
  24     48.69        1.4947        0.0002        6.9210        6.9212       5.426523       0.00492
  23     57.69        1.4946        0.0002        6.9154        6.9156       5.420928       0.00524
  22     68.43        1.4946        0.0003        6.9083        6.9086       5.413973       0.00547
  21     81.20        1.4946        0.0003        6.8998        6.9001       5.405471       0.00562
  20     96.49        1.4946        0.0004        6.8894        6.8898       5.395204       0.00567
  19     114.6        1.4946        0.0004        6.8765        6.8770       5.382355       0.00600
  18     136.5        1.4946        0.0005        6.8610        6.8615       5.366859       0.00596
  17     162.9        1.4947        0.0006        6.8417        6.8423       5.347589       0.00616
  16     196.4        1.4948        0.0007        6.8147        6.8154       5.320567       0.00680
  15     218.7        1.4950        0.0008        6.7948        6.7957       5.300670       0.00755
  14     243.0        1.4953        0.0009        6.7698        6.7707       5.275440       0.00875
  13     269.0        1.4957        0.0010        6.7349        6.7359       5.240157       0.01145
  12     297.5        1.4964        0.0011        6.6869        6.6880       5.191552       0.01442
  11     328.5        1.4974        0.0012        6.6194        6.6206       5.123141       0.01860
  10     361.9        1.4988        0.0013        6.5295        6.5308       5.031969       0.02307
   9     398.1        1.5006        0.0015        6.4202        6.4217       4.921029       0.02585
   8     437.6        1.5030        0.0016        6.2962        6.2977       4.794723       0.02701
   7     480.5        1.5062        0.0017        6.1555        6.1572       4.650934       0.02824
   6     533.0        1.5114        0.0018        5.9675        5.9694       4.457942       0.03105
   5     589.8        1.5189        0.0020        5.7368        5.7387       4.219849       0.03534
   4     651.6        1.5297        0.0021        5.4662        5.4683       3.938677       0.03845
   3     718.7        1.5444        0.0022        5.1912        5.1934       3.649054       0.03640
   2     792.3        1.5633        0.0024        4.9395        4.9418       3.378516       0.03103
   1     891.5        1.5958        0.0025        4.6486        4.6512       3.055395       0.02750
   0    1013.0        1.6539        0.0027        4.3179        4.3206       2.666741       0.02699



 Wavenumbers:  4650. -  5150. cm-1, ATM      1
 LEVEL PRESSURE   UPWARD FLUX   DIFDOWN FLUX  DIRDOWN FLUX  DOWNWARD FLUX   NET FLUX    HEATING RATE
          mb          W/m2          W/m2          W/m2        W/m2          W/m2       degree/day
  51    .06700        1.0095        0.0000        6.5710        6.5710       5.561454       0.00000
  50    .07753        1.0095        0.0000        6.5708        6.5708       5.561218       0.18887
  49    .09103        1.0095        0.0000        6.5705        6.5705       5.560925       0.18362
  48    0.1069        1.0095        0.0000        6.5701        6.5701       5.560590       0.17806
  47    0.1255        1.0095        0.0000        6.5697        6.5697       5.560210       0.17238
  46    0.1487        1.0095        0.0000        6.5693        6.5693       5.559736       0.17268
  45    0.1794        1.0095        0.0000        6.5686        6.5686       5.559100       0.17473
  44    0.2165        1.0095        0.0000        6.5679        6.5679       5.558362       0.16788
  43    0.2613        1.0095        0.0000        6.5670        6.5670       5.557509       0.16078
  42    0.3336        1.0095        0.0000        6.5657        6.5657       5.556145       0.15894
  41    0.4307        1.0095        0.0000        6.5640        6.5640       5.554424       0.14971
  40    0.5894        1.0095        0.0000        6.5613        6.5613       5.551807       0.13913
  39     1.339        1.0095        0.0000        6.5516        6.5516       5.542030       0.11008
  38     1.782        1.0095        0.0000        6.5473        6.5473       5.537814       0.08026
  37     2.292        1.0095        0.0000        6.5434        6.5435       5.533927       0.06438
  36     2.964        1.0095        0.0000        6.5395        6.5395       5.529973       0.04964
  35     3.853        1.0095        0.0000        6.5355        6.5356       5.526030       0.03742
  34     5.035        1.0095        0.0000        6.5315        6.5315       5.522028       0.02859
  33     6.613        1.0095        0.0000        6.5271        6.5271       5.517633       0.02349
  32     8.786        1.0095        0.0001        6.5216        6.5216       5.512138       0.02134
  31     11.80        1.0095        0.0001        6.5135        6.5135       5.504060       0.02262
  30     15.07        1.0095        0.0001        6.5041        6.5042       5.494691       0.02419
  29     18.79        1.0095        0.0001        6.4925        6.4926       5.483175       0.02611
  28     23.16        1.0094        0.0001        6.4779        6.4780       5.468583       0.02822
  27     28.12        1.0094        0.0002        6.4599        6.4600       5.450608       0.03056
  26     33.73        1.0094        0.0002        6.4384        6.4386       5.429176       0.03222
  25     40.54        1.0094        0.0002        6.4112        6.4115       5.402051       0.03365
  24     48.69        1.0094        0.0003        6.3775        6.3778       5.368415       0.03481
  23     57.69        1.0094        0.0003        6.3404        6.3407       5.331324       0.03477
  22     68.43        1.0094        0.0004        6.2971        6.2975       5.288136       0.03395
  21     81.20        1.0094        0.0005        6.2483        6.2487       5.239324       0.03225
  20     96.49        1.0094        0.0005        6.1948        6.1954       5.185957       0.02945
  19     114.6        1.0095        0.0006        6.1381        6.1388       5.129329       0.02644
  18     136.5        1.0095        0.0008        6.0790        6.0798       5.070228       0.02273
  17     162.9        1.0097        0.0009        6.0160        6.0169       5.007280       0.02012
  16     196.4        1.0099        0.0011        5.9399        5.9409       4.931050       0.01919
  15     218.7        1.0101        0.0012        5.8896        5.8908       4.880721       0.01911
  14     243.0        1.0104        0.0013        5.8322        5.8335       4.823095       0.01999
  13     269.0        1.0108        0.0014        5.7624        5.7638       4.752973       0.02275
  12     297.5        1.0116        0.0016        5.6767        5.6783       4.666729       0.02558
  11     328.5        1.0126        0.0017        5.5726        5.5743       4.561729       0.02855
  10     361.9        1.0139        0.0018        5.4473        5.4492       4.435220       0.03201
   9     398.1        1.0158        0.0020        5.2995        5.3015       4.285633       0.03485
   8     437.6        1.0184        0.0021        5.1275        5.1296       4.111206       0.03729
   7     480.5        1.0219        0.0023        4.9290        4.9312       3.909358       0.03964
   6     533.0        1.0274        0.0024        4.6794        4.6818       3.654400       0.04101
   5     589.8        1.0351        0.0025        4.4188        4.4213       3.386269       0.03980
   4     651.6        1.0458        0.0027        4.1521        4.1548       3.108954       0.03792
   3     718.7        1.0601        0.0028        3.8929        3.8957       2.835607       0.03435
   2     792.3        1.0787        0.0029        3.6469        3.6498       2.571128       0.03033
   1     891.5        1.1102        0.0031        3.3535        3.3565       2.246331       0.02764
   0    1013.0        1.1642        0.0032        3.0383        3.0416       1.877341       0.02562



 Wavenumbers:  5150. -  6150. cm-1, ATM      1
 LEVEL PRESSURE   UPWARD FLUX   DIFDOWN FLUX  DIRDOWN FLUX  DOWNWARD FLUX   NET FLUX    HEATING RATE
          mb          W/m2          W/m2          W/m2        W/m2          W/m2       degree/day
  51    .06700        2.7269        0.0000       16.4735       16.4735      13.746560       0.00000
  50    .07753        2.7269        0.0000       16.4735       16.4735      13.746526       0.02761
  49    .09103        2.7269        0.0000       16.4734       16.4734      13.746481       0.02811
  48    0.1069        2.7269        0.0000       16.4734       16.4734      13.746427       0.02860
  47    0.1255        2.7269        0.0000       16.4733       16.4733      13.746363       0.02905
  46    0.1487        2.7269        0.0000       16.4732       16.4732      13.746279       0.03060
  45    0.1794        2.7269        0.0000       16.4731       16.4731      13.746160       0.03269
  44    0.2165        2.7269        0.0000       16.4730       16.4730      13.746013       0.03331
  43    0.2613        2.7269        0.0000       16.4728       16.4728      13.745834       0.03376
  42    0.3336        2.7269        0.0000       16.4725       16.4725      13.745528       0.03565
  41    0.4307        2.7269        0.0000       16.4720       16.4720      13.745109       0.03646
  40    0.5894        2.7269        0.0000       16.4713       16.4713      13.744408       0.03729
  39     1.339        2.7269        0.0000       16.4679       16.4679      13.740999       0.03838
  38     1.782        2.7269        0.0000       16.4659       16.4659      13.738999       0.03807
  37     2.292        2.7269        0.0001       16.4635       16.4636      13.736707       0.03796
  36     2.964        2.7269        0.0001       16.4605       16.4606      13.733737       0.03729
  35     3.853        2.7269        0.0001       16.4567       16.4568      13.729882       0.03658
  34     5.035        2.7268        0.0001       16.4516       16.4517      13.724883       0.03571
  33     6.613        2.7268        0.0002       16.4451       16.4452      13.718420       0.03455
  32     8.786        2.7268        0.0002       16.4367       16.4369      13.710104       0.03230
  31     11.80        2.7267        0.0003       16.4254       16.4257      13.698947       0.03124
  30     15.07        2.7267        0.0004       16.4141       16.4145      13.687853       0.02864
  29     18.79        2.7266        0.0005       16.4024       16.4029      13.676323       0.02614
  28     23.16        2.7265        0.0006       16.3900       16.3906      13.664050       0.02373
  27     28.12        2.7265        0.0007       16.3771       16.3778      13.651373       0.02155
  26     33.73        2.7264        0.0009       16.3641       16.3650      13.638629       0.01916
  25     40.54        2.7263        0.0011       16.3502       16.3513      13.624966       0.01695
  24     48.69        2.7262        0.0013       16.3354       16.3366      13.610463       0.01501
  23     57.69        2.7261        0.0015       16.3211       16.3226      13.596527       0.01306
  22     68.43        2.7260        0.0018       16.3062       16.3080      13.582093       0.01135
  21     81.20        2.7258        0.0021       16.2903       16.2925      13.566645       0.01021
  20     96.49        2.7257        0.0025       16.2726       16.2752      13.549502       0.00946
  19     114.6        2.7255        0.0030       16.2521       16.2551      13.529604       0.00929
  18     136.5        2.7253        0.0036       16.2245       16.2281      13.502840       0.01029
  17     162.9        2.7251        0.0042       16.1747       16.1790      13.453928       0.01563
  16     196.4        2.7248        0.0051       16.0518       16.0569      13.332149       0.03065
  15     218.7        2.7246        0.0056       15.8984       15.9040      13.179380       0.05800
  14     243.0        2.7245        0.0062       15.6153       15.6214      12.896936       0.09796
  13     269.0        2.7244        0.0067       15.1390       15.1457      12.421251       0.15431
  12     297.5        2.7245        0.0072       14.5779       14.5851      11.860608       0.16628
  11     328.5        2.7247        0.0077       13.8780       13.8857      11.160997       0.19022
  10     361.9        2.7251        0.0081       13.0814       13.0895      10.364387       0.20155
   9     398.1        2.7259        0.0084       12.2728       12.2813       9.555402       0.18848
   8     437.6        2.7271        0.0088       11.4776       11.4863       8.759243       0.17022
   7     480.5        2.7290        0.0090       10.7300       10.7390       8.010003       0.14715
   6     533.0        2.7325        0.0094       10.0326       10.0420       7.309543       0.11268
   5     589.8        2.7379        0.0099        9.5050        9.5149       6.777028       0.07904
   4     651.6        2.7462        0.0104        9.0814        9.0918       6.345583       0.05900
   3     718.7        2.7583        0.0111        8.7024        8.7135       5.955266       0.04905
   2     792.3        2.7746        0.0118        8.3379        8.3498       5.575147       0.04360
   1     891.5        2.8046        0.0127        7.9064        7.9191       5.114447       0.03920
   0    1013.0        2.8660        0.0137        7.4741        7.4878       4.621862       0.03420



 Wavenumbers:  6150. -  7700. cm-1, ATM      1
 LEVEL PRESSURE   UPWARD FLUX   DIFDOWN FLUX  DIRDOWN FLUX  DOWNWARD FLUX   NET FLUX    HEATING RATE
          mb          W/m2          W/m2          W/m2        W/m2          W/m2       degree/day
  51    .06700        4.0104        0.0000       30.4684       30.4684      26.457949       0.00000
  50    .07753        4.0104        0.0000       30.4683       30.4683      26.457898       0.04144
  49    .09103        4.0104        0.0000       30.4683       30.4683      26.457831       0.04174
  48    0.1069        4.0104        0.0000       30.4682       30.4682      26.457752       0.04202
  47    0.1255        4.0104        0.0000       30.4681       30.4681      26.457659       0.04227
  46    0.1487        4.0104        0.0000       30.4680       30.4680      26.457538       0.04411
  45    0.1794        4.0104        0.0000       30.4678       30.4678      26.457368       0.04669
  44    0.2165        4.0104        0.0000       30.4676       30.4676      26.457160       0.04715
  43    0.2613        4.0104        0.0000       30.4673       30.4673      26.456909       0.04744
  42    0.3336        4.0104        0.0000       30.4669       30.4669      26.456482       0.04974
  41    0.4307        4.0104        0.0000       30.4663       30.4663      26.455901       0.05052
  40    0.5894        4.0104        0.0001       30.4653       30.4653      26.454933       0.05146
  39     1.339        4.0103        0.0001       30.4604       30.4606      26.450250       0.05273
  38     1.782        4.0103        0.0002       30.4576       30.4578      26.447500       0.05235
  37     2.292        4.0102        0.0002       30.4543       30.4546      26.444342       0.05231
  36     2.964        4.0101        0.0003       30.4501       30.4504      26.440234       0.05156
  35     3.853        4.0101        0.0004       30.4445       30.4449      26.434877       0.05084
  34     5.035        4.0099        0.0006       30.4373       30.4378      26.427877       0.05000
  33     6.613        4.0098        0.0007       30.4278       30.4285      26.418730       0.04890
  32     8.786        4.0096        0.0010       30.4154       30.4164      26.406777       0.04642
  31     11.80        4.0093        0.0013       30.3984       30.3997      26.390392       0.04587
  30     15.07        4.0090        0.0017       30.3810       30.3826      26.373678       0.04315
  29     18.79        4.0086        0.0021       30.3623       30.3644      26.355778       0.04059
  28     23.16        4.0082        0.0026       30.3417       30.3443      26.336095       0.03806
  27     28.12        4.0077        0.0031       30.3196       30.3227      26.314995       0.03587
  26     33.73        4.0071        0.0037       30.2965       30.3002      26.293076       0.03296
  25     40.54        4.0065        0.0045       30.2708       30.2752      26.268739       0.03019
  24     48.69        4.0057        0.0054       30.2423       30.2476      26.241962       0.02771
  23     57.69        4.0048        0.0063       30.2139       30.2202      26.215396       0.02490
  22     68.43        4.0038        0.0075       30.1834       30.1909      26.187121       0.02223
  21     81.20        4.0025        0.0089       30.1500       30.1589      26.156392       0.02031
  20     96.49        4.0010        0.0106       30.1126       30.1232      26.122174       0.01889
  19     114.6        3.9993        0.0126       30.0695       30.0821      26.082789       0.01839
  18     136.5        3.9972        0.0149       30.0139       30.0288      26.031634       0.01967
  17     162.9        3.9947        0.0177       29.9225       29.9402      25.945455       0.02755
  16     196.4        3.9916        0.0213       29.7333       29.7546      25.763063       0.04591
  15     218.7        3.9895        0.0236       29.5259       29.5494      25.559930       0.07712
  14     243.0        3.9873        0.0260       29.1375       29.1634      25.176095       0.13313
  13     269.0        3.9852        0.0282       28.3800       28.4083      24.423094       0.24427
  12     297.5        3.9831        0.0304       27.3895       27.4199      23.436868       0.29250
  11     328.5        3.9812        0.0324       26.2257       26.2581      22.276920       0.31539
  10     361.9        3.9798        0.0343       24.8453       24.8796      20.899814       0.34842
   9     398.1        3.9791        0.0359       23.3471       23.3830      19.403860       0.34852
   8     437.6        3.9795        0.0373       21.7966       21.8339      17.854357       0.33129
   7     480.5        3.9820        0.0383       20.1977       20.2361      16.254082       0.31429
   6     533.0        3.9883        0.0394       18.4969       18.5363      14.548021       0.27445
   5     589.8        4.0003        0.0405       16.9754       17.0159      13.015599       0.22746
   4     651.6        4.0208        0.0415       15.6022       15.6437      11.622899       0.19046
   3     718.7        4.0520        0.0428       14.4232       14.4660      10.413967       0.15193
   2     792.3        4.0956        0.0442       13.4386       13.4829       9.387260       0.11775
   1     891.5        4.1767        0.0463       12.3736       12.4199       8.243208       0.09735
   0    1013.0        4.3395        0.0485       11.2911       11.3397       7.000127       0.08631



 Wavenumbers:  7700. -  8050. cm-1, ATM      1
 LEVEL PRESSURE   UPWARD FLUX   DIFDOWN FLUX  DIRDOWN FLUX  DOWNWARD FLUX   NET FLUX    HEATING RATE
          mb          W/m2          W/m2          W/m2        W/m2          W/m2       degree/day
  51    .06700        2.0813        0.0000        7.2006        7.2006       5.119269       0.00000
  50    .07753        2.0813        0.0000        7.2006        7.2006       5.119250       0.01527
  49    .09103        2.0813        0.0000        7.2005        7.2005       5.119226       0.01497
  48    0.1069        2.0813        0.0000        7.2005        7.2005       5.119198       0.01465
  47    0.1255        2.0813        0.0000        7.2005        7.2005       5.119167       0.01434
  46    0.1487        2.0813        0.0000        7.2004        7.2005       5.119127       0.01455
  45    0.1794        2.0813        0.0000        7.2004        7.2004       5.119072       0.01497
  44    0.2165        2.0813        0.0000        7.2003        7.2003       5.119008       0.01469
  43    0.2613        2.0813        0.0000        7.2003        7.2003       5.118931       0.01441
  42    0.3336        2.0813        0.0000        7.2001        7.2001       5.118805       0.01475
  41    0.4307        2.0813        0.0000        7.2000        7.2000       5.118637       0.01458
  40    0.5894        2.0814        0.0000        7.1997        7.1997       5.118363       0.01457
  39     1.339        2.0814        0.0001        7.1984        7.1985       5.117068       0.01458
  38     1.782        2.0815        0.0001        7.1977        7.1978       5.116307       0.01448
  37     2.292        2.0815        0.0001        7.1968        7.1969       5.115427       0.01458
  36     2.964        2.0816        0.0001        7.1957        7.1958       5.114272       0.01450
  35     3.853        2.0816        0.0002        7.1942        7.1944       5.112746       0.01448
  34     5.035        2.0817        0.0002        7.1922        7.1925       5.110721       0.01447
  33     6.613        2.0819        0.0003        7.1896        7.1899       5.108019       0.01445
  32     8.786        2.0821        0.0004        7.1860        7.1864       5.104383       0.01412
  31     11.80        2.0823        0.0005        7.1810        7.1815       5.099192       0.01453
  30     15.07        2.0826        0.0007        7.1755        7.1762       5.093635       0.01435
  29     18.79        2.0829        0.0009        7.1694        7.1703       5.087378       0.01419
  28     23.16        2.0833        0.0011        7.1623        7.1634       5.080096       0.01408
  27     28.12        2.0837        0.0013        7.1542        7.1555       5.071805       0.01409
  26     33.73        2.0842        0.0015        7.1452        7.1468       5.062574       0.01388
  25     40.54        2.0848        0.0018        7.1344        7.1363       5.051489       0.01375
  24     48.69        2.0855        0.0022        7.1215        7.1237       5.038221       0.01373
  23     57.69        2.0863        0.0026        7.1074        7.1101       5.023769       0.01355
  22     68.43        2.0872        0.0031        7.0909        7.0940       5.006722       0.01340
  21     81.20        2.0884        0.0037        7.0713        7.0750       4.986642       0.01327
  20     96.49        2.0897        0.0043        7.0484        7.0528       4.963037       0.01303
  19     114.6        2.0914        0.0051        7.0217        7.0268       4.935446       0.01288
  18     136.5        2.0934        0.0061        6.9906        6.9967       4.903332       0.01235
  17     162.9        2.0957        0.0072        6.9544        6.9616       4.865874       0.01197
  16     196.4        2.0989        0.0087        6.9087        6.9174       4.818502       0.01192
  15     218.7        2.1010        0.0096        6.8794        6.8891       4.788019       0.01157
  14     243.0        2.1034        0.0107        6.8481        6.8588       4.755392       0.01132
  13     269.0        2.1060        0.0118        6.8147        6.8265       4.720500       0.01132
  12     297.5        2.1089        0.0130        6.7791        6.7921       4.683154       0.01108
  11     328.5        2.1122        0.0143        6.7409        6.7552       4.643060       0.01090
  10     361.9        2.1158        0.0157        6.7002        6.7158       4.599979       0.01090
   9     398.1        2.1200        0.0172        6.6563        6.6734       4.553401       0.01085
   8     437.6        2.1248        0.0187        6.6089        6.6276       4.502794       0.01082
   7     480.5        2.1304        0.0204        6.5570        6.5774       4.447061       0.01095
   6     533.0        2.1379        0.0225        6.4915        6.5140       4.376083       0.01142
   5     589.8        2.1470        0.0247        6.4182        6.4430       4.295987       0.01189
   4     651.6        2.1580        0.0271        6.3359        6.3630       4.204978       0.01245
   3     718.7        2.1712        0.0296        6.2441        6.2737       4.102511       0.01288
   2     792.3        2.1868        0.0322        6.1437        6.1759       3.989141       0.01300
   1     891.5        2.2103        0.0356        6.0042        6.0398       3.829507       0.01358
   0    1013.0        2.2439        0.0397        5.8249        5.8646       3.620653       0.01450



 Wavenumbers:  8050. - 12850. cm-1, ATM      1
 LEVEL PRESSURE   UPWARD FLUX   DIFDOWN FLUX  DIRDOWN FLUX  DOWNWARD FLUX   NET FLUX    HEATING RATE
          mb          W/m2          W/m2          W/m2        W/m2          W/m2       degree/day
  51    .06700       26.8147        0.0000      100.8135      100.8135      73.998807       0.00000
  50    .07753       26.8147        0.0000      100.8135      100.8135      73.998807       0.00000
  49    .09103       26.8147        0.0001      100.8134      100.8135      73.998807       0.00000
  48    0.1069       26.8146        0.0001      100.8134      100.8134      73.998807       0.00000
  47    0.1255       26.8146        0.0001      100.8133      100.8134      73.998807      -0.00000
  46    0.1487       26.8146        0.0002      100.8132      100.8134      73.998807       0.00000
  45    0.1794       26.8145        0.0003      100.8131      100.8133      73.998807       0.00000
  44    0.2165       26.8144        0.0003      100.8129      100.8133      73.998807      -0.00000
  43    0.2613       26.8144        0.0004      100.8127      100.8132      73.998807       0.00000
  42    0.3336       26.8142        0.0006      100.8125      100.8131      73.998807       0.00000
  41    0.4307       26.8141        0.0008      100.8121      100.8129      73.998807       0.00000
  40    0.5894       26.8138        0.0012      100.8115      100.8126      73.998807      -0.00000
  39     1.339       26.8125        0.0028      100.8085      100.8113      73.998807       0.00000
  38     1.782       26.8118        0.0038      100.8068      100.8106      73.998807       0.00000
  37     2.292       26.8109        0.0049      100.8047      100.8097      73.998807       0.00000
  36     2.964       26.8097        0.0064      100.8021      100.8085      73.998807      -0.00000
  35     3.853       26.8082        0.0084      100.7986      100.8070      73.998807       0.00000
  34     5.035       26.8062        0.0110      100.7940      100.8050      73.998807       0.00000
  33     6.613       26.8035        0.0145      100.7878      100.8023      73.998807       0.00000
  32     8.786       26.7998        0.0192      100.7794      100.7986      73.998807       0.00000
  31     11.80       26.7946        0.0259      100.7674      100.7934      73.998807      -0.00000
  30     15.07       26.7889        0.0332      100.7546      100.7877      73.998807       0.00000
  29     18.79       26.7826        0.0414      100.7400      100.7814      73.998807       0.00000
  28     23.16       26.7751        0.0510      100.7230      100.7739      73.998807      -0.00000
  27     28.12       26.7666        0.0619      100.7035      100.7654      73.998807       0.00000
  26     33.73       26.7571        0.0742      100.6817      100.7559      73.998807       0.00000
  25     40.54       26.7455        0.0891      100.6552      100.7443      73.998807       0.00000
  24     48.69       26.7316        0.1070      100.6234      100.7304      73.998807       0.00000
  23     57.69       26.7162        0.1267      100.5883      100.7150      73.998807       0.00000
  22     68.43       26.6979        0.1503      100.5464      100.6967      73.998807       0.00000
  21     81.20       26.6761        0.1784      100.4965      100.6749      73.998807      -0.00000
  20     96.49       26.6500        0.2119      100.4370      100.6488      73.998807      -0.00000
  19     114.6       26.6191        0.2517      100.3585      100.6102      73.991113       0.00359
  18     136.5       26.5823        0.2990      100.2634      100.5624      73.980039       0.00426
  17     162.9       26.5385        0.3554      100.1407      100.4961      73.957570       0.00718
  16     196.4       26.4816        0.4286       99.9505      100.3792      73.897542       0.01511
  15     218.7       26.4442        0.4768       99.7889      100.2657      73.821506       0.02887
  14     243.0       26.4036        0.5290       99.5472      100.0762      73.672551       0.05166
  13     269.0       26.3601        0.5852       99.1452       99.7305      73.370364       0.09803
  12     297.5       26.3139        0.6456       98.5975       99.2430      72.929085       0.13088
  11     328.5       26.2656        0.7101       97.8659       98.5760      72.310403       0.16822
  10     361.9       26.2159        0.7787       96.8848       97.6634      71.447510       0.21832
   9     398.1       26.1661        0.8510       95.6330       96.4839      70.317847       0.26319
   8     437.6       26.1182        0.9265       94.0655       94.9920      68.873759       0.30875
   7     480.5       26.0767        1.0044       92.0807       93.0852      67.008438       0.36634
   6     533.0       26.0421        1.0962       89.4449       90.5411      64.499014       0.40369
   5     589.8       26.0288        1.1908       86.5544       87.7452      61.716315       0.41304
   4     651.6       26.0502        1.2876       83.4174       84.7050      58.654788       0.41867
   3     718.7       26.1139        1.3873       80.2037       81.5910      55.477104       0.39935
   2     792.3       26.2272        1.4907       77.0811       78.5718      52.344547       0.35927
   1     891.5       26.4755        1.6239       73.2645       74.8884      48.412902       0.33456
   0    1013.0       27.0224        1.7716       68.9425       70.7141      43.691674       0.32782



 Wavenumbers: 12850. - 16000. cm-1, ATM      1
 LEVEL PRESSURE   UPWARD FLUX   DIFDOWN FLUX  DIRDOWN FLUX  DOWNWARD FLUX   NET FLUX    HEATING RATE
          mb          W/m2          W/m2          W/m2        W/m2          W/m2       degree/day
  51    .06700       34.8779        0.0000       63.1686       63.1686      28.290723       0.00000
  50    .07753       34.8778        0.0001       63.1677       63.1678      28.289944       0.62471
  49    .09103       34.8778        0.0001       63.1666       63.1668      28.288972       0.60710
  48    0.1069       34.8778        0.0002       63.1654       63.1656      28.287866       0.58869
  47    0.1255       34.8777        0.0003       63.1640       63.1643      28.286609       0.57020
  46    0.1487       34.8777        0.0004       63.1623       63.1627      28.285040       0.57174
  45    0.1794       34.8776        0.0006       63.1600       63.1606      28.282937       0.57737
  44    0.2165       34.8776        0.0008       63.1573       63.1581      28.280505       0.55320
  43    0.2613       34.8775        0.0010       63.1542       63.1552      28.277700       0.52867
  42    0.3336       34.8774        0.0014       63.1493       63.1507      28.273232       0.52091
  41    0.4307       34.8774        0.0019       63.1431       63.1450      28.267646       0.48574
  40    0.5894       34.8773        0.0027       63.1338       63.1365      28.259187       0.44985
  39     1.339       34.8784        0.0066       63.0956       63.1021      28.223709       0.39942
  38     1.782       34.8800        0.0088       63.0740       63.0829      28.202863       0.39686
  37     2.292       34.8827        0.0115       63.0477       63.0591      28.176449       0.43748
  36     2.964       34.8875        0.0149       63.0095       63.0244      28.136919       0.49622
  35     3.853       34.8958        0.0195       62.9533       62.9727      28.076945       0.56917
  34     5.035       34.9086        0.0255       62.8725       62.8980      27.989430       0.62517
  33     6.613       34.9266        0.0335       62.7621       62.7956      27.869011       0.64376
  32     8.786       34.9499        0.0444       62.6182       62.6626      27.712707       0.60703
  31     11.80       34.9796        0.0598       62.4284       62.4882      27.508539       0.57161
  30     15.07       35.0074        0.0764       62.2426       62.3190      27.311634       0.50837
  29     18.79       35.0349        0.0950       62.0493       62.1443      27.109472       0.45836
  28     23.16       35.0626        0.1168       61.8424       61.9592      26.896603       0.41162
  27     28.12       35.0893        0.1416       61.6278       61.7694      26.680131       0.36799
  26     33.73       35.1118        0.1693       61.4177       61.5870      26.475172       0.30816
  25     40.54       35.1306        0.2027       61.1983       61.4010      26.270453       0.25398
  24     48.69       35.1450        0.2429       60.9680       61.2109      26.065941       0.21164
  23     57.69       35.1528        0.2870       60.7478       61.0348      25.881990       0.17243
  22     68.43       35.1536        0.3395       60.5202       60.8597      25.706082       0.13829
  21     81.20       35.1428        0.4020       60.2938       60.6958      25.553066       0.10111
  20     96.49       35.1190        0.4764       60.0643       60.5407      25.421763       0.07247
  19     114.6       35.0917        0.5654       59.8078       60.3731      25.281429       0.06553
  18     136.5       35.0544        0.6705       59.5157       60.1862      25.131879       0.05751
  17     162.9       35.0053        0.7954       59.1770       59.9725      24.967192       0.05264
  16     196.4       34.9318        0.9570       58.7604       59.7174      24.785588       0.04571
  15     218.7       34.8801        1.0628       58.4948       59.5576      24.677523       0.04103
  14     243.0       34.8223        1.1776       58.2089       59.3865      24.564190       0.03931
  13     269.0       34.7583        1.3017       57.9006       59.2023      24.443942       0.03901
  12     297.5       34.6882        1.4355       57.5668       59.0023      24.314059       0.03852
  11     328.5       34.6128        1.5797       57.2005       58.7801      24.167376       0.03988
  10     361.9       34.5326        1.7344       56.7963       58.5308      23.998146       0.04282
   9     398.1       34.4483        1.9004       56.3475       58.2479      23.799581       0.04626
   8     437.6       34.3615        2.0777       55.8422       57.9200      23.558491       0.05155
   7     480.5       34.2752        2.2667       55.2625       57.5292      23.254041       0.05979
   6     533.0       34.1803        2.4972       54.4972       56.9943      22.814047       0.07078
   5     589.8       34.0923        2.7423       53.6307       56.3730      22.280742       0.07916
   4     651.6       34.0172        3.0013       52.6606       55.6618      21.644671       0.08698
   3     718.7       33.9579        3.2743       51.6100       54.8843      20.926384       0.09027
   2     792.3       33.9185        3.5612       50.5019       54.0630      20.144496       0.08967
   1     891.5       33.9141        3.9392       49.0197       52.9589      19.044797       0.09358
   0    1013.0       34.0075        4.3773       47.2289       51.6062      17.598689       0.10041



 Wavenumbers: 16000. - 22650. cm-1, ATM      1
 LEVEL PRESSURE   UPWARD FLUX   DIFDOWN FLUX  DIRDOWN FLUX  DOWNWARD FLUX   NET FLUX    HEATING RATE
          mb          W/m2          W/m2          W/m2        W/m2          W/m2       degree/day
  51    .06700       79.1082        0.0000      100.7153      100.7153      21.607069       0.00000
  50    .07753       79.1081        0.0003      100.7147      100.7151      21.606951       0.09512
  49    .09103       79.1080        0.0007      100.7140      100.7147      21.606778       0.10789
  48    0.1069       79.1078        0.0012      100.7131      100.7144      21.606547       0.12303
  47    0.1255       79.1076        0.0018      100.7121      100.7139      21.606238       0.14024
  46    0.1487       79.1074        0.0025      100.7108      100.7132      21.605782       0.16618
  45    0.1794       79.1072        0.0034      100.7089      100.7123      21.605069       0.19566
  44    0.2165       79.1070        0.0045      100.7066      100.7111      21.604102       0.21990
  43    0.2613       79.1067        0.0058      100.7037      100.7095      21.602791       0.24722
  42    0.3336       79.1064        0.0080      100.6987      100.7067      21.600297       0.29072
  41    0.4307       79.1062        0.0109      100.6918      100.7027      21.596539       0.32679
  40    0.5894       79.1061        0.0157      100.6797      100.6954      21.589371       0.38117
  39     1.339       79.1112        0.0381      100.6095      100.6476      21.536425       0.59608
  38     1.782       79.1185        0.0513      100.5585      100.6098      21.491335       0.85845
  37     2.292       79.1307        0.0666      100.4903      100.5568      21.426086       1.08069
  36     2.964       79.1529        0.0866      100.3868      100.4734      21.320431       1.32629
  35     3.853       79.1907        0.1130      100.2306      100.3436      21.152900       1.58990
  34     5.035       79.2493        0.1480      100.0045      100.1525      20.903222       1.78360
  33     6.613       79.3318        0.1947       99.6939       99.8886      20.556762       1.85218
  32     8.786       79.4387        0.2575       99.2881       99.5455      20.106840       1.74733
  31     11.80       79.5752        0.3470       98.7496       99.0966      19.521351       1.63918
  30     15.07       79.7028        0.4428       98.2198       98.6626      18.959789       1.44984
  29     18.79       79.8298        0.5506       97.6651       98.2157      18.385947       1.30108
  28     23.16       79.9583        0.6760       97.0671       97.7432      17.784869       1.16229
  27     28.12       80.0823        0.8190       96.4406       97.2596      17.177275       1.03287
  26     33.73       80.1879        0.9784       95.8179       96.7963      16.608438       0.85526
  25     40.54       80.2772        1.1704       95.1548       96.3252      16.048079       0.69519
  24     48.69       80.3477        1.4010       94.4420       95.8430      15.495219       0.57212
  23     57.69       80.3895        1.6532       93.7416       95.3948      15.005351       0.45918
  22     68.43       80.4008        1.9525       92.9954       94.9478      14.547048       0.36029
  21     81.20       80.3615        2.3076       92.2231       94.5307      14.169203       0.24967
  20     96.49       80.2661        2.7288       91.4110       94.1398      13.873670       0.16311
  19     114.6       80.1290        3.2256       90.5070       93.7326      13.603594       0.12611
  18     136.5       79.9509        3.8095       89.4803       93.2898      13.338879       0.10179
  17     162.9       79.7255        4.4981       88.3022       92.8003      13.074789       0.08441
  16     196.4       79.4031        5.3808       86.8606       92.2414      12.838349       0.05951
  15     218.7       79.1811        5.9543       85.9492       91.9035      12.722344       0.04404
  14     243.0       78.9361        6.5721       84.9789       91.5510      12.614938       0.03725
  13     269.0       78.6668        7.2352       83.9493       91.1845      12.517654       0.03156
  12     297.5       78.3727        7.9444       82.8589       90.8033      12.430622       0.02581
  11     328.5       78.0553        8.7022       81.6982       90.4004      12.345189       0.02323
  10     361.9       77.7145        9.5084       80.4669       89.9754      12.260834       0.02134
   9     398.1       77.3497       10.3649       79.1611       89.5261      12.176347       0.01968
   8     437.6       76.9614       11.2721       77.7777       89.0498      12.088398       0.01880
   7     480.5       76.5500       12.2303       76.3136       88.5439      11.993856       0.01857
   6     533.0       76.0514       13.3898       74.5359       87.9256      11.874211       0.01925
   5     589.8       75.5250       14.6153       72.6469       87.2622      11.737283       0.02032
   4     651.6       74.9731       15.9049       70.6456       86.5505      11.577378       0.02187
   3     718.7       74.3966       17.2565       68.5367       85.7932      11.396590       0.02272
   2     792.3       73.7984       18.6647       66.3287       84.9934      11.195005       0.02312
   1     891.5       73.0255       20.5022       63.4246       83.9268      10.901270       0.02500
   0    1013.0       72.1536       22.6132       60.0483       82.6615      10.507898       0.02731



 Wavenumbers: 22650. - 29000. cm-1, ATM      1
 LEVEL PRESSURE   UPWARD FLUX   DIFDOWN FLUX  DIRDOWN FLUX  DOWNWARD FLUX   NET FLUX    HEATING RATE
          mb          W/m2          W/m2          W/m2        W/m2          W/m2       degree/day
  51    .06700       34.1536        0.0000       38.0063       38.0063       3.852664       0.00000
  50    .07753       34.1535        0.0004       38.0057       38.0061       3.852664       0.00000
  49    .09103       34.1532        0.0009       38.0050       38.0059       3.852664       0.00000
  48    0.1069       34.1530        0.0014       38.0042       38.0057       3.852664      -0.00000
  47    0.1255       34.1527        0.0021       38.0033       38.0054       3.852664       0.00000
  46    0.1487       34.1524        0.0029       38.0022       38.0050       3.852664       0.00000
  45    0.1794       34.1519        0.0040       38.0006       38.0046       3.852664       0.00000
  44    0.2165       34.1513        0.0053       37.9987       38.0040       3.852664       0.00000
  43    0.2613       34.1507        0.0068       37.9965       38.0033       3.852664      -0.00000
  42    0.3336       34.1496        0.0094       37.9928       38.0022       3.852664       0.00000
  41    0.4307       34.1481        0.0128       37.9880       38.0007       3.852664       0.00000
  40    0.5894       34.1457        0.0183       37.9800       37.9983       3.852664       0.00000
  39     1.339       34.1343        0.0445       37.9425       37.9870       3.852664      -0.00000
  38     1.782       34.1276        0.0599       37.9204       37.9803       3.852664       0.00000
  37     2.292       34.1199        0.0777       37.8949       37.9726       3.852664      -0.00000
  36     2.964       34.1098        0.1010       37.8614       37.9624       3.852664       0.00000
  35     3.853       34.0964        0.1318       37.8172       37.9490       3.852664       0.00000
  34     5.035       34.0786        0.1727       37.7586       37.9313       3.852664      -0.00000
  33     6.613       34.0549        0.2273       37.6803       37.9076       3.852664       0.00000
  32     8.786       34.0230        0.3006       37.5750       37.8757       3.852664      -0.00000
  31     11.80       33.9775        0.4053       37.4249       37.8302       3.852664       0.00000
  30     15.07       33.9288        0.5173       37.2642       37.7815       3.852664       0.00000
  29     18.79       33.8739        0.6433       37.0833       37.7266       3.852664       0.00000
  28     23.16       33.8101        0.7898       36.8730       37.6628       3.852664      -0.00000
  27     28.12       33.7375        0.9564       36.6338       37.5902       3.852664       0.00000
  26     33.73       33.6567        1.1417       36.3677       37.5094       3.852664       0.00000
  25     40.54       33.5597        1.3638       36.0486       37.4124       3.852664      -0.00000
  24     48.69       33.4437        1.6292       35.6672       37.2964       3.852664      -0.00000
  23     57.69       33.3175        1.9175       35.2527       37.1702       3.852664       0.00000
  22     68.43       33.1689        2.2566       34.7649       37.0215       3.852664      -0.00000
  21     81.20       32.9941        2.6545       34.1922       36.8468       3.852664       0.00000
  20     96.49       32.7891        3.1201       33.5217       36.6418       3.852664      -0.00000
  19     114.6       32.5504        3.6607       32.7424       36.4031       3.852664       0.00000
  18     136.5       32.2739        4.2850       31.8416       36.1266       3.852664      -0.00000
  17     162.9       31.9535        5.0053       30.8008       35.8061       3.852664       0.00000
  16     196.4       31.5517        5.9037       29.5007       35.4044       3.852664       0.00000
  15     218.7       31.2961        6.4721       28.6767       35.1488       3.852664       0.00000
  14     243.0       31.0255        7.0714       27.8068       34.8782       3.852664       0.00000
  13     269.0       30.7403        7.6997       26.8933       34.5930       3.852664      -0.00000
  12     297.5       30.4413        8.3547       25.9393       34.2940       3.852664       0.00000
  11     328.5       30.1284        9.0360       24.9451       33.9810       3.852664      -0.00000
  10     361.9       29.8029        9.7395       23.9160       33.6556       3.852664       0.00000
   9     398.1       29.4652       10.4637       22.8541       33.3179       3.852664       0.00000
   8     437.6       29.1165       11.2047       21.7645       32.9692       3.852664       0.00000
   7     480.5       28.7581       11.9587       20.6521       32.6108       3.852664      -0.00000
   6     533.0       28.3373       12.8330       19.3569       32.1899       3.852664       0.00000
   5     589.8       27.9072       13.7131       18.0467       31.7598       3.852664       0.00000
   4     651.6       27.4703       14.5914       16.7316       31.3230       3.852664      -0.00000
   3     718.7       27.0291       15.4604       15.4214       30.8818       3.852664       0.00000
   2     792.3       26.5866       16.3116       14.1276       30.4392       3.852664      -0.00000
   1     891.5       26.0342       17.3409       12.5459       29.8868       3.852664       0.00000
   0    1013.0       25.4319       18.4128       10.8717       29.2846       3.852664       0.00000



 Wavenumbers: 29000. - 38000. cm-1, ATM      1
 LEVEL PRESSURE   UPWARD FLUX   DIFDOWN FLUX  DIRDOWN FLUX  DOWNWARD FLUX   NET FLUX    HEATING RATE
          mb          W/m2          W/m2          W/m2        W/m2          W/m2       degree/day
  51    .06700        4.9485        0.0000       13.4026       13.4026       8.454139       0.00000
  50    .07753        4.9482        0.0003       13.3983       13.3986       8.450341       3.04444
  49    .09103        4.9480        0.0007       13.3921       13.3928       8.444822       3.44973
  48    0.1069        4.9477        0.0011       13.3840       13.3851       8.437445       3.92683
  47    0.1255        4.9473        0.0016       13.3733       13.3749       8.427600       4.46326
  46    0.1487        4.9469        0.0022       13.3579       13.3600       8.413157       5.26448
  45    0.1794        4.9463        0.0030       13.3340       13.3371       8.390757       6.14938
  44    0.2165        4.9457        0.0040       13.3024       13.3064       8.360737       6.82890
  43    0.2613        4.9449        0.0052       13.2604       13.2656       8.320682       7.55026
  42    0.3336        4.9437        0.0070       13.1833       13.1903       8.246674       8.62860
  41    0.4307        4.9421        0.0095       13.0729       13.0824       8.140300       9.24901
  40    0.5894        4.9397        0.0134       12.8796       12.8930       7.953252       9.94696
  39     1.339        4.9313        0.0297       11.9165       11.9462       7.014880      10.56437
  38     1.782        4.9281        0.0380       11.4399       11.4779       6.549871       8.85303
  37     2.292        4.9256        0.0469       10.9796       11.0265       6.100897       7.43617
  36     2.964        4.9243        0.0578       10.4786       10.5365       5.612200       6.13463
  35     3.853        4.9250        0.0714        9.9429       10.0143       5.089234       4.96304
  34     5.035        4.9286        0.0882        9.4007        9.4889       4.560339       3.77821
  33     6.613        4.9351        0.1096        8.8752        8.9848       4.049717       2.72978
  32     8.786        4.9441        0.1372        8.3786        8.5158       3.571681       1.85652
  31     11.80        4.9551        0.1751        7.8897        8.0647       3.109624       1.29361
  30     15.07        4.9646        0.2141        7.5108        7.7249       2.760314       0.90185
  29     18.79        4.9735        0.2567        7.1776        7.4343       2.460820       0.67905
  28     23.16        4.9817        0.3047        6.8664        7.1711       2.189405       0.52483
  27     28.12        4.9884        0.3577        6.5780        6.9357       1.947310       0.41155
  26     33.73        4.9912        0.4155        6.3195        6.7349       1.743752       0.30606
  25     40.54        4.9889        0.4836        6.0663        6.5499       1.560999       0.22673
  24     48.69        4.9810        0.5635        5.8128        6.3763       1.395357       0.17141
  23     57.69        4.9673        0.6487        5.5777        6.2264       1.259096       0.12772
  22     68.43        4.9457        0.7474        5.3379        6.0853       1.139520       0.09400
  21     81.20        4.9120        0.8619        5.0965        5.9584       1.046400       0.06153
  20     96.49        4.8647        0.9941        4.8476        5.8418       0.977023       0.03829
  19     114.6        4.8073        1.1440        4.5799        5.7239       0.916603       0.02821
  18     136.5        4.7406        1.3115        4.2891        5.6006       0.859940       0.02179
  17     162.9        4.6645        1.4972        3.9732        5.4704       0.805887       0.01728
  16     196.4        4.5681        1.7197        3.6080        5.3277       0.759646       0.01164
  15     218.7        4.5073        1.8552        3.3898        5.2449       0.737616       0.00836
  14     243.0        4.4442        1.9932        3.1686        5.1618       0.717622       0.00693
  13     269.0        4.3789        2.1328        2.9461        5.0789       0.699976       0.00572
  12     297.5        4.3120        2.2728        2.7239        4.9967       0.684699       0.00453
  11     328.5        4.2442        2.4117        2.5029        4.9146       0.670339       0.00390
  10     361.9        4.1760        2.5483        2.2846        4.8329       0.656919       0.00340
   9     398.1        4.1078        2.6815        2.0708        4.7523       0.644433       0.00291
   8     437.6        4.0401        2.8101        1.8626        4.6727       0.632615       0.00253
   7     480.5        3.9732        2.9327        1.6621        4.5948       0.621592       0.00216
   6     533.0        3.8983        3.0644        1.4437        4.5081       0.609797       0.00190
   5     589.8        3.8257        3.1853        1.2390        4.4242       0.598595       0.00166
   4     651.6        3.7559        3.2937        1.0500        4.3437       0.587834       0.00147
   3     718.7        3.6893        3.3889        0.8778        4.2667       0.577476       0.00130
   2     792.3        3.6261        3.4699        0.7237        4.1936       0.567502       0.00114
   1     891.5        3.5520        3.5511        0.5563        4.1074       0.555399       0.00103
   0    1013.0        3.4763        3.6147        0.4039        4.0186       0.542285       0.00091



 Wavenumbers: 38000. - 50000. cm-1, ATM      1
 LEVEL PRESSURE   UPWARD FLUX   DIFDOWN FLUX  DIRDOWN FLUX  DOWNWARD FLUX   NET FLUX    HEATING RATE
          mb          W/m2          W/m2          W/m2        W/m2          W/m2       degree/day
  51    .06700        0.0051        0.0000        0.8267        0.8267       0.821528       0.00000
  50    .07753        0.0051        0.0001        0.8242        0.8243       0.819196       1.86936
  49    .09103        0.0050        0.0002        0.8207        0.8209       0.815872       2.07705
  48    0.1069        0.0049        0.0002        0.8162        0.8164       0.811514       2.31984
  47    0.1255        0.0048        0.0004        0.8103        0.8106       0.805801       2.59006
  46    0.1487        0.0047        0.0005        0.8018        0.8023       0.797567       3.00143
  45    0.1794        0.0045        0.0007        0.7889        0.7896       0.785013       3.44648
  44    0.2165        0.0044        0.0009        0.7720        0.7729       0.768507       3.75474
  43    0.2613        0.0042        0.0011        0.7500        0.7511       0.746955       4.06246
  42    0.3336        0.0039        0.0015        0.7106        0.7121       0.708267       4.51071
  41    0.4307        0.0035        0.0019        0.6566        0.6584       0.654972       4.63387
  40    0.5894        0.0029        0.0024        0.5680        0.5704       0.567464       4.65357
  39     1.339        0.0015        0.0030        0.2422        0.2452       0.243720       3.64476
  38     1.782        0.0010        0.0026        0.1493        0.1519       0.150889       1.76735
  37     2.292        0.0007        0.0022        0.0924        0.0946       0.093932       0.94336
  36     2.964        0.0005        0.0018        0.0539        0.0557       0.055224       0.48589
  35     3.853        0.0003        0.0013        0.0295        0.0308       0.030502       0.23462
  34     5.035        0.0002        0.0010        0.0154        0.0164       0.016181       0.10230
  33     6.613        0.0001        0.0007        0.0073        0.0080       0.007912       0.04420
  32     8.786        0.0000        0.0004        0.0030        0.0034       0.003390       0.01756
  31     11.80        0.0000        0.0003        0.0010        0.0012       0.001199       0.00613
  30     15.07        0.0000        0.0001        0.0003        0.0005       0.000463       0.00190
  29     18.79        0.0000        0.0001        0.0001        0.0002       0.000182       0.00064
  28     23.16        0.0000        0.0000        0.0000        0.0001       0.000071       0.00022
  27     28.12        0.0000        0.0000        0.0000        0.0000       0.000028       0.00007
  26     33.73        0.0000        0.0000        0.0000        0.0000       0.000011       0.00002
  25     40.54        0.0000        0.0000        0.0000        0.0000       0.000005       0.00001
  24     48.69        0.0000        0.0000        0.0000        0.0000       0.000002       0.00000
  23     57.69        0.0000        0.0000        0.0000        0.0000       0.000001       0.00000
  22     68.43        0.0000        0.0000        0.0000        0.0000       0.000000       0.00000
  21     81.20        0.0000        0.0000        0.0000        0.0000       0.000000       0.00000
  20     96.49        0.0000        0.0000        0.0000        0.0000       0.000000       0.00000
  19     114.6        0.0000        0.0000        0.0000        0.0000       0.000000       0.00000
  18     136.5        0.0000        0.0000        0.0000        0.0000       0.000000       0.00000
  17     162.9        0.0000        0.0000        0.0000        0.0000       0.000000       0.00000
  16     196.4        0.0000        0.0000        0.0000        0.0000       0.000000       0.00000
  15     218.7        0.0000        0.0000        0.0000        0.0000       0.000000       0.00000
  14     243.0        0.0000        0.0000        0.0000        0.0000       0.000000       0.00000
  13     269.0        0.0000        0.0000        0.0000        0.0000       0.000000       0.00000
  12     297.5        0.0000        0.0000        0.0000        0.0000       0.000000       0.00000
  11     328.5        0.0000        0.0000        0.0000        0.0000       0.000000       0.00000
  10     361.9        0.0000        0.0000        0.0000        0.0000       0.000000       0.00000
   9     398.1        0.0000        0.0000        0.0000        0.0000       0.000000       0.00000
   8     437.6        0.0000        0.0000        0.0000        0.0000       0.000000       0.00000
   7     480.5        0.0000        0.0000        0.0000        0.0000       0.000000       0.00000
   6     533.0        0.0000        0.0000        0.0000        0.0000       0.000000       0.00000
   5     589.8        0.0000        0.0000        0.0000        0.0000       0.000000       0.00000
   4     651.6        0.0000        0.0000        0.0000        0.0000       0.000000       0.00000
   3     718.7        0.0000        0.0000        0.0000        0.0000       0.000000       0.00000
   2     792.3        0.0000        0.0000        0.0000        0.0000       0.000000       0.00000
   1     891.5        0.0000        0.0000        0.0000        0.0000       0.000000       0.00000
   0    1013.0        0.0000        0.0000        0.0000        0.0000       0.000000       0.00000



 Wavenumbers:   820. -  2600. cm-1, ATM      1
 LEVEL PRESSURE   UPWARD FLUX   DIFDOWN FLUX  DIRDOWN FLUX  DOWNWARD FLUX   NET FLUX    HEATING RATE
          mb          W/m2          W/m2          W/m2        W/m2          W/m2       degree/day
  51    .06700        0.2505        0.0000        3.8670        3.8670       3.616539       0.00000
  50    .07753        0.2505        0.0000        3.8643        3.8643       3.613822       2.17770
  49    .09103        0.2505        0.0000        3.8635        3.8635       3.613012       0.50638
  48    0.1069        0.2505        0.0000        3.8626        3.8626       3.612121       0.47415
  47    0.1255        0.2505        0.0000        3.8616        3.8616       3.611160       0.43559
  46    0.1487        0.2505        0.0000        3.8605        3.8605       3.610051       0.40437
  45    0.1794        0.2505        0.0000        3.8592        3.8592       3.608716       0.36648
  44    0.2165        0.2505        0.0000        3.8578        3.8578       3.607338       0.31346
  43    0.2613        0.2505        0.0000        3.8564        3.8564       3.605878       0.27522
  42    0.3336        0.2505        0.0000        3.8541        3.8541       3.603647       0.26012
  41    0.4307        0.2505        0.0000        3.8512        3.8512       3.600764       0.25063
  40    0.5894        0.2505        0.0000        3.8465        3.8465       3.596038       0.25134
  39     1.339        0.2505        0.0000        3.8251        3.8251       3.574663       0.24065
  38     1.782        0.2505        0.0000        3.8133        3.8133       3.562850       0.22490
  37     2.292        0.2505        0.0000        3.8003        3.8003       3.549789       0.21633
  36     2.964        0.2505        0.0000        3.7841        3.7841       3.533660       0.20247
  35     3.853        0.2505        0.0000        3.7642        3.7642       3.513745       0.18899
  34     5.035        0.2505        0.0000        3.7395        3.7395       3.489054       0.17638
  33     6.613        0.2505        0.0000        3.7090        3.7090       3.458519       0.16324
  32     8.786        0.2505        0.0000        3.6726        3.6726       3.422125       0.14134
  31     11.80        0.2505        0.0000        3.6320        3.6320       3.381531       0.11365
  30     15.07        0.2505        0.0000        3.6016        3.6016       3.351147       0.07845
  29     18.79        0.2505        0.0000        3.5777        3.5777       3.327249       0.05418
  28     23.16        0.2505        0.0000        3.5564        3.5564       3.305895       0.04129
  27     28.12        0.2505        0.0000        3.5348        3.5348       3.284349       0.03663
  26     33.73        0.2505        0.0000        3.5118        3.5118       3.261315       0.03463
  25     40.54        0.2505        0.0000        3.4849        3.4849       3.234427       0.03336
  24     48.69        0.2505        0.0000        3.4537        3.4537       3.203174       0.03234
  23     57.69        0.2505        0.0000        3.4210        3.4210       3.170499       0.03063
  22     68.43        0.2505        0.0000        3.3844        3.3844       3.133912       0.02876
  21     81.20        0.2505        0.0000        3.3441        3.3441       3.093611       0.02663
  20     96.49        0.2505        0.0000        3.2998        3.2998       3.049244       0.02449
  19     114.6        0.2506        0.0000        3.2506        3.2506       3.000092       0.02295
  18     136.5        0.2506        0.0000        3.1936        3.1936       2.943036       0.02194
  17     162.9        0.2506        0.0000        3.1181        3.1181       2.867520       0.02414
  16     196.4        0.2507        0.0000        3.0090        3.0090       2.758307       0.02749
  15     218.7        0.2507        0.0000        2.9420        2.9420       2.691283       0.02545
  14     243.0        0.2508        0.0000        2.8605        2.8605       2.609690       0.02830
  13     269.0        0.2509        0.0000        2.7419        2.7420       2.491055       0.03848
  12     297.5        0.2511        0.0000        2.5729        2.5729       2.321756       0.05021
  11     328.5        0.2515        0.0000        2.3602        2.3602       2.108715       0.05793
  10     361.9        0.2520        0.0000        2.1524        2.1524       1.900397       0.05271
   9     398.1        0.2528        0.0000        1.9974        1.9974       1.744587       0.03630
   8     437.6        0.2540        0.0000        1.8835        1.8835       1.629533       0.02460
   7     480.5        0.2557        0.0000        1.7734        1.7734       1.517776       0.02195
   6     533.0        0.2585        0.0000        1.6397        1.6398       1.381279       0.02196
   5     589.8        0.2626        0.0000        1.5068        1.5069       1.244297       0.02033
   4     651.6        0.2686        0.0000        1.3807        1.3807       1.112088       0.01808
   3     718.7        0.2767        0.0000        1.2680        1.2680       0.991335       0.01518
   2     792.3        0.2866        0.0000        1.1659        1.1660       0.879340       0.01284
   1     891.5        0.3033        0.0000        1.0372        1.0373       0.733931       0.01237
   0    1013.0        0.3337        0.0000        0.8716        0.8717       0.537998       0.01360

  Modules and versions used in this calculation:

       rrtmg_sw.1col.f90:  $Revision$                    rrtmg_sw_init.f90:  $Revision$        
     rrtmgsw_cldprop.f90:  $Revision$                  rrtmgsw_cldprmc.f90:  NOT USED          
     rrtmg_sw_reftra.f90:  $Revision$                  rrtmg_sw_spcvrt.f90:  NOT USED          
     rrtmg_sw_spcvmc.f90:  NOT USED                    rrtmgsw_setcoef.f90:  NOT USED          
     rrtmg_sw_taumol.f90:  $Revision$                  rrtmg_sw_vrtqdr.f90:  NOT USED          
                rrtatm.f:  NOT USED                             util_xxx.f:  NOT USED          
                 extra.f:  NOT USED                       rrtmg_sw_k_g.f90:  $Revision$        

