

 Wavenumbers:   820. - 50000. cm-1, ATM      1
 LEVEL PRESSURE   UPWARD FLUX   DIFDOWN FLUX  DIRDOWN FLUX  DOWNWARD FLUX   NET FLUX    HEATING RATE
          mb          W/m2          W/m2          W/m2        W/m2          W/m2       degree/day
  51    .06700      159.9190        0.0000      397.8738      397.8738     237.954816       0.00000
  50    .07753      159.9183        0.0011      397.8577      397.8589     237.940538      11.44421
  49    .09103      159.9175        0.0026      397.8418      397.8444     237.926868       8.54411
  48    0.1069      159.9166        0.0042      397.8230      397.8272     237.910545       8.68909
  47    0.1255      159.9156        0.0061      397.7997      397.8057     237.890134       9.25310
  46    0.1487      159.9143        0.0084      397.7676      397.7760     237.861724      10.35589
  45    0.1794      159.9126        0.0116      397.7205      397.7322     237.819505      11.59009
  44    0.2165      159.9107        0.0154      397.6602      397.6757     237.764955      12.40908
  43    0.2613      159.9085        0.0199      397.5829      397.6028     237.694292      13.31980
  42    0.3336      159.9051        0.0273      397.4449      397.4722     237.567105      14.82868
  41    0.4307      159.9007        0.0369      397.2524      397.2893     237.388616      15.51926
  40    0.5894      159.8941        0.0524      396.9253      396.9777     237.083620      16.21929
  39     1.339      159.8729        0.1217      395.4254      395.5470     235.674166      15.86789
  38     1.782      159.8668        0.1604      394.7288      394.8892     235.022384      12.40888
  37     2.292      159.8654        0.2045      394.0572      394.2616     234.396247      10.37046
  36     2.964      159.8718        0.2616      393.3007      393.5623     233.690539       8.85877
  35     3.853      159.8917        0.3363      392.4318      392.7682     232.876453       7.72583
  34     5.035      159.9295        0.4346      391.4441      391.8787     231.949181       6.62404
  33     6.613      159.9864        0.5647      390.3268      390.8915     230.905131       5.58150
  32     8.786      160.0588        0.7387      389.0624      389.8011     229.742351       4.51582
  31     11.80      160.1437        0.9855      387.5500      388.5355     228.391788       3.78115
  30     15.07      160.2131        1.2482      386.1556      387.4038     227.190752       3.10084
  29     18.79      160.2721        1.5426      384.7502      386.2928     226.020707       2.65285
  28     23.16      160.3186        1.8835      383.2686      385.1521     224.833530       2.29562
  27     28.12      160.3456        2.2699      381.7329      384.0028     223.657262       1.99958
  26     33.73      160.3373        2.6991      380.1982      382.8973     222.559988       1.64978
  25     40.54      160.2827        3.2136      378.5384      381.7520     221.469243       1.35319
  24     48.69      160.1744        3.8280      376.7214      380.5494     220.375058       1.13231
  23     57.69      160.0147        4.4962      374.8959      379.3921     219.377349       0.93520
  22     68.43      159.7811        5.2835      372.8999      378.1834     218.402265       0.76655
  21     81.20      159.4427        6.2108      370.7496      376.9604     217.517687       0.58452
  20     96.49      158.9857        7.3009      368.4056      375.7065     216.720784       0.43983
  19     114.6      158.4270        8.5730      365.7513      374.3243     215.897252       0.38453
  18     136.5      157.7554       10.0487      362.7231      372.7718     215.016398       0.33871
  17     162.9      156.9530       11.7620      359.1748      370.9368     213.983810       0.33006
  16     196.4      155.8954       13.9186      354.5718      368.4904     212.595034       0.34957
  15     218.7      155.2006       15.2959      351.4437      366.7395     211.538984       0.40094
  14     243.0      154.4513       16.7588      347.7111      364.4700     210.018668       0.52730
  13     269.0      153.6475       18.3054      342.9441      361.2495     207.602044       0.78394
  12     297.5      152.7898       19.9330      337.4137      357.3467     204.556921       0.90315
  11     328.5      151.8806       21.6426      331.1302      352.7728     200.892271       0.99641
  10     361.9      150.9229       23.4284      324.1219      347.5503     196.627334       1.07907
   9     398.1      149.9179       25.2890      316.6066      341.8956     191.977682       1.08326
   8     437.6      148.8709       27.2195      308.5895      335.8090     186.938108       1.07749
   7     480.5      147.7903       29.2133      299.9349      329.1482     181.357901       1.09593
   6     533.0      146.5220       31.5673      289.7021      321.2694     174.747438       1.06341
   5     589.8      145.2342       33.9876      279.3388      313.3264     168.092131       0.98787
   4     651.6      143.9508       36.4612      268.7786      305.2398     161.289001       0.93035
   3     718.7      142.6849       38.9780      258.2837      297.2617     154.576800       0.84354
   2     792.3      141.4526       41.5231      248.0774      289.6005     148.147933       0.73732
   1     891.5      140.0186       44.7287      235.5216      280.2503     140.231715       0.67363
   0    1013.0      138.7785       48.2514      221.4731      269.7245     130.946015       0.64475



 Wavenumbers:  2600. -  3250. cm-1, ATM      1
 LEVEL PRESSURE   UPWARD FLUX   DIFDOWN FLUX  DIRDOWN FLUX  DOWNWARD FLUX   NET FLUX    HEATING RATE
          mb          W/m2          W/m2          W/m2        W/m2          W/m2       degree/day
  51    .06700        0.2425        0.0000        3.5066        3.5066       3.264132       0.00000
  50    .07753        0.2425        0.0000        3.5066        3.5066       3.264124       0.00640
  49    .09103        0.2425        0.0000        3.5066        3.5066       3.264114       0.00627
  48    0.1069        0.2425        0.0000        3.5066        3.5066       3.264103       0.00613
  47    0.1255        0.2425        0.0000        3.5066        3.5066       3.264089       0.00599
  46    0.1487        0.2425        0.0000        3.5066        3.5066       3.264073       0.00607
  45    0.1794        0.2425        0.0000        3.5065        3.5065       3.264050       0.00624
  44    0.2165        0.2425        0.0000        3.5065        3.5065       3.264023       0.00611
  43    0.2613        0.2425        0.0000        3.5065        3.5065       3.263991       0.00598
  42    0.3336        0.2425        0.0000        3.5064        3.5064       3.263939       0.00615
  41    0.4307        0.2425        0.0000        3.5064        3.5064       3.263868       0.00618
  40    0.5894        0.2425        0.0000        3.5062        3.5062       3.263749       0.00633
  39     1.339        0.2425        0.0000        3.5055        3.5055       3.263050       0.00787
  38     1.782        0.2425        0.0000        3.5050        3.5050       3.262519       0.01011
  37     2.292        0.2425        0.0000        3.5043        3.5043       3.261827       0.01147
  36     2.964        0.2425        0.0000        3.5033        3.5033       3.260835       0.01245
  35     3.853        0.2425        0.0000        3.5019        3.5019       3.259458       0.01307
  34     5.035        0.2425        0.0000        3.5001        3.5001       3.257597       0.01329
  33     6.613        0.2425        0.0000        3.4977        3.4977       3.255187       0.01288
  32     8.786        0.2425        0.0000        3.4947        3.4947       3.252217       0.01154
  31     11.80        0.2425        0.0000        3.4911        3.4911       3.248581       0.01018
  30     15.07        0.2425        0.0000        3.4878        3.4878       3.245360       0.00832
  29     18.79        0.2425        0.0000        3.4848        3.4848       3.242297       0.00695
  28     23.16        0.2425        0.0000        3.4816        3.4816       3.239077       0.00623
  27     28.12        0.2425        0.0000        3.4779        3.4779       3.235459       0.00615
  26     33.73        0.2425        0.0000        3.4735        3.4735       3.230993       0.00672
  25     40.54        0.2425        0.0000        3.4671        3.4671       3.224668       0.00785
  24     48.69        0.2425        0.0000        3.4582        3.4583       3.215773       0.00920
  23     57.69        0.2425        0.0000        3.4472        3.4472       3.204726       0.01036
  22     68.43        0.2425        0.0000        3.4329        3.4329       3.190467       0.01121
  21     81.20        0.2425        0.0000        3.4152        3.4152       3.172739       0.01171
  20     96.49        0.2425        0.0000        3.3940        3.3941       3.151596       0.01167
  19     114.6        0.2425        0.0000        3.3692        3.3692       3.126708       0.01162
  18     136.5        0.2425        0.0001        3.3419        3.3420       3.099492       0.01047
  17     162.9        0.2425        0.0001        3.3129        3.3129       3.070420       0.00929
  16     196.4        0.2426        0.0001        3.2793        3.2794       3.036850       0.00845
  15     218.7        0.2426        0.0001        3.2578        3.2578       3.015236       0.00821
  14     243.0        0.2427        0.0001        3.2320        3.2320       2.989366       0.00897
  13     269.0        0.2428        0.0001        3.1968        3.1969       2.954121       0.01143
  12     297.5        0.2430        0.0001        3.1489        3.1490       2.906043       0.01426
  11     328.5        0.2433        0.0001        3.0821        3.0822       2.838867       0.01827
  10     361.9        0.2437        0.0001        2.9902        2.9904       2.746613       0.02334
   9     398.1        0.2444        0.0001        2.8715        2.8716       2.627247       0.02781
   8     437.6        0.2453        0.0001        2.7276        2.7278       2.482532       0.03094
   7     480.5        0.2466        0.0001        2.5595        2.5597       2.313104       0.03328
   6     533.0        0.2487        0.0001        2.3617        2.3619       2.113175       0.03216
   5     589.8        0.2518        0.0002        2.1649        2.1651       1.913264       0.02967
   4     651.6        0.2563        0.0002        1.9608        1.9609       1.704639       0.02853
   3     718.7        0.2624        0.0002        1.7593        1.7595       1.497118       0.02608
   2     792.3        0.2703        0.0002        1.5761        1.5762       1.305910       0.02193
   1     891.5        0.2840        0.0002        1.3714        1.3716       1.087636       0.01857
   0    1013.0        0.3086        0.0002        1.1584        1.1586       0.849936       0.01650



 Wavenumbers:  3250. -  4000. cm-1, ATM      1
 LEVEL PRESSURE   UPWARD FLUX   DIFDOWN FLUX  DIRDOWN FLUX  DOWNWARD FLUX   NET FLUX    HEATING RATE
          mb          W/m2          W/m2          W/m2        W/m2          W/m2       degree/day
  51    .06700        0.0004        0.0000        5.9117        5.9117       5.911237       0.00000
  50    .07753        0.0004        0.0000        5.9075        5.9075       5.907048       3.35808
  49    .09103        0.0004        0.0000        5.9050        5.9050       5.904605       1.52677
  48    0.1069        0.0004        0.0000        5.9032        5.9032       5.902739       0.99346
  47    0.1255        0.0004        0.0000        5.9014        5.9014       5.900980       0.79708
  46    0.1487        0.0004        0.0000        5.8995        5.8995       5.899092       0.68848
  45    0.1794        0.0004        0.0000        5.8974        5.8974       5.896943       0.58983
  44    0.2165        0.0004        0.0000        5.8952        5.8952       5.894826       0.48155
  43    0.2613        0.0004        0.0000        5.8931        5.8931       5.892667       0.40696
  42    0.3336        0.0004        0.0000        5.8899        5.8899       5.889509       0.36820
  41    0.4307        0.0004        0.0000        5.8861        5.8861       5.885672       0.33365
  40    0.5894        0.0004        0.0000        5.8803        5.8803       5.879869       0.30857
  39     1.339        0.0004        0.0000        5.8597        5.8597       5.859272       0.23189
  38     1.782        0.0004        0.0000        5.8513        5.8513       5.850847       0.16039
  37     2.292        0.0004        0.0000        5.8431        5.8431       5.842676       0.13533
  36     2.964        0.0004        0.0000        5.8334        5.8334       5.833037       0.12100
  35     3.853        0.0004        0.0000        5.8213        5.8213       5.820861       0.11555
  34     5.035        0.0004        0.0000        5.8052        5.8052       5.804766       0.11498
  33     6.613        0.0004        0.0000        5.7833        5.7834       5.782945       0.11666
  32     8.786        0.0004        0.0000        5.7531        5.7531       5.752743       0.11729
  31     11.80        0.0004        0.0000        5.7090        5.7090       5.708574       0.12366
  30     15.07        0.0004        0.0000        5.6615        5.6615       5.661110       0.12254
  29     18.79        0.0004        0.0000        5.6093        5.6094       5.608974       0.11821
  28     23.16        0.0004        0.0000        5.5524        5.5524       5.552048       0.11008
  27     28.12        0.0004        0.0000        5.4935        5.4935       5.493169       0.10009
  26     33.73        0.0004        0.0000        5.4348        5.4349       5.434480       0.08824
  25     40.54        0.0004        0.0001        5.3707        5.3708       5.370419       0.07948
  24     48.69        0.0004        0.0001        5.2985        5.2985       5.298186       0.07475
  23     57.69        0.0003        0.0001        5.2215        5.2216       5.221247       0.07212
  22     68.43        0.0003        0.0001        5.1318        5.1319       5.131587       0.07048
  21     81.20        0.0003        0.0001        5.0284        5.0285       5.028158       0.06834
  20     96.49        0.0003        0.0001        4.9122        4.9123       4.912023       0.06410
  19     114.6        0.0003        0.0001        4.7780        4.7782       4.777912       0.06262
  18     136.5        0.0002        0.0002        4.6285        4.6287       4.628434       0.05748
  17     162.9        0.0002        0.0002        4.4406        4.4407       4.440522       0.06006
  16     196.4        0.0002        0.0002        4.1548        4.1550       4.154848       0.07191
  15     218.7        0.0002        0.0002        3.9564        3.9566       3.956467       0.07532
  14     243.0        0.0001        0.0002        3.7055        3.7058       3.705633       0.08700
  13     269.0        0.0001        0.0002        3.3399        3.3401       3.339994       0.11861
  12     297.5        0.0001        0.0002        2.8954        2.8956       2.895505       0.13183
  11     328.5        0.0001        0.0002        2.4388        2.4390       2.438964       0.12413
  10     361.9        0.0001        0.0002        2.0269        2.0271       2.027025       0.10422
   9     398.1        0.0001        0.0002        1.6753        1.6755       1.675437       0.08191
   8     437.6        0.0000        0.0002        1.3592        1.3594       1.359319       0.06759
   7     480.5        0.0000        0.0002        1.0616        1.0618       1.061737       0.05844
   6     533.0        0.0000        0.0001        0.7543        0.7544       0.754404       0.04944
   5     589.8        0.0000        0.0001        0.4951        0.4952       0.495212       0.03847
   4     651.6        0.0000        0.0001        0.2943        0.2943       0.294318       0.02747
   3     718.7        0.0000        0.0001        0.1528        0.1529       0.152829       0.01778
   2     792.3        0.0000        0.0000        0.0658        0.0658       0.065806       0.00998
   1     891.5        0.0001        0.0000        0.0157        0.0157       0.015582       0.00427
   0    1013.0        0.0004        0.0000        0.0013        0.0013       0.000986       0.00101



 Wavenumbers:  4000. -  4650. cm-1, ATM      1
 LEVEL PRESSURE   UPWARD FLUX   DIFDOWN FLUX  DIRDOWN FLUX  DOWNWARD FLUX   NET FLUX    HEATING RATE
          mb          W/m2          W/m2          W/m2        W/m2          W/m2       degree/day
  51    .06700        1.0410        0.0000        6.9421        6.9421       5.901071       0.00000
  50    .07753        1.0410        0.0000        6.9421        6.9421       5.901070       0.00079
  49    .09103        1.0410        0.0000        6.9421        6.9421       5.901069       0.00078
  48    0.1069        1.0410        0.0000        6.9421        6.9421       5.901067       0.00076
  47    0.1255        1.0410        0.0000        6.9421        6.9421       5.901065       0.00074
  46    0.1487        1.0410        0.0000        6.9421        6.9421       5.901063       0.00075
  45    0.1794        1.0410        0.0000        6.9421        6.9421       5.901061       0.00077
  44    0.2165        1.0410        0.0000        6.9421        6.9421       5.901057       0.00076
  43    0.2613        1.0410        0.0000        6.9420        6.9420       5.901053       0.00074
  42    0.3336        1.0410        0.0000        6.9420        6.9420       5.901047       0.00076
  41    0.4307        1.0410        0.0000        6.9420        6.9420       5.901038       0.00077
  40    0.5894        1.0410        0.0000        6.9420        6.9420       5.901023       0.00079
  39     1.339        1.0410        0.0000        6.9419        6.9419       5.900934       0.00100
  38     1.782        1.0410        0.0000        6.9418        6.9419       5.900865       0.00132
  37     2.292        1.0410        0.0000        6.9418        6.9418       5.900771       0.00155
  36     2.964        1.0410        0.0000        6.9416        6.9416       5.900632       0.00175
  35     3.853        1.0410        0.0000        6.9414        6.9414       5.900425       0.00196
  34     5.035        1.0410        0.0000        6.9411        6.9411       5.900121       0.00218
  33     6.613        1.0410        0.0000        6.9406        6.9406       5.899673       0.00239
  32     8.786        1.0410        0.0000        6.9399        6.9400       5.899013       0.00256
  31     11.80        1.0410        0.0000        6.9389        6.9389       5.897979       0.00290
  30     15.07        1.0409        0.0001        6.9377        6.9377       5.896770       0.00312
  29     18.79        1.0409        0.0001        6.9362        6.9362       5.895312       0.00331
  28     23.16        1.0409        0.0001        6.9343        6.9344       5.893509       0.00349
  27     28.12        1.0409        0.0001        6.9321        6.9322       5.891337       0.00369
  26     33.73        1.0409        0.0001        6.9294        6.9296       5.888673       0.00401
  25     40.54        1.0409        0.0002        6.9258        6.9260       5.885080       0.00446
  24     48.69        1.0409        0.0002        6.9210        6.9212       5.880326       0.00492
  23     57.69        1.0408        0.0002        6.9154        6.9156       5.874735       0.00524
  22     68.43        1.0408        0.0003        6.9083        6.9086       5.867786       0.00546
  21     81.20        1.0408        0.0003        6.8998        6.9001       5.859292       0.00561
  20     96.49        1.0408        0.0004        6.8894        6.8898       5.849037       0.00566
  19     114.6        1.0408        0.0004        6.8765        6.8770       5.836207       0.00599
  18     136.5        1.0407        0.0005        6.8610        6.8615       5.820739       0.00595
  17     162.9        1.0408        0.0006        6.8417        6.8423       5.801512       0.00615
  16     196.4        1.0408        0.0007        6.8147        6.8154       5.774566       0.00678
  15     218.7        1.0409        0.0008        6.7948        6.7957       5.754737       0.00753
  14     243.0        1.0411        0.0009        6.7698        6.7707       5.729606       0.00872
  13     269.0        1.0414        0.0010        6.7349        6.7358       5.694484       0.01139
  12     297.5        1.0418        0.0011        6.6869        6.6879       5.646120       0.01434
  11     328.5        1.0425        0.0012        6.6194        6.6206       5.578050       0.01851
  10     361.9        1.0434        0.0013        6.5295        6.5308       5.487326       0.02295
   9     398.1        1.0447        0.0014        6.4202        6.4216       5.376967       0.02571
   8     437.6        1.0463        0.0015        6.2962        6.2977       5.251419       0.02684
   7     480.5        1.0485        0.0016        6.1555        6.1571       5.108648       0.02804
   6     533.0        1.0520        0.0018        5.9675        5.9693       4.917270       0.03079
   5     589.8        1.0572        0.0019        5.7368        5.7387       4.681486       0.03500
   4     651.6        1.0646        0.0020        5.4662        5.4683       4.403637       0.03800
   3     718.7        1.0748        0.0022        5.1912        5.1933       4.118534       0.03583
   2     792.3        1.0880        0.0023        4.9395        4.9418       3.853810       0.03036
   1     891.5        1.1105        0.0024        4.6486        4.6511       3.540617       0.02665
   0    1013.0        1.1508        0.0026        4.3179        4.3205       3.169702       0.02575



 Wavenumbers:  4650. -  5150. cm-1, ATM      1
 LEVEL PRESSURE   UPWARD FLUX   DIFDOWN FLUX  DIRDOWN FLUX  DOWNWARD FLUX   NET FLUX    HEATING RATE
          mb          W/m2          W/m2          W/m2        W/m2          W/m2       degree/day
  51    .06700        0.7035        0.0000        6.5710        6.5710       5.867447       0.00000
  50    .07753        0.7035        0.0000        6.5708        6.5708       5.867212       0.18887
  49    .09103        0.7035        0.0000        6.5705        6.5705       5.866918       0.18362
  48    0.1069        0.7035        0.0000        6.5701        6.5701       5.866583       0.17806
  47    0.1255        0.7035        0.0000        6.5697        6.5697       5.866203       0.17238
  46    0.1487        0.7035        0.0000        6.5693        6.5693       5.865729       0.17268
  45    0.1794        0.7035        0.0000        6.5686        6.5686       5.865093       0.17473
  44    0.2165        0.7035        0.0000        6.5679        6.5679       5.864355       0.16788
  43    0.2613        0.7035        0.0000        6.5670        6.5670       5.863502       0.16078
  42    0.3336        0.7035        0.0000        6.5657        6.5657       5.862139       0.15894
  41    0.4307        0.7035        0.0000        6.5640        6.5640       5.860417       0.14971
  40    0.5894        0.7035        0.0000        6.5613        6.5613       5.857801       0.13913
  39     1.339        0.7035        0.0000        6.5516        6.5516       5.848023       0.11008
  38     1.782        0.7035        0.0000        6.5473        6.5473       5.843807       0.08026
  37     2.292        0.7035        0.0000        6.5434        6.5435       5.839920       0.06438
  36     2.964        0.7035        0.0000        6.5395        6.5395       5.835966       0.04964
  35     3.853        0.7035        0.0000        6.5355        6.5356       5.832023       0.03742
  34     5.035        0.7035        0.0000        6.5315        6.5315       5.828021       0.02859
  33     6.613        0.7035        0.0000        6.5271        6.5271       5.823627       0.02349
  32     8.786        0.7035        0.0000        6.5216        6.5216       5.818133       0.02134
  31     11.80        0.7035        0.0001        6.5135        6.5135       5.810055       0.02262
  30     15.07        0.7035        0.0001        6.5041        6.5042       5.800687       0.02419
  29     18.79        0.7035        0.0001        6.4925        6.4926       5.789173       0.02611
  28     23.16        0.7034        0.0001        6.4779        6.4780       5.774583       0.02821
  27     28.12        0.7034        0.0002        6.4599        6.4600       5.756611       0.03055
  26     33.73        0.7034        0.0002        6.4384        6.4386       5.735184       0.03222
  25     40.54        0.7034        0.0002        6.4112        6.4115       5.708064       0.03364
  24     48.69        0.7034        0.0003        6.3775        6.3778       5.674436       0.03480
  23     57.69        0.7033        0.0003        6.3404        6.3407       5.637356       0.03476
  22     68.43        0.7033        0.0004        6.2971        6.2975       5.594182       0.03394
  21     81.20        0.7033        0.0004        6.2483        6.2487       5.545390       0.03224
  20     96.49        0.7033        0.0005        6.1948        6.1954       5.492052       0.02944
  19     114.6        0.7033        0.0006        6.1381        6.1388       5.435461       0.02642
  18     136.5        0.7033        0.0007        6.0790        6.0797       5.376414       0.02271
  17     162.9        0.7034        0.0009        6.0160        6.0169       5.313538       0.02010
  16     196.4        0.7035        0.0010        5.9399        5.9409       5.237424       0.01916
  15     218.7        0.7036        0.0011        5.8896        5.8908       5.187186       0.01907
  14     243.0        0.7038        0.0013        5.8322        5.8334       5.129681       0.01994
  13     269.0        0.7041        0.0014        5.7624        5.7638       5.059734       0.02269
  12     297.5        0.7045        0.0015        5.6767        5.6783       4.973742       0.02550
  11     328.5        0.7052        0.0017        5.5726        5.5742       4.869085       0.02846
  10     361.9        0.7061        0.0018        5.4473        5.4491       4.743036       0.03189
   9     398.1        0.7074        0.0019        5.2995        5.3014       4.594064       0.03471
   8     437.6        0.7091        0.0021        5.1275        5.1295       4.420455       0.03712
   7     480.5        0.7115        0.0022        4.9290        4.9312       4.219714       0.03942
   6     533.0        0.7152        0.0023        4.6794        4.6817       3.966486       0.04074
   5     589.8        0.7205        0.0025        4.4188        4.4213       3.700743       0.03944
   4     651.6        0.7279        0.0026        4.1521        4.1547       3.426752       0.03747
   3     718.7        0.7378        0.0027        3.8929        3.8957       3.157822       0.03380
   2     792.3        0.7507        0.0028        3.6469        3.6497       2.899040       0.02968
   1     891.5        0.7725        0.0030        3.3535        3.3565       2.583912       0.02682
   0    1013.0        0.8100        0.0031        3.0383        3.0415       2.231440       0.02447



 Wavenumbers:  5150. -  6150. cm-1, ATM      1
 LEVEL PRESSURE   UPWARD FLUX   DIFDOWN FLUX  DIRDOWN FLUX  DOWNWARD FLUX   NET FLUX    HEATING RATE
          mb          W/m2          W/m2          W/m2        W/m2          W/m2       degree/day
  51    .06700        1.9021        0.0000       16.4735       16.4735      14.571402       0.00000
  50    .07753        1.9021        0.0000       16.4735       16.4735      14.571367       0.02761
  49    .09103        1.9021        0.0000       16.4734       16.4734      14.571322       0.02811
  48    0.1069        1.9021        0.0000       16.4734       16.4734      14.571269       0.02859
  47    0.1255        1.9021        0.0000       16.4733       16.4733      14.571205       0.02904
  46    0.1487        1.9021        0.0000       16.4732       16.4732      14.571121       0.03060
  45    0.1794        1.9021        0.0000       16.4731       16.4731      14.571002       0.03269
  44    0.2165        1.9021        0.0000       16.4730       16.4730      14.570855       0.03331
  43    0.2613        1.9021        0.0000       16.4728       16.4728      14.570676       0.03376
  42    0.3336        1.9021        0.0000       16.4725       16.4725      14.570370       0.03564
  41    0.4307        1.9021        0.0000       16.4720       16.4720      14.569951       0.03645
  40    0.5894        1.9021        0.0000       16.4713       16.4713      14.569250       0.03729
  39     1.339        1.9021        0.0000       16.4679       16.4679      14.565841       0.03838
  38     1.782        1.9021        0.0000       16.4659       16.4659      14.563842       0.03807
  37     2.292        1.9021        0.0001       16.4635       16.4636      14.561550       0.03795
  36     2.964        1.9020        0.0001       16.4605       16.4606      14.558581       0.03728
  35     3.853        1.9020        0.0001       16.4567       16.4568      14.554727       0.03657
  34     5.035        1.9020        0.0001       16.4516       16.4517      14.549730       0.03570
  33     6.613        1.9020        0.0002       16.4451       16.4452      14.543269       0.03454
  32     8.786        1.9019        0.0002       16.4367       16.4369      14.534956       0.03228
  31     11.80        1.9019        0.0003       16.4254       16.4257      14.523803       0.03122
  30     15.07        1.9018        0.0004       16.4141       16.4145      14.512715       0.02863
  29     18.79        1.9017        0.0005       16.4024       16.4029      14.501192       0.02613
  28     23.16        1.9016        0.0006       16.3900       16.3906      14.488928       0.02371
  27     28.12        1.9016        0.0007       16.3771       16.3778      14.476262       0.02153
  26     33.73        1.9015        0.0009       16.3641       16.3650      14.463532       0.01914
  25     40.54        1.9013        0.0010       16.3502       16.3512      14.449887       0.01693
  24     48.69        1.9012        0.0013       16.3354       16.3366      14.435408       0.01498
  23     57.69        1.9011        0.0015       16.3211       16.3226      14.421501       0.01304
  22     68.43        1.9009        0.0018       16.3062       16.3080      14.407105       0.01132
  21     81.20        1.9007        0.0021       16.2903       16.2924      14.391703       0.01018
  20     96.49        1.9005        0.0025       16.2726       16.2751      14.374618       0.00943
  19     114.6        1.9002        0.0030       16.2521       16.2550      14.354791       0.00926
  18     136.5        1.8999        0.0035       16.2245       16.2281      14.328113       0.01026
  17     162.9        1.8996        0.0042       16.1747       16.1789      14.279308       0.01560
  16     196.4        1.8992        0.0050       16.0518       16.0568      14.157676       0.03062
  15     218.7        1.8989        0.0055       15.8984       15.9039      14.005008       0.05796
  14     243.0        1.8986        0.0061       15.6153       15.6213      13.722680       0.09792
  13     269.0        1.8984        0.0066       15.1390       15.1455      13.247139       0.15426
  12     297.5        1.8983        0.0070       14.5779       14.5849      12.686677       0.16623
  11     328.5        1.8982        0.0075       13.8780       13.8855      11.987302       0.19016
  10     361.9        1.8983        0.0079       13.0814       13.0893      11.191003       0.20147
   9     398.1        1.8986        0.0082       12.2728       12.2811      10.382423       0.18838
   8     437.6        1.8993        0.0085       11.4776       11.4861       9.586808       0.17011
   7     480.5        1.9004        0.0088       10.7300       10.7388       8.838333       0.14700
   6     533.0        1.9026        0.0091       10.0326       10.0417       8.139131       0.11248
   5     589.8        1.9061        0.0095        9.5050        9.5146       7.608468       0.07877
   4     651.6        1.9117        0.0101        9.0814        9.0915       7.179783       0.05862
   3     718.7        1.9198        0.0107        8.7024        8.7131       6.793352       0.04856
   2     792.3        1.9309        0.0114        8.3379        8.3493       6.418444       0.04300
   1     891.5        1.9514        0.0122        7.9064        7.9186       5.967193       0.03840
   0    1013.0        1.9937        0.0132        7.4741        7.4873       5.493642       0.03288



 Wavenumbers:  6150. -  7700. cm-1, ATM      1
 LEVEL PRESSURE   UPWARD FLUX   DIFDOWN FLUX  DIRDOWN FLUX  DOWNWARD FLUX   NET FLUX    HEATING RATE
          mb          W/m2          W/m2          W/m2        W/m2          W/m2       degree/day
  51    .06700        2.8092        0.0000       30.4684       30.4684      27.659211       0.00000
  50    .07753        2.8092        0.0000       30.4683       30.4683      27.659160       0.04144
  49    .09103        2.8092        0.0000       30.4683       30.4683      27.659093       0.04174
  48    0.1069        2.8092        0.0000       30.4682       30.4682      27.659014       0.04202
  47    0.1255        2.8092        0.0000       30.4681       30.4681      27.658921       0.04227
  46    0.1487        2.8092        0.0000       30.4680       30.4680      27.658800       0.04411
  45    0.1794        2.8092        0.0000       30.4678       30.4678      27.658630       0.04669
  44    0.2165        2.8092        0.0000       30.4676       30.4676      27.658422       0.04715
  43    0.2613        2.8092        0.0000       30.4673       30.4673      27.658171       0.04744
  42    0.3336        2.8091        0.0000       30.4669       30.4669      27.657744       0.04974
  41    0.4307        2.8091        0.0000       30.4663       30.4663      27.657163       0.05052
  40    0.5894        2.8091        0.0001       30.4653       30.4653      27.656195       0.05146
  39     1.339        2.8090        0.0001       30.4604       30.4606      27.651512       0.05273
  38     1.782        2.8090        0.0002       30.4576       30.4578      27.648762       0.05235
  37     2.292        2.8089        0.0002       30.4543       30.4546      27.645603       0.05231
  36     2.964        2.8089        0.0003       30.4501       30.4504      27.641496       0.05156
  35     3.853        2.8088        0.0004       30.4445       30.4449      27.636139       0.05084
  34     5.035        2.8087        0.0005       30.4373       30.4378      27.629139       0.05000
  33     6.613        2.8085        0.0007       30.4278       30.4285      27.619992       0.04890
  32     8.786        2.8083        0.0009       30.4154       30.4163      27.608039       0.04642
  31     11.80        2.8080        0.0013       30.3984       30.3996      27.591654       0.04587
  30     15.07        2.8077        0.0016       30.3810       30.3826      27.574940       0.04315
  29     18.79        2.8073        0.0020       30.3623       30.3643      27.557040       0.04059
  28     23.16        2.8069        0.0025       30.3417       30.3442      27.537357       0.03806
  27     28.12        2.8064        0.0031       30.3196       30.3226      27.516257       0.03587
  26     33.73        2.8058        0.0037       30.2965       30.3002      27.494338       0.03295
  25     40.54        2.8051        0.0044       30.2708       30.2751      27.470001       0.03019
  24     48.69        2.8043        0.0053       30.2423       30.2476      27.443225       0.02771
  23     57.69        2.8034        0.0062       30.2139       30.2201      27.416660       0.02490
  22     68.43        2.8024        0.0074       30.1834       30.1908      27.388385       0.02223
  21     81.20        2.8011        0.0088       30.1500       30.1588      27.357657       0.02030
  20     96.49        2.7996        0.0104       30.1126       30.1230      27.323440       0.01889
  19     114.6        2.7978        0.0124       30.0695       30.0819      27.284057       0.01839
  18     136.5        2.7957        0.0147       30.0139       30.0286      27.232905       0.01967
  17     162.9        2.7932        0.0174       29.9225       29.9399      27.146731       0.02754
  16     196.4        2.7899        0.0209       29.7333       29.7543      26.964353       0.04591
  15     218.7        2.7878        0.0232       29.5259       29.5490      26.761233       0.07712
  14     243.0        2.7856        0.0255       29.1375       29.1630      26.377423       0.13312
  13     269.0        2.7833        0.0278       28.3800       28.4078      25.624477       0.24425
  12     297.5        2.7810        0.0299       27.3895       27.4194      24.638360       0.29247
  11     328.5        2.7789        0.0318       26.2257       26.2575      23.478613       0.31533
  10     361.9        2.7771        0.0336       24.8453       24.8790      22.101857       0.34833
   9     398.1        2.7758        0.0352       23.3471       23.3822      20.606471       0.34839
   8     437.6        2.7752        0.0365       21.7966       21.8331      19.057885       0.33110
   7     480.5        2.7761        0.0375       20.1977       20.2352      17.459125       0.31399
   6     533.0        2.7795        0.0384       18.4969       18.5354      15.755871       0.27400
   5     589.8        2.7868        0.0394       16.9754       17.0148      14.227954       0.22679
   4     651.6        2.8002        0.0404       15.6022       15.6425      12.842367       0.18948
   3     718.7        2.8209        0.0415       14.4232       14.4647      11.643798       0.15063
   2     792.3        2.8502        0.0428       13.4386       13.4814      10.631244       0.11613
   1     891.5        2.9053        0.0447       12.3736       12.4183       9.513012       0.09516
   0    1013.0        3.0170        0.0468       11.2911       11.3379       8.320865       0.08278



 Wavenumbers:  7700. -  8050. cm-1, ATM      1
 LEVEL PRESSURE   UPWARD FLUX   DIFDOWN FLUX  DIRDOWN FLUX  DOWNWARD FLUX   NET FLUX    HEATING RATE
          mb          W/m2          W/m2          W/m2        W/m2          W/m2       degree/day
  51    .06700        1.4570        0.0000        7.2006        7.2006       5.743569       0.00000
  50    .07753        1.4570        0.0000        7.2006        7.2006       5.743550       0.01496
  49    .09103        1.4570        0.0000        7.2005        7.2005       5.743527       0.01466
  48    0.1069        1.4570        0.0000        7.2005        7.2005       5.743500       0.01435
  47    0.1255        1.4570        0.0000        7.2005        7.2005       5.743469       0.01404
  46    0.1487        1.4570        0.0000        7.2004        7.2005       5.743430       0.01425
  45    0.1794        1.4570        0.0000        7.2004        7.2004       5.743376       0.01466
  44    0.2165        1.4570        0.0000        7.2003        7.2003       5.743313       0.01438
  43    0.2613        1.4570        0.0000        7.2003        7.2003       5.743238       0.01411
  42    0.3336        1.4570        0.0000        7.2001        7.2001       5.743114       0.01444
  41    0.4307        1.4570        0.0000        7.2000        7.2000       5.742950       0.01428
  40    0.5894        1.4570        0.0000        7.1997        7.1997       5.742682       0.01426
  39     1.339        1.4571        0.0001        7.1984        7.1985       5.741413       0.01428
  38     1.782        1.4571        0.0001        7.1977        7.1978       5.740669       0.01418
  37     2.292        1.4571        0.0001        7.1968        7.1969       5.739807       0.01427
  36     2.964        1.4572        0.0001        7.1957        7.1958       5.738676       0.01420
  35     3.853        1.4572        0.0002        7.1942        7.1944       5.737182       0.01417
  34     5.035        1.4573        0.0002        7.1922        7.1925       5.735200       0.01416
  33     6.613        1.4573        0.0003        7.1896        7.1899       5.732554       0.01414
  32     8.786        1.4574        0.0004        7.1860        7.1864       5.728995       0.01382
  31     11.80        1.4576        0.0005        7.1810        7.1815       5.723915       0.01422
  30     15.07        1.4577        0.0007        7.1755        7.1762       5.718477       0.01404
  29     18.79        1.4579        0.0008        7.1694        7.1703       5.712353       0.01388
  28     23.16        1.4581        0.0010        7.1623        7.1634       5.705229       0.01378
  27     28.12        1.4584        0.0012        7.1542        7.1555       5.697118       0.01379
  26     33.73        1.4586        0.0015        7.1452        7.1467       5.688090       0.01357
  25     40.54        1.4590        0.0018        7.1344        7.1362       5.677250       0.01345
  24     48.69        1.4594        0.0021        7.1215        7.1236       5.664280       0.01342
  23     57.69        1.4598        0.0025        7.1074        7.1100       5.650157       0.01324
  22     68.43        1.4603        0.0030        7.0909        7.0938       5.633503       0.01309
  21     81.20        1.4610        0.0035        7.0713        7.0749       5.613896       0.01296
  20     96.49        1.4618        0.0042        7.0484        7.0526       5.590857       0.01272
  19     114.6        1.4627        0.0050        7.0217        7.0266       5.563945       0.01257
  18     136.5        1.4638        0.0059        6.9906        6.9965       5.532645       0.01204
  17     162.9        1.4652        0.0070        6.9544        6.9614       5.496169       0.01166
  16     196.4        1.4670        0.0084        6.9087        6.9171       5.450089       0.01160
  15     218.7        1.4683        0.0093        6.8794        6.8887       5.420467       0.01125
  14     243.0        1.4696        0.0103        6.8481        6.8584       5.388790       0.01099
  13     269.0        1.4711        0.0114        6.8147        6.8261       5.354945       0.01098
  12     297.5        1.4728        0.0125        6.7791        6.7916       5.318757       0.01073
  11     328.5        1.4748        0.0138        6.7409        6.7547       5.279951       0.01055
  10     361.9        1.4770        0.0151        6.7002        6.7153       5.238310       0.01054
   9     398.1        1.4795        0.0165        6.6563        6.6728       5.193348       0.01048
   8     437.6        1.4824        0.0181        6.6089        6.6269       5.144565       0.01043
   7     480.5        1.4858        0.0197        6.5570        6.5767       5.090923       0.01054
   6     533.0        1.4904        0.0217        6.4915        6.5132       5.022725       0.01097
   5     589.8        1.4961        0.0238        6.4182        6.4421       4.945916       0.01140
   4     651.6        1.5031        0.0261        6.3359        6.3620       4.858823       0.01191
   3     718.7        1.5116        0.0285        6.2441        6.2726       4.760989       0.01229
   2     792.3        1.5217        0.0310        6.1437        6.1747       4.653015       0.01238
   1     891.5        1.5370        0.0343        6.0042        6.0385       4.501432       0.01290
   0    1013.0        1.5592        0.0381        5.8249        5.8630       4.303865       0.01372



 Wavenumbers:  8050. - 12850. cm-1, ATM      1
 LEVEL PRESSURE   UPWARD FLUX   DIFDOWN FLUX  DIRDOWN FLUX  DOWNWARD FLUX   NET FLUX    HEATING RATE
          mb          W/m2          W/m2          W/m2        W/m2          W/m2       degree/day
  51    .06700       19.0884        0.0000      100.8135      100.8135      81.725073       0.00000
  50    .07753       19.0884        0.0000      100.8135      100.8135      81.725073       0.00000
  49    .09103       19.0884        0.0001      100.8134      100.8135      81.725073      -0.00000
  48    0.1069       19.0884        0.0001      100.8134      100.8134      81.725073       0.00000
  47    0.1255       19.0883        0.0001      100.8133      100.8134      81.725073      -0.00000
  46    0.1487       19.0883        0.0002      100.8132      100.8134      81.725073       0.00000
  45    0.1794       19.0882        0.0002      100.8131      100.8133      81.725073      -0.00000
  44    0.2165       19.0882        0.0003      100.8129      100.8132      81.725073       0.00000
  43    0.2613       19.0881        0.0004      100.8127      100.8132      81.725073       0.00000
  42    0.3336       19.0880        0.0006      100.8125      100.8130      81.725073      -0.00000
  41    0.4307       19.0878        0.0008      100.8121      100.8129      81.725073       0.00000
  40    0.5894       19.0875        0.0011      100.8115      100.8126      81.725073       0.00000
  39     1.339       19.0862        0.0027      100.8085      100.8112      81.725073      -0.00000
  38     1.782       19.0854        0.0037      100.8068      100.8104      81.725073       0.00000
  37     2.292       19.0844        0.0048      100.8047      100.8095      81.725073       0.00000
  36     2.964       19.0832        0.0062      100.8021      100.8083      81.725073      -0.00000
  35     3.853       19.0817        0.0081      100.7986      100.8067      81.725073      -0.00000
  34     5.035       19.0795        0.0106      100.7940      100.8046      81.725073       0.00000
  33     6.613       19.0767        0.0140      100.7878      100.8018      81.725073       0.00000
  32     8.786       19.0729        0.0186      100.7794      100.7980      81.725073       0.00000
  31     11.80       19.0675        0.0251      100.7674      100.7925      81.725073       0.00000
  30     15.07       19.0616        0.0321      100.7546      100.7867      81.725073       0.00000
  29     18.79       19.0550        0.0400      100.7400      100.7800      81.725073      -0.00000
  28     23.16       19.0472        0.0493      100.7230      100.7723      81.725073      -0.00000
  27     28.12       19.0383        0.0599      100.7035      100.7634      81.725073       0.00000
  26     33.73       19.0284        0.0718      100.6817      100.7535      81.725073       0.00000
  25     40.54       19.0164        0.0862      100.6552      100.7414      81.725073      -0.00000
  24     48.69       19.0018        0.1036      100.6234      100.7269      81.725073       0.00000
  23     57.69       18.9859        0.1227      100.5883      100.7109      81.725073       0.00000
  22     68.43       18.9668        0.1454      100.5464      100.6919      81.725073       0.00000
  21     81.20       18.9440        0.1726      100.4965      100.6691      81.725073       0.00000
  20     96.49       18.9169        0.2050      100.4370      100.6420      81.725073       0.00000
  19     114.6       18.8846        0.2435      100.3585      100.6020      81.717397       0.00358
  18     136.5       18.8463        0.2893      100.2634      100.5527      81.706348       0.00425
  17     162.9       18.8006        0.3439      100.1407      100.4845      81.683920       0.00717
  16     196.4       18.7413        0.4147       99.9505      100.3652      81.623965       0.01509
  15     218.7       18.7022        0.4613       99.7889      100.2502      81.547980       0.02885
  14     243.0       18.6599        0.5118       99.5472      100.0590      81.399113       0.05163
  13     269.0       18.6143        0.5662       99.1452       99.7114      81.097137       0.09796
  12     297.5       18.5656        0.6245       98.5975       99.2219      80.656302       0.13075
  11     328.5       18.5142        0.6868       97.8659       98.5527      80.038486       0.16798
  10     361.9       18.4606        0.7530       96.8848       97.6378      79.177152       0.21793
   9     398.1       18.4056        0.8227       95.6330       96.4557      78.050105       0.26258
   8     437.6       18.3506        0.8955       94.0655       94.9610      76.610348       0.30783
   7     480.5       18.2989        0.9705       92.0807       93.0512      74.752348       0.36490
   6     533.0       18.2469        1.0586       89.4449       90.5034      72.256506       0.40150
   5     589.8       18.2082        1.1492       86.5544       87.7035      69.495318       0.40985
   4     651.6       18.1918        1.2417       83.4174       84.6591      66.467225       0.41410
   3     718.7       18.2031        1.3368       80.2037       81.5405      63.337424       0.39333
   2     792.3       18.2469        1.4353       77.0811       78.5164      60.269468       0.35186
   1     891.5       18.3726        1.5618       73.2645       74.8263      56.453673       0.32471
   0    1013.0       18.6965        1.7016       68.9425       70.6440      51.947491       0.31289



 Wavenumbers: 12850. - 16000. cm-1, ATM      1
 LEVEL PRESSURE   UPWARD FLUX   DIFDOWN FLUX  DIRDOWN FLUX  DOWNWARD FLUX   NET FLUX    HEATING RATE
          mb          W/m2          W/m2          W/m2        W/m2          W/m2       degree/day
  51    .06700       28.7860        0.0000       63.1686       63.1686      34.382565       0.00000
  50    .07753       28.7860        0.0001       63.1677       63.1678      34.381787       0.62364
  49    .09103       28.7859        0.0001       63.1666       63.1668      34.380818       0.60588
  48    0.1069       28.7859        0.0002       63.1654       63.1656      34.379714       0.58730
  47    0.1255       28.7859        0.0003       63.1640       63.1643      34.378460       0.56862
  46    0.1487       28.7858        0.0004       63.1623       63.1627      34.376897       0.56986
  45    0.1794       28.7857        0.0006       63.1600       63.1605      34.374802       0.57516
  44    0.2165       28.7857        0.0008       63.1573       63.1580      34.372381       0.55072
  43    0.2613       28.7856        0.0010       63.1542       63.1552      34.369591       0.52588
  42    0.3336       28.7855        0.0013       63.1493       63.1506      34.365151       0.51763
  41    0.4307       28.7854        0.0018       63.1431       63.1450      34.359607       0.48204
  40    0.5894       28.7852        0.0026       63.1338       63.1364      34.351229       0.44554
  39     1.339       28.7856        0.0063       63.0956       63.1019      34.316350       0.39267
  38     1.782       28.7866        0.0085       63.0740       63.0826      34.296015       0.38714
  37     2.292       28.7884        0.0111       63.0477       63.0588      34.270341       0.42524
  36     2.964       28.7919        0.0144       63.0095       63.0239      34.232009       0.48118
  35     3.853       28.7981        0.0188       62.9533       62.9721      34.173937       0.55111
  34     5.035       28.8079        0.0247       62.8725       62.8972      34.089265       0.60486
  33     6.613       28.8217        0.0324       62.7621       62.7945      33.972802       0.62261
  32     8.786       28.8395        0.0429       62.6182       62.6612      33.821662       0.58697
  31     11.80       28.8619        0.0578       62.4284       62.4862      33.624257       0.55267
  30     15.07       28.8826        0.0738       62.2426       62.3165      33.433886       0.49150
  29     18.79       28.9027        0.0919       62.0493       62.1412      33.238450       0.44311
  28     23.16       28.9226        0.1129       61.8424       61.9553      33.032683       0.39789
  27     28.12       28.9412        0.1368       61.6278       61.7647      32.823449       0.35568
  26     33.73       28.9559        0.1636       61.4177       61.5813      32.625328       0.29788
  25     40.54       28.9668        0.1959       61.1983       61.3942      32.427408       0.24554
  24     48.69       28.9730        0.2347       60.9680       61.2027      32.229667       0.20463
  23     57.69       28.9733        0.2773       60.7478       61.0251      32.051770       0.16675
  22     68.43       28.9666        0.3280       60.5202       60.8481      31.881572       0.13380
  21     81.20       28.9488        0.3883       60.2938       60.6821      31.733299       0.09798
  20     96.49       28.9186        0.4601       60.0643       60.5244      31.605739       0.07040
  19     114.6       28.8836        0.5458       59.8078       60.3536      31.470027       0.06337
  18     136.5       28.8378        0.6472       59.5157       60.1629      31.325045       0.05575
  17     162.9       28.7796        0.7675       59.1770       59.9446      31.164952       0.05117
  16     196.4       28.6961        0.9232       58.7604       59.6836      30.987527       0.04466
  15     218.7       28.6383        1.0251       58.4948       59.5199      30.881556       0.04023
  14     243.0       28.5743        1.1356       58.2089       59.3445      30.770210       0.03862
  13     269.0       28.5038        1.2550       57.9006       59.1556      30.651858       0.03839
  12     297.5       28.4267        1.3838       57.5668       58.9506      30.523826       0.03797
  11     328.5       28.3438        1.5225       57.2005       58.7230      30.379185       0.03933
  10     361.9       28.2553        1.6713       56.7963       58.4676      30.212322       0.04222
   9     398.1       28.1617        1.8308       56.3475       58.1783      30.016638       0.04559
   8     437.6       28.0641        2.0012       55.8422       57.8434      29.779294       0.05075
   7     480.5       27.9649        2.1825       55.2625       57.4450      29.480075       0.05877
   6     533.0       27.8521        2.4035       54.4972       56.9007      29.048591       0.06941
   5     589.8       27.7420        2.6384       53.6307       56.2691      28.527067       0.07741
   4     651.6       27.6395        2.8862       52.6606       55.5468      27.907280       0.08476
   3     718.7       27.5468        3.1472       51.6100       54.7572      27.210435       0.08757
   2     792.3       27.4671        3.4212       50.5019       53.9231      26.455969       0.08653
   1     891.5       27.3989        3.7817       49.0197       52.8013      25.402443       0.08965
   0    1013.0       27.3968        4.1986       47.2289       51.4275      24.030698       0.09525



 Wavenumbers: 16000. - 22650. cm-1, ATM      1
 LEVEL PRESSURE   UPWARD FLUX   DIFDOWN FLUX  DIRDOWN FLUX  DOWNWARD FLUX   NET FLUX    HEATING RATE
          mb          W/m2          W/m2          W/m2        W/m2          W/m2       degree/day
  51    .06700       68.8129        0.0000      100.7153      100.7153      31.902370       0.00000
  50    .07753       68.8128        0.0003      100.7147      100.7151      31.902256       0.09134
  49    .09103       68.8126        0.0007      100.7140      100.7147      31.902090       0.10359
  48    0.1069       68.8124        0.0012      100.7131      100.7143      31.901868       0.11813
  47    0.1255       68.8122        0.0017      100.7121      100.7138      31.901571       0.13465
  46    0.1487       68.8120        0.0024      100.7108      100.7131      31.901133       0.15956
  45    0.1794       68.8117        0.0033      100.7089      100.7122      31.900449       0.18787
  44    0.2165       68.8114        0.0044      100.7066      100.7109      31.899521       0.21114
  43    0.2613       68.8111        0.0056      100.7037      100.7093      31.898261       0.23737
  42    0.3336       68.8106        0.0078      100.6987      100.7065      31.895867       0.27914
  41    0.4307       68.8101        0.0106      100.6918      100.7023      31.892258       0.31377
  40    0.5894       68.8095        0.0152      100.6797      100.6949      31.885376       0.36599
  39     1.339       68.8118        0.0369      100.6095      100.6464      31.834541       0.57232
  38     1.782       68.8168        0.0496      100.5585      100.6081      31.791249       0.82420
  37     2.292       68.8260        0.0643      100.4903      100.5546      31.728605       1.03754
  36     2.964       68.8433        0.0837      100.3868      100.4704      31.627173       1.27328
  35     3.853       68.8734        0.1092      100.2306      100.3398      31.466351       1.52623
  34     5.035       68.9208        0.1430      100.0045      100.1475      31.226698       1.71198
  33     6.613       68.9878        0.1881       99.6939       99.8820      30.894205       1.77751
  32     8.786       69.0743        0.2488       99.2881       99.5368      30.462517       1.67652
  31     11.80       69.1839        0.3352       98.7496       99.0848      29.900918       1.57230
  30     15.07       69.2850        0.4277       98.2198       98.6475      29.362448       1.39023
  29     18.79       69.3845        0.5318       97.6651       98.1969      28.812386       1.24716
  28     23.16       69.4836        0.6529       97.0671       97.7200      28.236422       1.11373
  27     28.12       69.5769        0.7908       96.4406       97.2313      27.654432       0.98934
  26     33.73       69.6527        0.9446       95.8179       96.7625      27.109773       0.81891
  25     40.54       69.7112        1.1298       95.1548       96.2846      26.573436       0.66539
  24     48.69       69.7496        1.3521       94.4420       95.7941      26.044490       0.54738
  23     57.69       69.7609        1.5953       93.7416       95.3369      25.576001       0.43914
  22     68.43       69.7411        1.8836       92.9954       94.8790      25.137874       0.34443
  21     81.20       69.6720        2.2257       92.2231       94.4488      24.776808       0.23859
  20     96.49       69.5478        2.6314       91.4110       94.0424      24.494512       0.15581
  19     114.6       69.3799        3.1096       90.5070       93.6166      24.236683       0.12039
  18     136.5       69.1676        3.6714       89.4803       93.1517      23.984084       0.09713
  17     162.9       68.9035        4.3335       88.3022       92.6357      23.732210       0.08051
  16     196.4       68.5356        5.1818       86.8606       92.0424      23.506843       0.05673
  15     218.7       68.2854        5.7326       85.9492       91.6817      23.396328       0.04196
  14     243.0       68.0105        6.3256       84.9789       91.3045      23.294045       0.03548
  13     269.0       67.7095        6.9617       83.9493       90.9110      23.201429       0.03004
  12     297.5       67.3820        7.6416       82.8589       90.5005      23.118588       0.02457
  11     328.5       67.0286        8.3677       81.6982       90.0659      23.037275       0.02211
  10     361.9       66.6494        9.1394       80.4669       89.6064      22.956981       0.02032
   9     398.1       66.2433        9.9587       79.1611       89.1199      22.876540       0.01874
   8     437.6       65.8107       10.8257       77.7777       88.6034      22.792768       0.01791
   7     480.5       65.3515       11.7405       76.3136       88.0541      22.702651       0.01770
   6     533.0       64.7935       12.8461       74.5359       87.3820      22.588549       0.01836
   5     589.8       64.2021       14.0131       72.6469       86.6601      22.457967       0.01938
   4     651.6       63.5791       15.2391       70.6456       85.8847      22.305566       0.02084
   3     718.7       62.9249       16.5217       68.5367       85.0584      22.133506       0.02162
   2     792.3       62.2419       17.8554       66.3287       84.1840      21.942098       0.02195
   1     891.5       61.3515       19.5910       63.4246       83.0156      21.664075       0.02366
   0    1013.0       60.3329       21.5779       60.0483       81.6262      21.293328       0.02574



 Wavenumbers: 22650. - 29000. cm-1, ATM      1
 LEVEL PRESSURE   UPWARD FLUX   DIFDOWN FLUX  DIRDOWN FLUX  DOWNWARD FLUX   NET FLUX    HEATING RATE
          mb          W/m2          W/m2          W/m2        W/m2          W/m2       degree/day
  51    .06700       30.3797        0.0000       38.0063       38.0063       7.626552       0.00000
  50    .07753       30.3796        0.0004       38.0057       38.0061       7.626552       0.00000
  49    .09103       30.3793        0.0008       38.0050       38.0059       7.626552      -0.00000
  48    0.1069       30.3791        0.0014       38.0042       38.0056       7.626552      -0.00000
  47    0.1255       30.3788        0.0020       38.0033       38.0053       7.626552       0.00000
  46    0.1487       30.3784        0.0028       38.0022       38.0050       7.626552       0.00000
  45    0.1794       30.3779        0.0038       38.0006       38.0044       7.626552      -0.00000
  44    0.2165       30.3773        0.0051       37.9987       38.0038       7.626552       0.00000
  43    0.2613       30.3766        0.0066       37.9965       38.0031       7.626552      -0.00000
  42    0.3336       30.3754        0.0091       37.9928       38.0019       7.626552       0.00000
  41    0.4307       30.3738        0.0124       37.9880       38.0004       7.626552       0.00000
  40    0.5894       30.3712        0.0177       37.9800       37.9978       7.626552      -0.00000
  39     1.339       30.3591        0.0431       37.9425       37.9856       7.626552       0.00000
  38     1.782       30.3519        0.0580       37.9204       37.9785       7.626552       0.00000
  37     2.292       30.3436        0.0753       37.8949       37.9702       7.626552      -0.00000
  36     2.964       30.3328        0.0979       37.8614       37.9593       7.626552      -0.00000
  35     3.853       30.3184        0.1278       37.8172       37.9450       7.626552       0.00000
  34     5.035       30.2994        0.1674       37.7586       37.9260       7.626552       0.00000
  33     6.613       30.2740        0.2202       37.6803       37.9006       7.626552      -0.00000
  32     8.786       30.2398        0.2913       37.5750       37.8664       7.626552       0.00000
  31     11.80       30.1911        0.3927       37.4249       37.8176       7.626552       0.00000
  30     15.07       30.1388        0.5012       37.2642       37.7654       7.626552      -0.00000
  29     18.79       30.0800        0.6233       37.0833       37.7066       7.626552       0.00000
  28     23.16       30.0116        0.7651       36.8730       37.6381       7.626552       0.00000
  27     28.12       29.9336        0.9264       36.6338       37.5602       7.626552       0.00000
  26     33.73       29.8469        1.1057       36.3677       37.4734       7.626552      -0.00000
  25     40.54       29.7427        1.3207       36.0486       37.3692       7.626552      -0.00000
  24     48.69       29.6180        1.5773       35.6672       37.2445       7.626552       0.00000
  23     57.69       29.4822        1.8561       35.2527       37.1088       7.626552       0.00000
  22     68.43       29.3221        2.1838       34.7649       36.9487       7.626552       0.00000
  21     81.20       29.1337        2.5680       34.1922       36.7603       7.626552      -0.00000
  20     96.49       28.9125        3.0173       33.5217       36.5390       7.626552       0.00000
  19     114.6       28.6544        3.5386       32.7424       36.2809       7.626552       0.00000
  18     136.5       28.3548        4.1398       31.8416       35.9814       7.626552       0.00000
  17     162.9       28.0068        4.8326       30.8008       35.6334       7.626552      -0.00000
  16     196.4       27.5692        5.6951       29.5007       35.1958       7.626552       0.00000
  15     218.7       27.2901        6.2399       28.6767       34.9166       7.626552      -0.00000
  14     243.0       26.9937        6.8135       27.8068       34.6202       7.626552       0.00000
  13     269.0       26.6805        7.4137       26.8933       34.3071       7.626552       0.00000
  12     297.5       26.3512        8.0384       25.9393       33.9777       7.626552      -0.00000
  11     328.5       26.0053        8.6867       24.9451       33.6318       7.626552      -0.00000
  10     361.9       25.6442        9.3547       23.9160       33.2707       7.626552       0.00000
   9     398.1       25.2679       10.0403       22.8541       32.8945       7.626552      -0.00000
   8     437.6       24.8776       10.7397       21.7645       32.5041       7.626552       0.00000
   7     480.5       24.4743       11.4487       20.6521       32.1008       7.626552       0.00000
   6     533.0       23.9977       12.2673       19.3569       31.6242       7.626552      -0.00000
   5     589.8       23.5069       13.0867       18.0467       31.1335       7.626552       0.00000
   4     651.6       23.0042       13.8991       16.7316       30.6307       7.626552       0.00000
   3     718.7       22.4916       14.6967       15.4214       30.1181       7.626552      -0.00000
   2     792.3       21.9717       15.4707       14.1276       29.5983       7.626552      -0.00000
   1     891.5       21.3138       16.3944       12.5459       28.9403       7.626552       0.00000
   0    1013.0       20.5828       17.3376       10.8717       28.2093       7.626552       0.00000



 Wavenumbers: 29000. - 38000. cm-1, ATM      1
 LEVEL PRESSURE   UPWARD FLUX   DIFDOWN FLUX  DIRDOWN FLUX  DOWNWARD FLUX   NET FLUX    HEATING RATE
          mb          W/m2          W/m2          W/m2        W/m2          W/m2       degree/day
  51    .06700        4.5166        0.0000       13.4026       13.4026       8.885972       0.00000
  50    .07753        4.5164        0.0003       13.3983       13.3986       8.882175       3.04404
  49    .09103        4.5161        0.0007       13.3921       13.3928       8.876656       3.44927
  48    0.1069        4.5158        0.0011       13.3840       13.3851       8.869280       3.92630
  47    0.1255        4.5155        0.0016       13.3733       13.3749       8.859436       4.46264
  46    0.1487        4.5150        0.0022       13.3579       13.3600       8.844996       5.26374
  45    0.1794        4.5144        0.0030       13.3340       13.3370       8.822599       6.14849
  44    0.2165        4.5138        0.0040       13.3024       13.3064       8.792584       6.82788
  43    0.2613        4.5130        0.0051       13.2604       13.2655       8.752535       7.54909
  42    0.3336        4.5117        0.0070       13.1833       13.1903       8.678539       8.62720
  41    0.4307        4.5101        0.0094       13.0729       13.0823       8.572183       9.24740
  40    0.5894        4.5077        0.0133       12.8796       12.8929       8.385171       9.94504
  39     1.339        4.4988        0.0294       11.9165       11.9459       7.447074      10.56127
  38     1.782        4.4952        0.0376       11.4399       11.4775       6.982296       8.84861
  37     2.292        4.4923        0.0464       10.9796       11.0260       6.533652       7.43072
  36     2.964        4.4903        0.0571       10.4786       10.5357       6.045477       6.12807
  35     3.853        4.4900        0.0704        9.9429       10.0133       5.523328       4.95529
  34     5.035        4.4920        0.0870        9.4007        9.4877       4.995635       3.76962
  33     6.613        4.4965        0.1080        8.8752        8.9832       4.486671       2.72092
  32     8.786        4.5028        0.1350        8.3786        8.5136       4.010786       1.84816
  31     11.80        4.5102        0.1721        7.8897        8.0618       3.551545       1.28573
  30     15.07        4.5162        0.2104        7.5108        7.7212       3.204972       0.89478
  29     18.79        4.5213        0.2520        7.1776        7.4296       2.908322       0.67260
  28     23.16        4.5253        0.2989        6.8664        7.1653       2.639950       0.51894
  27     28.12        4.5276        0.3506        6.5780        6.9286       2.401011       0.40618
  26     33.73        4.5259        0.4070        6.3195        6.7264       2.200490       0.30149
  25     40.54        4.5188        0.4734        6.0663        6.5396       2.020815       0.22291
  24     48.69        4.5057        0.5511        5.8128        6.3640       1.858307       0.16817
  23     57.69        4.4868        0.6340        5.5777        6.2117       1.724911       0.12504
  22     68.43        4.4596        0.7298        5.3379        6.0677       1.608103       0.09183
  21     81.20        4.4201        0.8409        5.0965        5.9374       1.517341       0.05997
  20     96.49        4.3668        0.9690        4.8476        5.8167       1.449868       0.03724
  19     114.6        4.3026        1.1140        4.5799        5.6938       1.391244       0.02737
  18     136.5        4.2282        1.2755        4.2891        5.5646       1.336410       0.02109
  17     162.9        4.1431        1.4542        3.9732        5.4274       1.284263       0.01667
  16     196.4        4.0356        1.6675        3.6080        5.2755       1.239821       0.01119
  15     218.7        3.9678        1.7967        3.3898        5.1865       1.218723       0.00801
  14     243.0        3.8970        1.9281        3.1686        5.0967       1.199628       0.00662
  13     269.0        3.8236        2.0604        2.9461        5.0064       1.182829       0.00545
  12     297.5        3.7479        2.1923        2.7239        4.9163       1.168334       0.00430
  11     328.5        3.6707        2.3226        2.5029        4.8255       1.154761       0.00369
  10     361.9        3.5923        2.4498        2.2846        4.7344       1.142127       0.00320
   9     398.1        3.5132        2.5728        2.0708        4.6436       1.130425       0.00273
   8     437.6        3.4336        2.6904        1.8626        4.5530       1.119402       0.00236
   7     480.5        3.3541        2.8011        1.6621        4.4632       1.109177       0.00201
   6     533.0        3.2634        2.9180        1.4437        4.3617       1.098304       0.00175
   5     589.8        3.1737        3.0227        1.2390        4.2617       1.088053       0.00152
   4     651.6        3.0854        3.1136        1.0500        4.1636       1.078284       0.00134
   3     718.7        2.9986        3.1898        0.8778        4.0676       1.068965       0.00117
   2     792.3        2.9137        3.2501        0.7237        3.9738       1.060076       0.00102
   1     891.5        2.8098        3.3029        0.5563        3.8592       1.049419       0.00091
   0    1013.0        2.6977        3.3318        0.4039        3.7357       1.038048       0.00079



 Wavenumbers: 38000. - 50000. cm-1, ATM      1
 LEVEL PRESSURE   UPWARD FLUX   DIFDOWN FLUX  DIRDOWN FLUX  DOWNWARD FLUX   NET FLUX    HEATING RATE
          mb          W/m2          W/m2          W/m2        W/m2          W/m2       degree/day
  51    .06700        0.0051        0.0000        0.8267        0.8267       0.821528       0.00000
  50    .07753        0.0051        0.0001        0.8242        0.8243       0.819196       1.86936
  49    .09103        0.0050        0.0002        0.8207        0.8209       0.815872       2.07705
  48    0.1069        0.0049        0.0002        0.8162        0.8164       0.811514       2.31984
  47    0.1255        0.0048        0.0004        0.8103        0.8106       0.805801       2.59006
  46    0.1487        0.0047        0.0005        0.8018        0.8023       0.797567       3.00143
  45    0.1794        0.0045        0.0007        0.7889        0.7896       0.785013       3.44648
  44    0.2165        0.0044        0.0009        0.7720        0.7729       0.768507       3.75474
  43    0.2613        0.0042        0.0011        0.7500        0.7511       0.746955       4.06246
  42    0.3336        0.0039        0.0015        0.7106        0.7121       0.708267       4.51071
  41    0.4307        0.0035        0.0019        0.6566        0.6584       0.654972       4.63387
  40    0.5894        0.0029        0.0024        0.5680        0.5704       0.567464       4.65357
  39     1.339        0.0015        0.0030        0.2422        0.2452       0.243720       3.64476
  38     1.782        0.0010        0.0026        0.1493        0.1519       0.150889       1.76735
  37     2.292        0.0007        0.0022        0.0924        0.0946       0.093932       0.94336
  36     2.964        0.0005        0.0018        0.0539        0.0557       0.055224       0.48589
  35     3.853        0.0003        0.0013        0.0295        0.0308       0.030502       0.23462
  34     5.035        0.0002        0.0010        0.0154        0.0164       0.016181       0.10230
  33     6.613        0.0001        0.0007        0.0073        0.0080       0.007912       0.04420
  32     8.786        0.0000        0.0004        0.0030        0.0034       0.003390       0.01756
  31     11.80        0.0000        0.0003        0.0010        0.0012       0.001199       0.00613
  30     15.07        0.0000        0.0001        0.0003        0.0005       0.000463       0.00190
  29     18.79        0.0000        0.0001        0.0001        0.0002       0.000182       0.00064
  28     23.16        0.0000        0.0000        0.0000        0.0001       0.000071       0.00022
  27     28.12        0.0000        0.0000        0.0000        0.0000       0.000028       0.00007
  26     33.73        0.0000        0.0000        0.0000        0.0000       0.000011       0.00002
  25     40.54        0.0000        0.0000        0.0000        0.0000       0.000005       0.00001
  24     48.69        0.0000        0.0000        0.0000        0.0000       0.000002       0.00000
  23     57.69        0.0000        0.0000        0.0000        0.0000       0.000001       0.00000
  22     68.43        0.0000        0.0000        0.0000        0.0000       0.000000       0.00000
  21     81.20        0.0000        0.0000        0.0000        0.0000       0.000000       0.00000
  20     96.49        0.0000        0.0000        0.0000        0.0000       0.000000       0.00000
  19     114.6        0.0000        0.0000        0.0000        0.0000       0.000000       0.00000
  18     136.5        0.0000        0.0000        0.0000        0.0000       0.000000       0.00000
  17     162.9        0.0000        0.0000        0.0000        0.0000       0.000000       0.00000
  16     196.4        0.0000        0.0000        0.0000        0.0000       0.000000       0.00000
  15     218.7        0.0000        0.0000        0.0000        0.0000       0.000000       0.00000
  14     243.0        0.0000        0.0000        0.0000        0.0000       0.000000       0.00000
  13     269.0        0.0000        0.0000        0.0000        0.0000       0.000000       0.00000
  12     297.5        0.0000        0.0000        0.0000        0.0000       0.000000       0.00000
  11     328.5        0.0000        0.0000        0.0000        0.0000       0.000000       0.00000
  10     361.9        0.0000        0.0000        0.0000        0.0000       0.000000       0.00000
   9     398.1        0.0000        0.0000        0.0000        0.0000       0.000000       0.00000
   8     437.6        0.0000        0.0000        0.0000        0.0000       0.000000       0.00000
   7     480.5        0.0000        0.0000        0.0000        0.0000       0.000000       0.00000
   6     533.0        0.0000        0.0000        0.0000        0.0000       0.000000       0.00000
   5     589.8        0.0000        0.0000        0.0000        0.0000       0.000000       0.00000
   4     651.6        0.0000        0.0000        0.0000        0.0000       0.000000       0.00000
   3     718.7        0.0000        0.0000        0.0000        0.0000       0.000000       0.00000
   2     792.3        0.0000        0.0000        0.0000        0.0000       0.000000       0.00000
   1     891.5        0.0000        0.0000        0.0000        0.0000       0.000000       0.00000
   0    1013.0        0.0000        0.0000        0.0000        0.0000       0.000000       0.00000



 Wavenumbers:   820. -  2600. cm-1, ATM      1
 LEVEL PRESSURE   UPWARD FLUX   DIFDOWN FLUX  DIRDOWN FLUX  DOWNWARD FLUX   NET FLUX    HEATING RATE
          mb          W/m2          W/m2          W/m2        W/m2          W/m2       degree/day
  51    .06700        0.1743        0.0000        3.8670        3.8670       3.692687       0.00000
  50    .07753        0.1743        0.0000        3.8643        3.8643       3.689970       2.17769
  49    .09103        0.1743        0.0000        3.8635        3.8635       3.689159       0.50638
  48    0.1069        0.1743        0.0000        3.8626        3.8626       3.688269       0.47415
  47    0.1255        0.1743        0.0000        3.8616        3.8616       3.687308       0.43559
  46    0.1487        0.1743        0.0000        3.8605        3.8605       3.686198       0.40437
  45    0.1794        0.1743        0.0000        3.8592        3.8592       3.684864       0.36648
  44    0.2165        0.1743        0.0000        3.8578        3.8578       3.683486       0.31346
  43    0.2613        0.1743        0.0000        3.8564        3.8564       3.682025       0.27522
  42    0.3336        0.1743        0.0000        3.8541        3.8541       3.679794       0.26012
  41    0.4307        0.1743        0.0000        3.8512        3.8512       3.676912       0.25063
  40    0.5894        0.1743        0.0000        3.8465        3.8465       3.672186       0.25133
  39     1.339        0.1743        0.0000        3.8251        3.8251       3.650811       0.24064
  38     1.782        0.1743        0.0000        3.8133        3.8133       3.638998       0.22489
  37     2.292        0.1743        0.0000        3.8003        3.8003       3.625937       0.21633
  36     2.964        0.1743        0.0000        3.7841        3.7841       3.609808       0.20246
  35     3.853        0.1743        0.0000        3.7642        3.7642       3.589894       0.18899
  34     5.035        0.1743        0.0000        3.7395        3.7395       3.565203       0.17638
  33     6.613        0.1743        0.0000        3.7090        3.7090       3.534668       0.16324
  32     8.786        0.1743        0.0000        3.6726        3.6726       3.498275       0.14134
  31     11.80        0.1743        0.0000        3.6320        3.6320       3.457681       0.11365
  30     15.07        0.1743        0.0000        3.6016        3.6016       3.427298       0.07844
  29     18.79        0.1743        0.0000        3.5777        3.5777       3.403400       0.05418
  28     23.16        0.1743        0.0000        3.5564        3.5564       3.382048       0.04129
  27     28.12        0.1743        0.0000        3.5348        3.5348       3.360502       0.03663
  26     33.73        0.1743        0.0000        3.5118        3.5118       3.337470       0.03463
  25     40.54        0.1743        0.0000        3.4849        3.4849       3.310583       0.03336
  24     48.69        0.1744        0.0000        3.4537        3.4537       3.279332       0.03234
  23     57.69        0.1744        0.0000        3.4210        3.4210       3.246660       0.03063
  22     68.43        0.1744        0.0000        3.3844        3.3844       3.210076       0.02876
  21     81.20        0.1744        0.0000        3.3441        3.3441       3.169778       0.02663
  20     96.49        0.1744        0.0000        3.2998        3.2998       3.125414       0.02449
  19     114.6        0.1744        0.0000        3.2506        3.2506       3.076267       0.02295
  18     136.5        0.1744        0.0000        3.1936        3.1936       3.019217       0.02194
  17     162.9        0.1744        0.0000        3.1181        3.1181       2.943712       0.02413
  16     196.4        0.1745        0.0000        3.0090        3.0090       2.834519       0.02749
  15     218.7        0.1745        0.0000        2.9420        2.9420       2.767510       0.02544
  14     243.0        0.1745        0.0000        2.8605        2.8605       2.685940       0.02829
  13     269.0        0.1746        0.0000        2.7419        2.7420       2.567345       0.03847
  12     297.5        0.1748        0.0000        2.5729        2.5729       2.398113       0.05019
  11     328.5        0.1750        0.0000        2.3602        2.3602       2.185179       0.05790
  10     361.9        0.1754        0.0000        2.1524        2.1524       1.977030       0.05266
   9     398.1        0.1760        0.0000        1.9974        1.9974       1.821465       0.03624
   8     437.6        0.1768        0.0000        1.8835        1.8835       1.706759       0.02452
   7     480.5        0.1779        0.0000        1.7734        1.7734       1.595514       0.02185
   6     533.0        0.1799        0.0000        1.6397        1.6398       1.459874       0.02182
   5     589.8        0.1827        0.0000        1.5068        1.5069       1.324130       0.02015
   4     651.6        0.1870        0.0000        1.3807        1.3807       1.193773       0.01783
   3     718.7        0.1926        0.0000        1.2680        1.2680       1.075475       0.01487
   2     792.3        0.1995        0.0000        1.1659        1.1660       0.966500       0.01250
   1     891.5        0.2111        0.0000        1.0372        1.0373       0.826169       0.01194
   0    1013.0        0.2322        0.0000        0.8716        0.8717       0.639462       0.01296

  Modules and versions used in this calculation:

       rrtmg_sw.1col.f90:  $Revision$                    rrtmg_sw_init.f90:  $Revision$        
     rrtmgsw_cldprop.f90:  $Revision$                  rrtmgsw_cldprmc.f90:  NOT USED          
     rrtmg_sw_reftra.f90:  $Revision$                  rrtmg_sw_spcvrt.f90:  NOT USED          
     rrtmg_sw_spcvmc.f90:  NOT USED                    rrtmgsw_setcoef.f90:  NOT USED          
     rrtmg_sw_taumol.f90:  $Revision$                  rrtmg_sw_vrtqdr.f90:  NOT USED          
                rrtatm.f:  NOT USED                             util_xxx.f:  NOT USED          
                 extra.f:  NOT USED                       rrtmg_sw_k_g.f90:  $Revision$        

