

 Wavenumbers:   820. - 50000. cm-1, ATM      1
 LEVEL PRESSURE   UPWARD FLUX   DIFDOWN FLUX  DIRDOWN FLUX  DOWNWARD FLUX   NET FLUX    HEATING RATE
          mb          W/m2          W/m2          W/m2        W/m2          W/m2       degree/day
  51    .06700      149.7202        0.0000      397.8738      397.8738     248.153583       0.00000
  50    .07753      149.7196        0.0011      397.8577      397.8589     248.139307      11.44249
  49    .09103      149.7187        0.0026      397.8418      397.8444     248.125640       8.54219
  48    0.1069      149.7178        0.0042      397.8230      397.8272     248.109320       8.68695
  47    0.1255      149.7168        0.0061      397.7997      397.8057     248.088915       9.25070
  46    0.1487      149.7155        0.0084      397.7676      397.7761     248.060512      10.35309
  45    0.1794      149.7139        0.0116      397.7205      397.7322     248.018305      11.58682
  44    0.2165      149.7119        0.0154      397.6602      397.6757     247.963772      12.40544
  43    0.2613      149.7097        0.0199      397.5829      397.6028     247.893130      13.31575
  42    0.3336      149.7062        0.0273      397.4449      397.4722     247.765984      14.82395
  41    0.4307      149.7018        0.0369      397.2524      397.2893     247.587555      15.51398
  40    0.5894      149.6951        0.0525      396.9253      396.9778     247.282674      16.21317
  39     1.339      149.6730        0.1217      395.4254      395.5471     245.874058      15.85846
  38     1.782      149.6663        0.1605      394.7288      394.8892     245.222985      12.39538
  37     2.292      149.6638        0.2045      394.0572      394.2617     244.597872      10.35350
  36     2.964      149.6686        0.2617      393.3007      393.5624     243.893820       8.83798
  35     3.853      149.6859        0.3365      392.4318      392.7683     243.082361       7.70090
  34     5.035      149.7199        0.4348      391.4441      391.8789     242.159012       6.59602
  33     6.613      149.7713        0.5650      390.3268      390.8917     241.120425       5.55229
  32     8.786      149.8367        0.7390      389.0624      389.8014     239.964780       4.48811
  31     11.80      149.9124        0.9860      387.5500      388.5359     238.623572       3.75496
  30     15.07      149.9728        1.2488      386.1556      387.4044     237.431585       3.07748
  29     18.79      150.0226        1.5433      384.7502      386.2935     236.270865       2.63171
  28     23.16      150.0594        1.8843      383.2686      385.1530     235.093545       2.27656
  27     28.12      150.0766        2.2710      381.7329      384.0039     233.927335       1.98248
  26     33.73      150.0590        2.7004      380.1982      382.8986     232.839584       1.63546
  25     40.54      149.9952        3.2151      378.5384      381.7535     231.758337       1.34141
  24     48.69      149.8776        3.8298      376.7214      380.5513     230.673651       1.12248
  23     57.69      149.7098        4.4984      374.8959      379.3942     229.684485       0.92719
  22     68.43      149.4684        5.2860      372.8999      378.1859     228.717530       0.76016
  21     81.20      149.1236        6.2138      370.7496      376.9634     227.839836       0.57997
  20     96.49      148.6615        7.3045      368.4056      375.7100     227.048540       0.43674
  19     114.6      148.0972        8.5771      365.7513      374.3284     226.231133       0.38167
  18     136.5      147.4202       10.0535      362.7231      372.7766     225.356475       0.33633
  17     162.9      146.6121       11.7676      359.1748      370.9424     224.330300       0.32801
  16     196.4      145.5493       13.9253      354.5718      368.4971     222.947783       0.34800
  15     218.7      144.8518       15.3032      351.4437      366.7469     221.895109       0.39966
  14     243.0      144.0999       16.7669      347.7111      364.4781     220.378186       0.52612
  13     269.0      143.2933       18.3143      342.9441      361.2584     217.965077       0.78280
  12     297.5      142.4327       19.9427      337.4137      357.3564     214.923737       0.90203
  11     328.5      141.5200       21.6533      331.1302      352.7835     211.263534       0.99520
  10     361.9      140.5579       23.4400      324.1219      347.5619     207.004005       1.07770
   9     398.1      139.5472       25.3018      316.6066      341.9083     202.361137       1.08168
   8     437.6      138.4924       27.2333      308.5895      335.8228     197.330462       1.07559
   7     480.5      137.4006       29.2283      299.9349      329.1632     191.762615       1.09350
   6     533.0      136.1137       31.5838      289.7021      321.2859     185.172213       1.06019
   5     589.8      134.7989       34.0057      279.3388      313.3445     178.545539       0.98362
   4     651.6      133.4762       36.4811      268.7786      305.2597     171.783539       0.92472
   3     718.7      132.1564       39.0000      258.2837      297.2836     165.127275       0.83651
   2     792.3      130.8534       41.5473      248.0774      289.6247     158.771326       0.72896
   1     891.5      129.2963       44.7561      235.5216      280.2777     150.981334       0.66289
   0    1013.0      127.8367       48.2829      221.4731      269.7560     141.919311       0.62922



 Wavenumbers:  2600. -  3250. cm-1, ATM      1
 LEVEL PRESSURE   UPWARD FLUX   DIFDOWN FLUX  DIRDOWN FLUX  DOWNWARD FLUX   NET FLUX    HEATING RATE
          mb          W/m2          W/m2          W/m2        W/m2          W/m2       degree/day
  51    .06700        0.2237        0.0000        3.5066        3.5066       3.282877       0.00000
  50    .07753        0.2237        0.0000        3.5066        3.5066       3.282869       0.00640
  49    .09103        0.2237        0.0000        3.5066        3.5066       3.282859       0.00627
  48    0.1069        0.2237        0.0000        3.5066        3.5066       3.282847       0.00613
  47    0.1255        0.2237        0.0000        3.5066        3.5066       3.282834       0.00599
  46    0.1487        0.2237        0.0000        3.5066        3.5066       3.282818       0.00607
  45    0.1794        0.2237        0.0000        3.5065        3.5065       3.282795       0.00624
  44    0.2165        0.2237        0.0000        3.5065        3.5065       3.282768       0.00611
  43    0.2613        0.2237        0.0000        3.5065        3.5065       3.282736       0.00598
  42    0.3336        0.2237        0.0000        3.5064        3.5064       3.282683       0.00615
  41    0.4307        0.2237        0.0000        3.5064        3.5064       3.282612       0.00618
  40    0.5894        0.2237        0.0000        3.5062        3.5062       3.282493       0.00633
  39     1.339        0.2237        0.0000        3.5055        3.5055       3.281795       0.00787
  38     1.782        0.2237        0.0000        3.5050        3.5050       3.281264       0.01011
  37     2.292        0.2237        0.0000        3.5043        3.5043       3.280571       0.01147
  36     2.964        0.2237        0.0000        3.5033        3.5033       3.279580       0.01245
  35     3.853        0.2237        0.0000        3.5019        3.5019       3.278203       0.01307
  34     5.035        0.2237        0.0000        3.5001        3.5001       3.276342       0.01329
  33     6.613        0.2237        0.0000        3.4977        3.4977       3.273932       0.01288
  32     8.786        0.2237        0.0000        3.4947        3.4947       3.270961       0.01154
  31     11.80        0.2237        0.0000        3.4911        3.4911       3.267326       0.01018
  30     15.07        0.2237        0.0000        3.4878        3.4878       3.264105       0.00832
  29     18.79        0.2237        0.0000        3.4848        3.4848       3.261042       0.00695
  28     23.16        0.2237        0.0000        3.4816        3.4816       3.257822       0.00623
  27     28.12        0.2237        0.0000        3.4779        3.4779       3.254204       0.00615
  26     33.73        0.2237        0.0000        3.4735        3.4735       3.249738       0.00671
  25     40.54        0.2237        0.0000        3.4671        3.4671       3.243413       0.00785
  24     48.69        0.2237        0.0000        3.4582        3.4583       3.234518       0.00920
  23     57.69        0.2237        0.0000        3.4472        3.4472       3.223471       0.01036
  22     68.43        0.2237        0.0000        3.4329        3.4329       3.209212       0.01121
  21     81.20        0.2237        0.0000        3.4152        3.4152       3.191485       0.01171
  20     96.49        0.2237        0.0000        3.3940        3.3941       3.170343       0.01167
  19     114.6        0.2237        0.0000        3.3692        3.3692       3.145456       0.01162
  18     136.5        0.2238        0.0001        3.3419        3.3420       3.118242       0.01046
  17     162.9        0.2238        0.0001        3.3129        3.3129       3.089172       0.00929
  16     196.4        0.2238        0.0001        3.2793        3.2794       3.055606       0.00845
  15     218.7        0.2238        0.0001        3.2578        3.2578       3.033995       0.00820
  14     243.0        0.2239        0.0001        3.2320        3.2320       3.008132       0.00897
  13     269.0        0.2240        0.0001        3.1968        3.1969       2.972897       0.01143
  12     297.5        0.2242        0.0001        3.1489        3.1490       2.924835       0.01425
  11     328.5        0.2245        0.0001        3.0821        3.0822       2.857683       0.01826
  10     361.9        0.2249        0.0001        2.9902        2.9904       2.765463       0.02333
   9     398.1        0.2255        0.0001        2.8715        2.8716       2.646147       0.02780
   8     437.6        0.2263        0.0001        2.7276        2.7278       2.501501       0.03093
   7     480.5        0.2275        0.0001        2.5595        2.5597       2.332175       0.03326
   6     533.0        0.2295        0.0001        2.3617        2.3619       2.132414       0.03214
   5     589.8        0.2323        0.0002        2.1649        2.1651       1.932744       0.02964
   4     651.6        0.2365        0.0002        1.9608        1.9609       1.724465       0.02848
   3     718.7        0.2421        0.0002        1.7593        1.7595       1.517416       0.02602
   2     792.3        0.2494        0.0002        1.5761        1.5762       1.326822       0.02186
   1     891.5        0.2620        0.0002        1.3714        1.3716       1.109607       0.01848
   0    1013.0        0.2847        0.0002        1.1584        1.1586       0.873817       0.01637



 Wavenumbers:  3250. -  4000. cm-1, ATM      1
 LEVEL PRESSURE   UPWARD FLUX   DIFDOWN FLUX  DIRDOWN FLUX  DOWNWARD FLUX   NET FLUX    HEATING RATE
          mb          W/m2          W/m2          W/m2        W/m2          W/m2       degree/day
  51    .06700        0.0004        0.0000        5.9117        5.9117       5.911216       0.00000
  50    .07753        0.0004        0.0000        5.9075        5.9075       5.907026       3.35808
  49    .09103        0.0004        0.0000        5.9050        5.9050       5.904584       1.52677
  48    0.1069        0.0004        0.0000        5.9032        5.9032       5.902717       0.99346
  47    0.1255        0.0004        0.0000        5.9014        5.9014       5.900959       0.79708
  46    0.1487        0.0004        0.0000        5.8995        5.8995       5.899070       0.68848
  45    0.1794        0.0004        0.0000        5.8974        5.8974       5.896922       0.58983
  44    0.2165        0.0004        0.0000        5.8952        5.8952       5.894805       0.48155
  43    0.2613        0.0004        0.0000        5.8931        5.8931       5.892646       0.40696
  42    0.3336        0.0004        0.0000        5.8899        5.8899       5.889488       0.36820
  41    0.4307        0.0004        0.0000        5.8861        5.8861       5.885651       0.33365
  40    0.5894        0.0004        0.0000        5.8803        5.8803       5.879848       0.30857
  39     1.339        0.0004        0.0000        5.8597        5.8597       5.859251       0.23189
  38     1.782        0.0004        0.0000        5.8513        5.8513       5.850826       0.16039
  37     2.292        0.0004        0.0000        5.8431        5.8431       5.842655       0.13533
  36     2.964        0.0004        0.0000        5.8334        5.8334       5.833015       0.12100
  35     3.853        0.0004        0.0000        5.8213        5.8213       5.820840       0.11555
  34     5.035        0.0004        0.0000        5.8052        5.8052       5.804745       0.11498
  33     6.613        0.0004        0.0000        5.7833        5.7834       5.782923       0.11666
  32     8.786        0.0004        0.0000        5.7531        5.7531       5.752722       0.11729
  31     11.80        0.0004        0.0000        5.7090        5.7090       5.708553       0.12366
  30     15.07        0.0004        0.0000        5.6615        5.6615       5.661088       0.12254
  29     18.79        0.0004        0.0000        5.6093        5.6094       5.608953       0.11821
  28     23.16        0.0004        0.0000        5.5524        5.5524       5.552027       0.11008
  27     28.12        0.0004        0.0000        5.4935        5.4935       5.493148       0.10009
  26     33.73        0.0004        0.0000        5.4348        5.4349       5.434459       0.08824
  25     40.54        0.0004        0.0001        5.3707        5.3708       5.370398       0.07948
  24     48.69        0.0004        0.0001        5.2985        5.2985       5.298165       0.07475
  23     57.69        0.0004        0.0001        5.2215        5.2216       5.221226       0.07212
  22     68.43        0.0003        0.0001        5.1318        5.1319       5.131566       0.07048
  21     81.20        0.0003        0.0001        5.0284        5.0285       5.028136       0.06834
  20     96.49        0.0003        0.0001        4.9122        4.9123       4.912002       0.06410
  19     114.6        0.0003        0.0001        4.7780        4.7782       4.777891       0.06262
  18     136.5        0.0003        0.0002        4.6285        4.6287       4.628413       0.05748
  17     162.9        0.0002        0.0002        4.4406        4.4407       4.440500       0.06006
  16     196.4        0.0002        0.0002        4.1548        4.1550       4.154827       0.07191
  15     218.7        0.0002        0.0002        3.9564        3.9566       3.956446       0.07532
  14     243.0        0.0002        0.0002        3.7055        3.7058       3.705612       0.08700
  13     269.0        0.0001        0.0002        3.3399        3.3401       3.339973       0.11861
  12     297.5        0.0001        0.0002        2.8954        2.8956       2.895483       0.13183
  11     328.5        0.0001        0.0002        2.4388        2.4390       2.438942       0.12413
  10     361.9        0.0001        0.0002        2.0269        2.0271       2.027003       0.10422
   9     398.1        0.0001        0.0002        1.6753        1.6755       1.675415       0.08191
   8     437.6        0.0001        0.0002        1.3592        1.3594       1.359296       0.06759
   7     480.5        0.0001        0.0002        1.0616        1.0618       1.061713       0.05844
   6     533.0        0.0001        0.0001        0.7543        0.7544       0.754377       0.04944
   5     589.8        0.0001        0.0001        0.4951        0.4952       0.495181       0.03847
   4     651.6        0.0001        0.0001        0.2943        0.2943       0.294278       0.02747
   3     718.7        0.0001        0.0001        0.1528        0.1529       0.152770       0.01778
   2     792.3        0.0001        0.0000        0.0658        0.0658       0.065710       0.00998
   1     891.5        0.0003        0.0000        0.0157        0.0157       0.015360       0.00428
   0    1013.0        0.0013        0.0000        0.0013        0.0013       0.000051       0.00106



 Wavenumbers:  4000. -  4650. cm-1, ATM      1
 LEVEL PRESSURE   UPWARD FLUX   DIFDOWN FLUX  DIRDOWN FLUX  DOWNWARD FLUX   NET FLUX    HEATING RATE
          mb          W/m2          W/m2          W/m2        W/m2          W/m2       degree/day
  51    .06700        0.6293        0.0000        6.9421        6.9421       6.312720       0.00000
  50    .07753        0.6293        0.0000        6.9421        6.9421       6.312719       0.00079
  49    .09103        0.6293        0.0000        6.9421        6.9421       6.312718       0.00078
  48    0.1069        0.6293        0.0000        6.9421        6.9421       6.312716       0.00076
  47    0.1255        0.6293        0.0000        6.9421        6.9421       6.312715       0.00074
  46    0.1487        0.6293        0.0000        6.9421        6.9421       6.312713       0.00075
  45    0.1794        0.6293        0.0000        6.9421        6.9421       6.312710       0.00077
  44    0.2165        0.6293        0.0000        6.9421        6.9421       6.312706       0.00076
  43    0.2613        0.6293        0.0000        6.9420        6.9420       6.312702       0.00074
  42    0.3336        0.6293        0.0000        6.9420        6.9420       6.312696       0.00076
  41    0.4307        0.6293        0.0000        6.9420        6.9420       6.312687       0.00077
  40    0.5894        0.6293        0.0000        6.9420        6.9420       6.312672       0.00079
  39     1.339        0.6293        0.0000        6.9419        6.9419       6.312583       0.00100
  38     1.782        0.6293        0.0000        6.9418        6.9419       6.312514       0.00132
  37     2.292        0.6293        0.0000        6.9418        6.9418       6.312421       0.00155
  36     2.964        0.6293        0.0000        6.9416        6.9416       6.312281       0.00175
  35     3.853        0.6293        0.0000        6.9414        6.9414       6.312075       0.00196
  34     5.035        0.6293        0.0000        6.9411        6.9411       6.311770       0.00218
  33     6.613        0.6293        0.0000        6.9406        6.9406       6.311322       0.00239
  32     8.786        0.6293        0.0000        6.9399        6.9400       6.310663       0.00256
  31     11.80        0.6293        0.0000        6.9389        6.9389       6.309629       0.00290
  30     15.07        0.6293        0.0001        6.9377        6.9377       6.308419       0.00312
  29     18.79        0.6293        0.0001        6.9362        6.9362       6.306962       0.00330
  28     23.16        0.6293        0.0001        6.9343        6.9344       6.305160       0.00348
  27     28.12        0.6293        0.0001        6.9321        6.9322       6.302988       0.00369
  26     33.73        0.6292        0.0001        6.9294        6.9296       6.300325       0.00400
  25     40.54        0.6292        0.0001        6.9258        6.9260       6.296734       0.00445
  24     48.69        0.6292        0.0002        6.9210        6.9212       6.291982       0.00492
  23     57.69        0.6292        0.0002        6.9154        6.9156       6.286394       0.00524
  22     68.43        0.6291        0.0002        6.9083        6.9086       6.279451       0.00546
  21     81.20        0.6291        0.0003        6.8998        6.9001       6.270964       0.00561
  20     96.49        0.6291        0.0004        6.8894        6.8898       6.260720       0.00565
  19     114.6        0.6290        0.0004        6.8765        6.8770       6.247907       0.00598
  18     136.5        0.6290        0.0005        6.8610        6.8615       6.232464       0.00594
  17     162.9        0.6290        0.0006        6.8417        6.8423       6.213276       0.00613
  16     196.4        0.6290        0.0007        6.8147        6.8154       6.186399       0.00677
  15     218.7        0.6290        0.0008        6.7948        6.7956       6.166632       0.00751
  14     243.0        0.6291        0.0009        6.7698        6.7707       6.141591       0.00868
  13     269.0        0.6292        0.0010        6.7349        6.7358       6.106615       0.01135
  12     297.5        0.6294        0.0011        6.6869        6.6879       6.058470       0.01428
  11     328.5        0.6298        0.0012        6.6194        6.6205       5.990710       0.01842
  10     361.9        0.6303        0.0013        6.5295        6.5307       5.900391       0.02285
   9     398.1        0.6310        0.0014        6.4202        6.4216       5.790558       0.02559
   8     437.6        0.6320        0.0015        6.2962        6.2977       5.665699       0.02670
   7     480.5        0.6332        0.0016        6.1555        6.1571       5.523851       0.02786
   6     533.0        0.6353        0.0017        5.9675        5.9693       5.333937       0.03055
   5     589.8        0.6384        0.0019        5.7368        5.7386       5.100249       0.03469
   4     651.6        0.6428        0.0020        5.4662        5.4682       4.825415       0.03758
   3     718.7        0.6489        0.0021        5.1912        5.1933       4.544411       0.03531
   2     792.3        0.6567        0.0022        4.9395        4.9417       4.284961       0.02976
   1     891.5        0.6702        0.0024        4.6486        4.6510       3.980775       0.02588
   0    1013.0        0.6945        0.0025        4.3179        4.3204       3.625951       0.02464



 Wavenumbers:  4650. -  5150. cm-1, ATM      1
 LEVEL PRESSURE   UPWARD FLUX   DIFDOWN FLUX  DIRDOWN FLUX  DOWNWARD FLUX   NET FLUX    HEATING RATE
          mb          W/m2          W/m2          W/m2        W/m2          W/m2       degree/day
  51    .06700        0.4410        0.0000        6.5710        6.5710       6.130036       0.00000
  50    .07753        0.4410        0.0000        6.5708        6.5708       6.129801       0.18887
  49    .09103        0.4410        0.0000        6.5705        6.5705       6.129507       0.18362
  48    0.1069        0.4410        0.0000        6.5701        6.5701       6.129172       0.17806
  47    0.1255        0.4410        0.0000        6.5697        6.5697       6.128792       0.17238
  46    0.1487        0.4410        0.0000        6.5693        6.5693       6.128318       0.17268
  45    0.1794        0.4410        0.0000        6.5686        6.5686       6.127682       0.17473
  44    0.2165        0.4410        0.0000        6.5679        6.5679       6.126944       0.16788
  43    0.2613        0.4410        0.0000        6.5670        6.5670       6.126091       0.16078
  42    0.3336        0.4410        0.0000        6.5657        6.5657       6.124728       0.15894
  41    0.4307        0.4410        0.0000        6.5640        6.5640       6.123006       0.14971
  40    0.5894        0.4410        0.0000        6.5613        6.5613       6.120390       0.13913
  39     1.339        0.4410        0.0000        6.5516        6.5516       6.110612       0.11008
  38     1.782        0.4409        0.0000        6.5473        6.5473       6.106396       0.08026
  37     2.292        0.4409        0.0000        6.5434        6.5435       6.102509       0.06438
  36     2.964        0.4409        0.0000        6.5395        6.5395       6.098555       0.04964
  35     3.853        0.4409        0.0000        6.5355        6.5356       6.094612       0.03742
  34     5.035        0.4409        0.0000        6.5315        6.5315       6.090611       0.02859
  33     6.613        0.4409        0.0000        6.5271        6.5271       6.086217       0.02349
  32     8.786        0.4409        0.0000        6.5216        6.5216       6.080723       0.02134
  31     11.80        0.4409        0.0001        6.5135        6.5135       6.072645       0.02261
  30     15.07        0.4409        0.0001        6.5041        6.5042       6.063279       0.02418
  29     18.79        0.4409        0.0001        6.4925        6.4926       6.051766       0.02610
  28     23.16        0.4408        0.0001        6.4779        6.4780       6.037178       0.02821
  27     28.12        0.4408        0.0002        6.4599        6.4600       6.019208       0.03055
  26     33.73        0.4408        0.0002        6.4384        6.4386       5.997784       0.03221
  25     40.54        0.4408        0.0002        6.4112        6.4114       5.970670       0.03364
  24     48.69        0.4407        0.0003        6.3775        6.3778       5.937049       0.03479
  23     57.69        0.4407        0.0003        6.3404        6.3407       5.899977       0.03475
  22     68.43        0.4407        0.0004        6.2971        6.2975       5.856816       0.03393
  21     81.20        0.4407        0.0004        6.2483        6.2487       5.808042       0.03223
  20     96.49        0.4406        0.0005        6.1948        6.1953       5.754727       0.02943
  19     114.6        0.4406        0.0006        6.1381        6.1388       5.698169       0.02641
  18     136.5        0.4406        0.0007        6.0790        6.0797       5.639167       0.02269
  17     162.9        0.4405        0.0009        6.0160        6.0169       5.576355       0.02008
  16     196.4        0.4406        0.0010        5.9399        5.9409       5.500339       0.01913
  15     218.7        0.4406        0.0011        5.8896        5.8908       5.450180       0.01904
  14     243.0        0.4406        0.0012        5.8322        5.8334       5.392779       0.01991
  13     269.0        0.4408        0.0014        5.7624        5.7638       5.322983       0.02264
  12     297.5        0.4410        0.0015        5.6767        5.6782       5.237206       0.02544
  11     328.5        0.4414        0.0016        5.5726        5.5742       5.132842       0.02838
  10     361.9        0.4419        0.0018        5.4473        5.4491       5.007190       0.03179
   9     398.1        0.4426        0.0019        5.2995        5.3014       4.858745       0.03458
   8     437.6        0.4437        0.0020        5.1275        5.1295       4.685839       0.03697
   7     480.5        0.4451        0.0022        4.9290        4.9311       4.486046       0.03924
   6     533.0        0.4474        0.0023        4.6794        4.6817       4.234304       0.04050
   5     589.8        0.4506        0.0024        4.4188        4.4212       3.970610       0.03914
   4     651.6        0.4552        0.0025        4.1521        4.1546       3.699472       0.03708
   3     718.7        0.4613        0.0027        3.8929        3.8956       3.434332       0.03332
   2     792.3        0.4692        0.0028        3.6469        3.6496       3.180439       0.02912
   1     891.5        0.4828        0.0029        3.3535        3.3564       2.873609       0.02611
   0    1013.0        0.5061        0.0030        3.0383        3.0414       2.535312       0.02349



 Wavenumbers:  5150. -  6150. cm-1, ATM      1
 LEVEL PRESSURE   UPWARD FLUX   DIFDOWN FLUX  DIRDOWN FLUX  DOWNWARD FLUX   NET FLUX    HEATING RATE
          mb          W/m2          W/m2          W/m2        W/m2          W/m2       degree/day
  51    .06700        1.2368        0.0000       16.4735       16.4735      15.236728       0.00000
  50    .07753        1.2368        0.0000       16.4735       16.4735      15.236693       0.02761
  49    .09103        1.2368        0.0000       16.4734       16.4734      15.236648       0.02810
  48    0.1069        1.2368        0.0000       16.4734       16.4734      15.236595       0.02859
  47    0.1255        1.2368        0.0000       16.4733       16.4733      15.236530       0.02904
  46    0.1487        1.2368        0.0000       16.4732       16.4732      15.236447       0.03059
  45    0.1794        1.2368        0.0000       16.4731       16.4731      15.236327       0.03269
  44    0.2165        1.2368        0.0000       16.4730       16.4730      15.236181       0.03331
  43    0.2613        1.2368        0.0000       16.4728       16.4728      15.236002       0.03376
  42    0.3336        1.2368        0.0000       16.4725       16.4725      15.235696       0.03564
  41    0.4307        1.2368        0.0000       16.4720       16.4720      15.235277       0.03645
  40    0.5894        1.2368        0.0000       16.4713       16.4713      15.234576       0.03728
  39     1.339        1.2367        0.0000       16.4679       16.4679      15.231168       0.03837
  38     1.782        1.2367        0.0000       16.4659       16.4659      15.229168       0.03806
  37     2.292        1.2367        0.0001       16.4635       16.4636      15.226877       0.03795
  36     2.964        1.2367        0.0001       16.4605       16.4606      15.223908       0.03727
  35     3.853        1.2367        0.0001       16.4567       16.4567      15.220055       0.03656
  34     5.035        1.2367        0.0001       16.4516       16.4517      15.215059       0.03569
  33     6.613        1.2366        0.0002       16.4451       16.4452      15.208600       0.03453
  32     8.786        1.2366        0.0002       16.4367       16.4369      15.200289       0.03227
  31     11.80        1.2365        0.0003       16.4254       16.4257      15.189141       0.03121
  30     15.07        1.2365        0.0004       16.4141       16.4145      15.178057       0.02862
  29     18.79        1.2364        0.0005       16.4024       16.4029      15.166540       0.02611
  28     23.16        1.2363        0.0006       16.3900       16.3906      15.154284       0.02370
  27     28.12        1.2362        0.0007       16.3771       16.3778      15.141625       0.02152
  26     33.73        1.2361        0.0009       16.3641       16.3650      15.128906       0.01912
  25     40.54        1.2359        0.0010       16.3502       16.3512      15.115276       0.01691
  24     48.69        1.2358        0.0012       16.3354       16.3366      15.100817       0.01496
  23     57.69        1.2356        0.0015       16.3211       16.3225      15.086934       0.01301
  22     68.43        1.2354        0.0017       16.3062       16.3080      15.072568       0.01129
  21     81.20        1.2352        0.0021       16.2903       16.2924      15.057204       0.01015
  20     96.49        1.2349        0.0024       16.2726       16.2751      15.040165       0.00940
  19     114.6        1.2346        0.0029       16.2521       16.2550      15.020395       0.00923
  18     136.5        1.2342        0.0034       16.2245       16.2280      14.993787       0.01023
  17     162.9        1.2338        0.0041       16.1747       16.1788      14.945069       0.01557
  16     196.4        1.2332        0.0049       16.0518       16.0568      14.823555       0.03059
  15     218.7        1.2328        0.0054       15.8984       15.9038      14.670967       0.05793
  14     243.0        1.2325        0.0060       15.6153       15.6212      14.388735       0.09789
  13     269.0        1.2321        0.0064       15.1390       15.1454      13.913309       0.15423
  12     297.5        1.2318        0.0069       14.5779       14.5848      13.352994       0.16618
  11     328.5        1.2316        0.0073       13.8780       13.8854      12.653809       0.19011
  10     361.9        1.2314        0.0077       13.0814       13.0892      11.857759       0.20141
   9     398.1        1.2314        0.0080       12.2728       12.2809      11.049507       0.18830
   8     437.6        1.2316        0.0083       11.4776       11.4859      10.254331       0.17001
   7     480.5        1.2321        0.0086       10.7300       10.7385       9.506473       0.14688
   6     533.0        1.2332        0.0089       10.0326       10.0415       8.808285       0.11232
   5     589.8        1.2352        0.0093        9.5050        9.5143       8.279116       0.07855
   4     651.6        1.2385        0.0098        9.0814        9.0912       7.852657       0.05832
   3     718.7        1.2435        0.0104        8.7024        8.7128       7.469361       0.04817
   2     792.3        1.2503        0.0110        8.3379        8.3490       7.098658       0.04252
   1     891.5        1.2632        0.0119        7.9064        7.9182       6.655028       0.03775
   0    1013.0        1.2900        0.0128        7.4741        7.4869       6.196832       0.03181



 Wavenumbers:  6150. -  7700. cm-1, ATM      1
 LEVEL PRESSURE   UPWARD FLUX   DIFDOWN FLUX  DIRDOWN FLUX  DOWNWARD FLUX   NET FLUX    HEATING RATE
          mb          W/m2          W/m2          W/m2        W/m2          W/m2       degree/day
  51    .06700        1.8620        0.0000       30.4684       30.4684      28.606430       0.00000
  50    .07753        1.8620        0.0000       30.4683       30.4683      28.606378       0.04144
  49    .09103        1.8620        0.0000       30.4683       30.4683      28.606311       0.04174
  48    0.1069        1.8620        0.0000       30.4682       30.4682      28.606232       0.04202
  47    0.1255        1.8619        0.0000       30.4681       30.4681      28.606139       0.04227
  46    0.1487        1.8619        0.0000       30.4680       30.4680      28.606018       0.04411
  45    0.1794        1.8619        0.0000       30.4678       30.4678      28.605848       0.04669
  44    0.2165        1.8619        0.0000       30.4676       30.4676      28.605641       0.04715
  43    0.2613        1.8619        0.0000       30.4673       30.4673      28.605389       0.04744
  42    0.3336        1.8619        0.0000       30.4669       30.4669      28.604962       0.04974
  41    0.4307        1.8619        0.0000       30.4663       30.4663      28.604381       0.05052
  40    0.5894        1.8619        0.0001       30.4653       30.4653      28.603414       0.05146
  39     1.339        1.8618        0.0001       30.4604       30.4606      28.598730       0.05273
  38     1.782        1.8618        0.0002       30.4576       30.4578      28.595980       0.05235
  37     2.292        1.8617        0.0002       30.4543       30.4545      28.592822       0.05231
  36     2.964        1.8617        0.0003       30.4501       30.4504      28.588714       0.05156
  35     3.853        1.8616        0.0004       30.4445       30.4449      28.583357       0.05084
  34     5.035        1.8614        0.0005       30.4373       30.4378      28.576358       0.05000
  33     6.613        1.8613        0.0007       30.4278       30.4285      28.567210       0.04890
  32     8.786        1.8611        0.0009       30.4154       30.4163      28.555257       0.04642
  31     11.80        1.8608        0.0013       30.3984       30.3996      28.538872       0.04587
  30     15.07        1.8604        0.0016       30.3810       30.3826      28.522159       0.04315
  29     18.79        1.8601        0.0020       30.3623       30.3643      28.504258       0.04059
  28     23.16        1.8596        0.0025       30.3417       30.3442      28.484575       0.03806
  27     28.12        1.8591        0.0030       30.3196       30.3226      28.463476       0.03587
  26     33.73        1.8585        0.0036       30.2965       30.3001      28.441557       0.03295
  25     40.54        1.8579        0.0043       30.2708       30.2751      28.417221       0.03019
  24     48.69        1.8570        0.0052       30.2423       30.2475      28.390445       0.02771
  23     57.69        1.8561        0.0062       30.2139       30.2200      28.363880       0.02490
  22     68.43        1.8551        0.0073       30.1834       30.1907      28.335606       0.02223
  21     81.20        1.8538        0.0087       30.1500       30.1587      28.304878       0.02030
  20     96.49        1.8522        0.0103       30.1126       30.1229      28.270662       0.01888
  19     114.6        1.8504        0.0122       30.0695       30.0817      28.231280       0.01839
  18     136.5        1.8483        0.0145       30.0139       30.0284      28.180130       0.01967
  17     162.9        1.8457        0.0172       29.9225       29.9397      28.093961       0.02754
  16     196.4        1.8424        0.0206       29.7333       29.7540      27.911593       0.04590
  15     218.7        1.8402        0.0229       29.5259       29.5487      27.708484       0.07711
  14     243.0        1.8380        0.0252       29.1375       29.1626      27.324693       0.13311
  13     269.0        1.8356        0.0274       28.3800       28.4074      26.571791       0.24424
  12     297.5        1.8332        0.0294       27.3895       27.4190      25.585760       0.29245
  11     328.5        1.8309        0.0314       26.2257       26.2571      24.426172       0.31529
  10     361.9        1.8288        0.0331       24.8453       24.8785      23.049691       0.34826
   9     398.1        1.8269        0.0346       23.3471       23.3817      21.554753       0.34829
   8     437.6        1.8256        0.0359       21.7966       21.8325      20.006891       0.33094
   7     480.5        1.8252        0.0368       20.1977       20.2345      18.409326       0.31376
   6     533.0        1.8263        0.0377       18.4969       18.5346      16.708286       0.27364
   5     589.8        1.8300        0.0386       16.9754       17.0140      15.183921       0.22627
   4     651.6        1.8377        0.0395       15.6022       15.6416      13.803944       0.18872
   3     718.7        1.8501        0.0405       14.4232       14.4637      12.613548       0.14960
   2     792.3        1.8682        0.0417       13.4386       13.4803      11.612156       0.11485
   1     891.5        1.9028        0.0435       12.3736       12.4171      10.514289       0.09342
   0    1013.0        1.9742        0.0454       11.2911       11.3365       9.362315       0.07999



 Wavenumbers:  7700. -  8050. cm-1, ATM      1
 LEVEL PRESSURE   UPWARD FLUX   DIFDOWN FLUX  DIRDOWN FLUX  DOWNWARD FLUX   NET FLUX    HEATING RATE
          mb          W/m2          W/m2          W/m2        W/m2          W/m2       degree/day
  51    .06700        0.9856        0.0000        7.2006        7.2006       6.214962       0.00000
  50    .07753        0.9856        0.0000        7.2006        7.2006       6.214944       0.01471
  49    .09103        0.9856        0.0000        7.2005        7.2005       6.214921       0.01442
  48    0.1069        0.9856        0.0000        7.2005        7.2005       6.214894       0.01412
  47    0.1255        0.9856        0.0000        7.2005        7.2005       6.214864       0.01382
  46    0.1487        0.9856        0.0000        7.2004        7.2005       6.214825       0.01402
  45    0.1794        0.9856        0.0000        7.2004        7.2004       6.214773       0.01442
  44    0.2165        0.9856        0.0000        7.2003        7.2003       6.214710       0.01415
  43    0.2613        0.9856        0.0000        7.2003        7.2003       6.214637       0.01388
  42    0.3336        0.9856        0.0000        7.2001        7.2001       6.214515       0.01421
  41    0.4307        0.9856        0.0000        7.2000        7.2000       6.214353       0.01405
  40    0.5894        0.9856        0.0000        7.1997        7.1997       6.214089       0.01403
  39     1.339        0.9856        0.0001        7.1984        7.1985       6.212842       0.01405
  38     1.782        0.9857        0.0001        7.1977        7.1978       6.212109       0.01395
  37     2.292        0.9857        0.0001        7.1968        7.1969       6.211261       0.01404
  36     2.964        0.9857        0.0001        7.1957        7.1958       6.210148       0.01397
  35     3.853        0.9857        0.0002        7.1942        7.1944       6.208679       0.01394
  34     5.035        0.9857        0.0002        7.1922        7.1924       6.206728       0.01393
  33     6.613        0.9858        0.0003        7.1896        7.1899       6.204126       0.01391
  32     8.786        0.9858        0.0004        7.1860        7.1864       6.200625       0.01360
  31     11.80        0.9859        0.0005        7.1810        7.1815       6.195628       0.01399
  30     15.07        0.9859        0.0006        7.1755        7.1762       6.190279       0.01381
  29     18.79        0.9860        0.0008        7.1694        7.1702       6.184257       0.01365
  28     23.16        0.9861        0.0010        7.1623        7.1633       6.177251       0.01355
  27     28.12        0.9862        0.0012        7.1542        7.1555       6.169277       0.01356
  26     33.73        0.9863        0.0014        7.1452        7.1467       6.160402       0.01334
  25     40.54        0.9864        0.0017        7.1344        7.1362       6.149747       0.01322
  24     48.69        0.9866        0.0021        7.1215        7.1236       6.137002       0.01319
  23     57.69        0.9868        0.0025        7.1074        7.1099       6.123127       0.01301
  22     68.43        0.9870        0.0029        7.0909        7.0938       6.106770       0.01286
  21     81.20        0.9873        0.0034        7.0713        7.0748       6.087520       0.01272
  20     96.49        0.9876        0.0041        7.0484        7.0525       6.064909       0.01248
  19     114.6        0.9880        0.0048        7.0217        7.0265       6.038510       0.01233
  18     136.5        0.9885        0.0057        6.9906        6.9963       6.007824       0.01180
  17     162.9        0.9891        0.0068        6.9544        6.9612       5.972089       0.01142
  16     196.4        0.9899        0.0081        6.9087        6.9169       5.926985       0.01135
  15     218.7        0.9905        0.0090        6.8794        6.8885       5.898013       0.01100
  14     243.0        0.9911        0.0100        6.8481        6.8581       5.867053       0.01074
  13     269.0        0.9918        0.0111        6.8147        6.8258       5.833999       0.01072
  12     297.5        0.9926        0.0122        6.7791        6.7913       5.798686       0.01047
  11     328.5        0.9935        0.0134        6.7409        6.7543       5.760853       0.01029
  10     361.9        0.9945        0.0147        6.7002        6.7148       5.720298       0.01026
   9     398.1        0.9958        0.0161        6.6563        6.6723       5.676557       0.01019
   8     437.6        0.9973        0.0176        6.6089        6.6264       5.629151       0.01014
   7     480.5        0.9991        0.0191        6.5570        6.5761       5.577088       0.01022
   6     533.0        1.0016        0.0211        6.4915        6.5126       5.510989       0.01063
   5     589.8        1.0047        0.0231        6.4182        6.4414       5.436662       0.01103
   4     651.6        1.0087        0.0253        6.3359        6.3612       5.352526       0.01151
   3     718.7        1.0136        0.0276        6.2441        6.2718       5.258191       0.01186
   2     792.3        1.0195        0.0301        6.1437        6.1738       5.154292       0.01192
   1     891.5        1.0287        0.0333        6.0042        6.0375       5.008787       0.01238
   0    1013.0        1.0421        0.0370        5.8249        5.8619       4.819744       0.01313



 Wavenumbers:  8050. - 12850. cm-1, ATM      1
 LEVEL PRESSURE   UPWARD FLUX   DIFDOWN FLUX  DIRDOWN FLUX  DOWNWARD FLUX   NET FLUX    HEATING RATE
          mb          W/m2          W/m2          W/m2        W/m2          W/m2       degree/day
  51    .06700       16.6695        0.0000      100.8135      100.8135      84.143968       0.00000
  50    .07753       16.6695        0.0000      100.8135      100.8135      84.143968       0.00000
  49    .09103       16.6695        0.0001      100.8134      100.8135      84.143968       0.00000
  48    0.1069       16.6695        0.0001      100.8134      100.8134      84.143968      -0.00000
  47    0.1255       16.6694        0.0001      100.8133      100.8134      84.143968       0.00000
  46    0.1487       16.6694        0.0002      100.8132      100.8134      84.143968      -0.00000
  45    0.1794       16.6693        0.0002      100.8131      100.8133      84.143968       0.00000
  44    0.2165       16.6693        0.0003      100.8129      100.8132      84.143968      -0.00000
  43    0.2613       16.6692        0.0004      100.8127      100.8132      84.143968       0.00000
  42    0.3336       16.6691        0.0006      100.8125      100.8130      84.143968      -0.00000
  41    0.4307       16.6689        0.0008      100.8121      100.8129      84.143968       0.00000
  40    0.5894       16.6686        0.0011      100.8115      100.8126      84.143968      -0.00000
  39     1.339       16.6672        0.0027      100.8085      100.8112      84.143968       0.00000
  38     1.782       16.6664        0.0036      100.8068      100.8104      84.143968       0.00000
  37     2.292       16.6655        0.0047      100.8047      100.8095      84.143968       0.00000
  36     2.964       16.6643        0.0062      100.8021      100.8083      84.143968       0.00000
  35     3.853       16.6627        0.0080      100.7986      100.8066      84.143968      -0.00000
  34     5.035       16.6605        0.0105      100.7940      100.8045      84.143968       0.00000
  33     6.613       16.6577        0.0139      100.7878      100.8016      84.143968       0.00000
  32     8.786       16.6538        0.0184      100.7794      100.7978      84.143968       0.00000
  31     11.80       16.6483        0.0248      100.7674      100.7923      84.143968       0.00000
  30     15.07       16.6424        0.0318      100.7546      100.7863      84.143968       0.00000
  29     18.79       16.6357        0.0396      100.7400      100.7796      84.143968      -0.00000
  28     23.16       16.6278        0.0488      100.7230      100.7718      84.143968      -0.00000
  27     28.12       16.6188        0.0593      100.7035      100.7628      84.143968       0.00000
  26     33.73       16.6088        0.0711      100.6817      100.7527      84.143968       0.00000
  25     40.54       16.5966        0.0853      100.6552      100.7405      84.143968       0.00000
  24     48.69       16.5819        0.1025      100.6234      100.7258      84.143968      -0.00000
  23     57.69       16.5657        0.1214      100.5883      100.7097      84.143968       0.00000
  22     68.43       16.5464        0.1439      100.5464      100.6903      84.143968       0.00000
  21     81.20       16.5233        0.1708      100.4965      100.6673      84.143968       0.00000
  20     96.49       16.4958        0.2029      100.4370      100.6398      84.143968      -0.00000
  19     114.6       16.4632        0.2410      100.3585      100.5995      84.136298       0.00358
  18     136.5       16.4244        0.2863      100.2634      100.5496      84.125256       0.00425
  17     162.9       16.3781        0.3403      100.1407      100.4809      84.102841       0.00716
  16     196.4       16.3180        0.4104       99.9505      100.3609      84.042909       0.01509
  15     218.7       16.2784        0.4564       99.7889      100.2454      83.966940       0.02884
  14     243.0       16.2355        0.5064       99.5472      100.0536      83.818100       0.05162
  13     269.0       16.1892        0.5602       99.1452       99.7054      83.516190       0.09794
  12     297.5       16.1398        0.6179       98.5975       99.2153      83.075495       0.13071
  11     328.5       16.0875        0.6796       97.8659       98.5454      82.457950       0.16791
  10     361.9       16.0326        0.7450       96.8848       97.6297      81.597104       0.21780
   9     398.1       15.9760        0.8139       95.6330       96.4469      80.470877       0.26239
   8     437.6       15.9188        0.8858       94.0655       94.9513      79.032477       0.30754
   7     480.5       15.8638        0.9598       92.0807       93.0406      77.176771       0.36445
   6     533.0       15.8065        1.0468       89.4449       90.4916      74.685184       0.40082
   5     589.8       15.7598        1.1361       86.5544       87.6905      71.930737       0.40885
   4     651.6       15.7316        1.2273       83.4174       84.6447      68.913120       0.41267
   3     718.7       15.7264        1.3210       80.2037       81.5247      65.798323       0.39144
   2     792.3       15.7484        1.4179       77.0811       78.4990      62.750612       0.34954
   1     891.5       15.8358        1.5424       73.2645       74.8069      58.971126       0.32162
   0    1013.0       16.0898        1.6796       68.9425       70.6221      54.532364       0.30821



 Wavenumbers: 12850. - 16000. cm-1, ATM      1
 LEVEL PRESSURE   UPWARD FLUX   DIFDOWN FLUX  DIRDOWN FLUX  DOWNWARD FLUX   NET FLUX    HEATING RATE
          mb          W/m2          W/m2          W/m2        W/m2          W/m2       degree/day
  51    .06700       24.6605        0.0000       63.1686       63.1686      38.508033       0.00000
  50    .07753       24.6605        0.0001       63.1677       63.1678      38.507256       0.62291
  49    .09103       24.6605        0.0001       63.1666       63.1668      38.506288       0.60506
  48    0.1069       24.6604        0.0002       63.1654       63.1656      38.505186       0.58636
  47    0.1255       24.6604        0.0003       63.1640       63.1643      38.503935       0.56754
  46    0.1487       24.6603        0.0004       63.1623       63.1627      38.502375       0.56859
  45    0.1794       24.6602        0.0006       63.1600       63.1605      38.500285       0.57366
  44    0.2165       24.6602        0.0007       63.1573       63.1580      38.497871       0.54904
  43    0.2613       24.6601        0.0010       63.1542       63.1552      38.495092       0.52399
  42    0.3336       24.6599        0.0013       63.1493       63.1506      38.490671       0.51540
  41    0.4307       24.6598        0.0018       63.1431       63.1449      38.485156       0.47954
  40    0.5894       24.6595        0.0026       63.1338       63.1364      38.476832       0.44262
  39     1.339       24.6594        0.0062       63.0956       63.1018      38.442360       0.38810
  38     1.782       24.6600        0.0083       63.0740       63.0824      38.422371       0.38055
  37     2.292       24.6613        0.0108       63.0477       63.0585      38.397198       0.41694
  36     2.964       24.6639        0.0141       63.0095       63.0236      38.359678       0.47099
  35     3.853       24.6687        0.0184       62.9533       62.9716      38.302896       0.53888
  34     5.035       24.6764        0.0241       62.8725       62.8966      38.220150       0.59110
  33     6.613       24.6874        0.0317       62.7621       62.7937      38.106370       0.60827
  32     8.786       24.7014        0.0419       62.6182       62.6602      37.958729       0.57338
  31     11.80       24.7190        0.0565       62.4284       62.4849      37.765908       0.53984
  30     15.07       24.7348        0.0721       62.2426       62.3147      37.579965       0.48007
  29     18.79       24.7499        0.0897       62.0493       62.1390      37.389087       0.43278
  28     23.16       24.7645        0.1102       61.8424       61.9527      37.188133       0.38858
  27     28.12       24.7776        0.1336       61.6278       61.7614      36.983805       0.34734
  26     33.73       24.7871        0.1597       61.4177       61.5774      36.790319       0.29091
  25     40.54       24.7925        0.1912       61.1983       61.3895      36.597006       0.23983
  24     48.69       24.7933        0.2291       60.9680       61.1971      36.403855       0.19988
  23     57.69       24.7884        0.2707       60.7478       61.0185      36.230061       0.16291
  22     68.43       24.7766        0.3201       60.5202       60.8403      36.063733       0.13076
  21     81.20       24.7541        0.3790       60.2938       60.6728      35.918674       0.09585
  20     96.49       24.7196        0.4490       60.0643       60.5133      35.793652       0.06900
  19     114.6       24.6793        0.5326       59.8078       60.3403      35.661069       0.06191
  18     136.5       24.6279        0.6313       59.5157       60.1471      35.519181       0.05456
  17     162.9       24.5635        0.7486       59.1770       59.9257      35.362200       0.05018
  16     196.4       24.4731        0.9002       58.7604       59.6607      35.187604       0.04395
  15     218.7       24.4113        0.9995       58.4948       59.4943      35.083052       0.03969
  14     243.0       24.3430        1.1071       58.2089       59.3160      34.973053       0.03815
  13     269.0       24.2680        1.2234       57.9006       59.1240      34.855985       0.03798
  12     297.5       24.1863        1.3488       57.5668       58.9156      34.729207       0.03760
  11     328.5       24.0983        1.4837       57.2005       58.6842      34.585951       0.03895
  10     361.9       24.0042        1.6285       56.7963       58.4249      34.420694       0.04181
   9     398.1       23.9042        1.7836       56.3475       58.1312      34.226963       0.04513
   8     437.6       23.7993        1.9493       55.8422       57.7915      33.992162       0.05020
   7     480.5       23.6915        2.1254       55.2625       57.3880      33.696492       0.05807
   6     533.0       23.5665        2.3401       54.4972       56.8372      33.270786       0.06848
   5     589.8       23.4414        2.5680       53.6307       56.1987      32.757260       0.07622
   4     651.6       23.3203        2.8083       52.6606       55.4688      32.148529       0.08325
   3     718.7       23.2049        3.0612       51.6100       54.6712      31.466244       0.08574
   2     792.3       23.0979        3.3264       50.5019       53.8283      30.730400       0.08439
   1     891.5       22.9864        3.6750       49.0197       52.6947      29.708233       0.08698
   0    1013.0       22.9194        4.0775       47.2289       51.3064      28.387009       0.09174



 Wavenumbers: 16000. - 22650. cm-1, ATM      1
 LEVEL PRESSURE   UPWARD FLUX   DIFDOWN FLUX  DIRDOWN FLUX  DOWNWARD FLUX   NET FLUX    HEATING RATE
          mb          W/m2          W/m2          W/m2        W/m2          W/m2       degree/day
  51    .06700       66.6453        0.0000      100.7153      100.7153      34.070042       0.00000
  50    .07753       66.6451        0.0003      100.7147      100.7150      34.069929       0.09054
  49    .09103       66.6449        0.0007      100.7140      100.7147      34.069765       0.10270
  48    0.1069       66.6448        0.0012      100.7131      100.7143      34.069545       0.11711
  47    0.1255       66.6446        0.0017      100.7121      100.7138      34.069251       0.13349
  46    0.1487       66.6443        0.0024      100.7108      100.7131      34.068817       0.15818
  45    0.1794       66.6440        0.0033      100.7089      100.7121      34.068138       0.18624
  44    0.2165       66.6437        0.0043      100.7066      100.7109      34.067218       0.20931
  43    0.2613       66.6433        0.0056      100.7037      100.7093      34.065970       0.23531
  42    0.3336       66.6428        0.0077      100.6987      100.7064      34.063596       0.27672
  41    0.4307       66.6422        0.0105      100.6918      100.7023      34.060019       0.31105
  40    0.5894       66.6416        0.0150      100.6797      100.6948      34.053196       0.36281
  39     1.339       66.6433        0.0366      100.6095      100.6461      34.002802       0.56735
  38     1.782       66.6478        0.0492      100.5585      100.6077      33.959886       0.81705
  37     2.292       66.6563        0.0639      100.4903      100.5541      33.897786       1.02853
  36     2.964       66.6726        0.0831      100.3868      100.4698      33.797237       1.26220
  35     3.853       66.7012        0.1084      100.2306      100.3390      33.637816       1.51293
  34     5.035       66.7462        0.1420      100.0045      100.1464      33.400259       1.69701
  33     6.613       66.8099        0.1867       99.6939       99.8806      33.070683       1.76191
  32     8.786       66.8922        0.2469       99.2881       99.5350      32.642804       1.66173
  31     11.80       66.9961        0.3327       98.7496       99.0823      32.086198       1.55832
  30     15.07       67.0918        0.4245       98.2198       98.6443      31.552552       1.37777
  29     18.79       67.1854        0.5278       97.6651       98.1929      31.007459       1.23589
  28     23.16       67.2783        0.6479       97.0671       97.7151      30.436742       1.10358
  27     28.12       67.3653        0.7848       96.4406       97.2254      29.860102       0.98025
  26     33.73       67.4348        0.9374       95.8179       96.7553      29.320494       0.81131
  25     40.54       67.4868        1.1212       95.1548       96.2760      28.789177       0.65916
  24     48.69       67.5185        1.3418       94.4420       95.7837      28.265227       0.54221
  23     57.69       67.5234        1.5830       93.7416       95.3246      27.801204       0.43495
  22     68.43       67.4971        1.8690       92.9954       94.8644      27.367292       0.34111
  21     81.20       67.4218        2.2084       92.2231       94.4315      27.009732       0.23627
  20     96.49       67.2916        2.6108       91.4110       94.0218      26.730201       0.15428
  19     114.6       67.1171        3.0850       90.5070       93.5920      26.474932       0.11919
  18     136.5       66.8976        3.6422       89.4803       93.1225      26.224867       0.09616
  17     162.9       66.6254        4.2987       88.3022       92.6009      25.975547       0.07969
  16     196.4       66.2478        5.1397       86.8606       92.0003      25.752494       0.05614
  15     218.7       65.9918        5.6857       85.9492       91.6349      25.643127       0.04152
  14     243.0       65.7105        6.2735       84.9789       91.2524      25.541915       0.03510
  13     269.0       65.4029        6.9039       83.9493       90.8532      25.450274       0.02973
  12     297.5       65.0682        7.5776       82.8589       90.4366      25.368310       0.02431
  11     328.5       64.7073        8.2969       81.6982       89.9952      25.287858       0.02187
  10     361.9       64.3200        9.0615       80.4669       89.5284      25.208413       0.02010
   9     398.1       63.9052        9.8729       79.1611       89.0340      25.128818       0.01854
   8     437.6       63.4632       10.7314       77.7777       88.5091      25.045919       0.01772
   7     480.5       62.9939       11.6370       76.3136       87.9506      24.956727       0.01752
   6     533.0       62.4234       12.7313       74.5359       87.2671      24.843783       0.01817
   5     589.8       61.8183       13.8859       72.6469       86.5328      24.714526       0.01919
   4     651.6       61.1803       15.0984       70.6456       85.7440      24.563692       0.02063
   3     718.7       60.5097       16.3664       68.5367       84.9031      24.393455       0.02139
   2     792.3       59.8088       17.6843       66.3287       84.0130      24.204172       0.02171
   1     891.5       58.8936       19.3984       63.4246       82.8231      23.929429       0.02338
   0    1013.0       57.8440       21.3591       60.0483       81.4074      23.563403       0.02542



 Wavenumbers: 22650. - 29000. cm-1, ATM      1
 LEVEL PRESSURE   UPWARD FLUX   DIFDOWN FLUX  DIRDOWN FLUX  DOWNWARD FLUX   NET FLUX    HEATING RATE
          mb          W/m2          W/m2          W/m2        W/m2          W/m2       degree/day
  51    .06700       31.6689        0.0000       38.0063       38.0063       6.337375       0.00000
  50    .07753       31.6687        0.0004       38.0057       38.0061       6.337375       0.00000
  49    .09103       31.6685        0.0009       38.0050       38.0059       6.337375       0.00000
  48    0.1069       31.6683        0.0014       38.0042       38.0056       6.337375       0.00000
  47    0.1255       31.6680        0.0020       38.0033       38.0054       6.337375      -0.00000
  46    0.1487       31.6676        0.0028       38.0022       38.0050       6.337375      -0.00000
  45    0.1794       31.6671        0.0039       38.0006       38.0045       6.337375       0.00000
  44    0.2165       31.6665        0.0052       37.9987       38.0039       6.337375      -0.00000
  43    0.2613       31.6658        0.0067       37.9965       38.0032       6.337375       0.00000
  42    0.3336       31.6647        0.0092       37.9928       38.0020       6.337375      -0.00000
  41    0.4307       31.6631        0.0125       37.9880       38.0005       6.337375      -0.00000
  40    0.5894       31.6606        0.0179       37.9800       37.9980       6.337375      -0.00000
  39     1.339       31.6487        0.0436       37.9425       37.9861       6.337375       0.00000
  38     1.782       31.6417        0.0587       37.9204       37.9791       6.337375      -0.00000
  37     2.292       31.6336        0.0761       37.8949       37.9710       6.337375      -0.00000
  36     2.964       31.6230        0.0989       37.8614       37.9604       6.337375       0.00000
  35     3.853       31.6090        0.1291       37.8172       37.9464       6.337375      -0.00000
  34     5.035       31.5904        0.1692       37.7586       37.9278       6.337375       0.00000
  33     6.613       31.5656        0.2226       37.6803       37.9029       6.337375       0.00000
  32     8.786       31.5322        0.2945       37.5750       37.8695       6.337375       0.00000
  31     11.80       31.4845        0.3970       37.4249       37.8219       6.337375      -0.00000
  30     15.07       31.4335        0.5067       37.2642       37.7708       6.337375      -0.00000
  29     18.79       31.3760        0.6301       37.0833       37.7134       6.337375       0.00000
  28     23.16       31.3091        0.7735       36.8730       37.6465       6.337375       0.00000
  27     28.12       31.2330        0.9366       36.6338       37.5704       6.337375       0.00000
  26     33.73       31.1483        1.1179       36.3677       37.4856       6.337375      -0.00000
  25     40.54       31.0465        1.3353       36.0486       37.3839       6.337375       0.00000
  24     48.69       30.9248        1.5949       35.6672       37.2622       6.337375      -0.00000
  23     57.69       30.7922        1.8769       35.2527       37.1296       6.337375       0.00000
  22     68.43       30.6360        2.2085       34.7649       36.9734       6.337375      -0.00000
  21     81.20       30.4523        2.5974       34.1922       36.7896       6.337375       0.00000
  20     96.49       30.2365        3.0522       33.5217       36.5739       6.337375      -0.00000
  19     114.6       29.9850        3.5801       32.7424       36.3224       6.337375       0.00000
  18     136.5       29.6933        4.1891       31.8416       36.0307       6.337375       0.00000
  17     162.9       29.3547        4.8913       30.8008       35.6920       6.337375       0.00000
  16     196.4       28.9292        5.7659       29.5007       35.2666       6.337375      -0.00000
  15     218.7       28.6581        6.3188       28.6767       34.9955       6.337375       0.00000
  14     243.0       28.3704        6.9010       27.8068       34.7078       6.337375      -0.00000
  13     269.0       28.0668        7.5108       26.8933       34.4042       6.337375       0.00000
  12     297.5       27.7477        8.1458       25.9393       34.0851       6.337375      -0.00000
  11     328.5       27.4130        8.8053       24.9451       33.7504       6.337375       0.00000
  10     361.9       27.0640        9.4854       23.9160       33.4014       6.337375      -0.00000
   9     398.1       26.7009       10.1841       22.8541       33.0382       6.337375       0.00000
   8     437.6       26.3247       10.8976       21.7645       32.6621       6.337375       0.00000
   7     480.5       25.9366       11.6218       20.6521       32.2740       6.337375      -0.00000
   6     533.0       25.4789       12.4594       19.3569       31.8163       6.337375      -0.00000
   5     589.8       25.0088       13.2994       18.0467       31.3461       6.337375      -0.00000
   4     651.6       24.5284       14.1342       16.7316       30.8658       6.337375       0.00000
   3     718.7       24.0400       14.9560       15.4214       30.3774       6.337375       0.00000
   2     792.3       23.5465       15.7562       14.1276       29.8838       6.337375       0.00000
   1     891.5       22.9244       16.7158       12.5459       29.2617       6.337375       0.00000
   0    1013.0       22.2371       17.7027       10.8717       28.5744       6.337375      -0.00000



 Wavenumbers: 29000. - 38000. cm-1, ATM      1
 LEVEL PRESSURE   UPWARD FLUX   DIFDOWN FLUX  DIRDOWN FLUX  DOWNWARD FLUX   NET FLUX    HEATING RATE
          mb          W/m2          W/m2          W/m2        W/m2          W/m2       degree/day
  51    .06700        4.5646        0.0000       13.4026       13.4026       8.838010       0.00000
  50    .07753        4.5644        0.0003       13.3983       13.3986       8.834212       3.04408
  49    .09103        4.5641        0.0007       13.3921       13.3928       8.828693       3.44932
  48    0.1069        4.5638        0.0011       13.3840       13.3851       8.821317       3.92636
  47    0.1255        4.5634        0.0016       13.3733       13.3749       8.811473       4.46271
  46    0.1487        4.5630        0.0022       13.3579       13.3600       8.797032       5.26382
  45    0.1794        4.5624        0.0030       13.3340       13.3370       8.774635       6.14859
  44    0.2165        4.5617        0.0040       13.3024       13.3064       8.744620       6.82799
  43    0.2613        4.5610        0.0051       13.2604       13.2655       8.704570       7.54922
  42    0.3336        4.5597        0.0070       13.1833       13.1903       8.630572       8.62736
  41    0.4307        4.5581        0.0094       13.0729       13.0823       8.524215       9.24758
  40    0.5894        4.5557        0.0133       12.8796       12.8929       8.337199       9.94525
  39     1.339        4.5469        0.0294       11.9165       11.9459       7.399071      10.56161
  38     1.782        4.5433        0.0376       11.4399       11.4776       6.934269       8.84910
  37     2.292        4.5404        0.0464       10.9796       11.0260       6.485588       7.43132
  36     2.964        4.5385        0.0572       10.4786       10.5358       5.997356       6.12879
  35     3.853        4.5383        0.0705        9.9429       10.0134       5.475117       4.95614
  34     5.035        4.5405        0.0871        9.4007        9.4878       4.947292       3.77056
  33     6.613        4.5452        0.1081        8.8752        8.9834       4.438147       2.72189
  32     8.786        4.5518        0.1352        8.3786        8.5138       3.962026       1.84908
  31     11.80        4.5596        0.1724        7.8897        8.0621       3.502477       1.28659
  30     15.07        4.5660        0.2108        7.5108        7.7216       3.155604       0.89556
  29     18.79        4.5715        0.2525        7.1776        7.4301       2.858642       0.67330
  28     23.16        4.5760        0.2995        6.8664        7.1659       2.589937       0.51959
  27     28.12        4.5788        0.3514        6.5780        6.9294       2.350653       0.40677
  26     33.73        4.5776        0.4079        6.3195        6.7274       2.149799       0.30199
  25     40.54        4.5710        0.4745        6.0663        6.5408       1.969788       0.22332
  24     48.69        4.5584        0.5525        5.8128        6.3653       1.806936       0.16853
  23     57.69        4.5401        0.6356        5.5777        6.2133       1.673227       0.12533
  22     68.43        4.5135        0.7318        5.3379        6.0697       1.556116       0.09206
  21     81.20        4.4746        0.8432        5.0965        5.9397       1.465096       0.06014
  20     96.49        4.4220        0.9718        4.8476        5.8195       1.397415       0.03735
  19     114.6        4.3586        1.1173        4.5799        5.6972       1.338594       0.02747
  18     136.5        4.2851        1.2795        4.2891        5.5686       1.283560       0.02116
  17     162.9        4.2010        1.4590        3.9732        5.4322       1.231205       0.01673
  16     196.4        4.0947        1.6732        3.6080        5.2813       1.186567       0.01124
  15     218.7        4.0276        1.8032        3.3898        5.1930       1.165367       0.00805
  14     243.0        3.9577        1.9353        3.1686        5.1039       1.146174       0.00666
  13     269.0        3.8852        2.0684        2.9461        5.0145       1.129281       0.00548
  12     297.5        3.8105        2.2012        2.7239        4.9252       1.114701       0.00432
  11     328.5        3.7343        2.3324        2.5029        4.8353       1.101042       0.00371
  10     361.9        3.6570        2.4608        2.2846        4.7454       1.088322       0.00322
   9     398.1        3.5791        2.5849        2.0708        4.6556       1.076534       0.00275
   8     437.6        3.5008        2.7037        1.8626        4.5663       1.065425       0.00238
   7     480.5        3.4227        2.8157        1.6621        4.4778       1.055113       0.00203
   6     533.0        3.3338        2.9343        1.4437        4.3779       1.044139       0.00177
   5     589.8        3.2460        3.0407        1.2390        4.2797       1.033784       0.00154
   4     651.6        3.1597        3.1336        1.0500        4.1836       1.023906       0.00135
   3     718.7        3.0752        3.2118        0.8778        4.0896       1.014473       0.00119
   2     792.3        2.9927        3.2744        0.7237        3.9981       1.005466       0.00103
   1     891.5        2.8920        3.3304        0.5563        3.8867       0.994650       0.00092
   0    1013.0        2.7840        3.3632        0.4039        3.7671       0.983089       0.00080



 Wavenumbers: 38000. - 50000. cm-1, ATM      1
 LEVEL PRESSURE   UPWARD FLUX   DIFDOWN FLUX  DIRDOWN FLUX  DOWNWARD FLUX   NET FLUX    HEATING RATE
          mb          W/m2          W/m2          W/m2        W/m2          W/m2       degree/day
  51    .06700        0.0051        0.0000        0.8267        0.8267       0.821528       0.00000
  50    .07753        0.0051        0.0001        0.8242        0.8243       0.819196       1.86936
  49    .09103        0.0050        0.0002        0.8207        0.8209       0.815872       2.07705
  48    0.1069        0.0049        0.0002        0.8162        0.8164       0.811514       2.31984
  47    0.1255        0.0048        0.0004        0.8103        0.8106       0.805801       2.59006
  46    0.1487        0.0047        0.0005        0.8018        0.8023       0.797567       3.00143
  45    0.1794        0.0045        0.0007        0.7889        0.7896       0.785013       3.44648
  44    0.2165        0.0044        0.0009        0.7720        0.7729       0.768507       3.75474
  43    0.2613        0.0042        0.0011        0.7500        0.7511       0.746955       4.06246
  42    0.3336        0.0039        0.0015        0.7106        0.7121       0.708267       4.51071
  41    0.4307        0.0035        0.0019        0.6566        0.6584       0.654972       4.63387
  40    0.5894        0.0029        0.0024        0.5680        0.5704       0.567464       4.65357
  39     1.339        0.0015        0.0030        0.2422        0.2452       0.243720       3.64476
  38     1.782        0.0010        0.0026        0.1493        0.1519       0.150889       1.76735
  37     2.292        0.0007        0.0022        0.0924        0.0946       0.093932       0.94336
  36     2.964        0.0005        0.0018        0.0539        0.0557       0.055224       0.48589
  35     3.853        0.0003        0.0013        0.0295        0.0308       0.030502       0.23462
  34     5.035        0.0002        0.0010        0.0154        0.0164       0.016181       0.10230
  33     6.613        0.0001        0.0007        0.0073        0.0080       0.007912       0.04420
  32     8.786        0.0000        0.0004        0.0030        0.0034       0.003390       0.01756
  31     11.80        0.0000        0.0003        0.0010        0.0012       0.001199       0.00613
  30     15.07        0.0000        0.0001        0.0003        0.0005       0.000463       0.00190
  29     18.79        0.0000        0.0001        0.0001        0.0002       0.000182       0.00064
  28     23.16        0.0000        0.0000        0.0000        0.0001       0.000071       0.00022
  27     28.12        0.0000        0.0000        0.0000        0.0000       0.000028       0.00007
  26     33.73        0.0000        0.0000        0.0000        0.0000       0.000011       0.00002
  25     40.54        0.0000        0.0000        0.0000        0.0000       0.000005       0.00001
  24     48.69        0.0000        0.0000        0.0000        0.0000       0.000002       0.00000
  23     57.69        0.0000        0.0000        0.0000        0.0000       0.000001       0.00000
  22     68.43        0.0000        0.0000        0.0000        0.0000       0.000000       0.00000
  21     81.20        0.0000        0.0000        0.0000        0.0000       0.000000       0.00000
  20     96.49        0.0000        0.0000        0.0000        0.0000       0.000000       0.00000
  19     114.6        0.0000        0.0000        0.0000        0.0000       0.000000       0.00000
  18     136.5        0.0000        0.0000        0.0000        0.0000       0.000000       0.00000
  17     162.9        0.0000        0.0000        0.0000        0.0000       0.000000       0.00000
  16     196.4        0.0000        0.0000        0.0000        0.0000       0.000000       0.00000
  15     218.7        0.0000        0.0000        0.0000        0.0000       0.000000       0.00000
  14     243.0        0.0000        0.0000        0.0000        0.0000       0.000000       0.00000
  13     269.0        0.0000        0.0000        0.0000        0.0000       0.000000       0.00000
  12     297.5        0.0000        0.0000        0.0000        0.0000       0.000000       0.00000
  11     328.5        0.0000        0.0000        0.0000        0.0000       0.000000       0.00000
  10     361.9        0.0000        0.0000        0.0000        0.0000       0.000000       0.00000
   9     398.1        0.0000        0.0000        0.0000        0.0000       0.000000       0.00000
   8     437.6        0.0000        0.0000        0.0000        0.0000       0.000000       0.00000
   7     480.5        0.0000        0.0000        0.0000        0.0000       0.000000       0.00000
   6     533.0        0.0000        0.0000        0.0000        0.0000       0.000000       0.00000
   5     589.8        0.0000        0.0000        0.0000        0.0000       0.000000       0.00000
   4     651.6        0.0000        0.0000        0.0000        0.0000       0.000000       0.00000
   3     718.7        0.0000        0.0000        0.0000        0.0000       0.000000       0.00000
   2     792.3        0.0000        0.0000        0.0000        0.0000       0.000000       0.00000
   1     891.5        0.0000        0.0000        0.0000        0.0000       0.000000       0.00000
   0    1013.0        0.0000        0.0000        0.0000        0.0000       0.000000       0.00000



 Wavenumbers:   820. -  2600. cm-1, ATM      1
 LEVEL PRESSURE   UPWARD FLUX   DIFDOWN FLUX  DIRDOWN FLUX  DOWNWARD FLUX   NET FLUX    HEATING RATE
          mb          W/m2          W/m2          W/m2        W/m2          W/m2       degree/day
  51    .06700        0.1274        0.0000        3.8670        3.8670       3.739658       0.00000
  50    .07753        0.1274        0.0000        3.8643        3.8643       3.736941       2.17769
  49    .09103        0.1274        0.0000        3.8635        3.8635       3.736131       0.50638
  48    0.1069        0.1274        0.0000        3.8626        3.8626       3.735240       0.47415
  47    0.1255        0.1274        0.0000        3.8616        3.8616       3.734279       0.43559
  46    0.1487        0.1274        0.0000        3.8605        3.8605       3.733170       0.40437
  45    0.1794        0.1274        0.0000        3.8592        3.8592       3.731835       0.36647
  44    0.2165        0.1274        0.0000        3.8578        3.8578       3.730457       0.31346
  43    0.2613        0.1274        0.0000        3.8564        3.8564       3.728997       0.27522
  42    0.3336        0.1274        0.0000        3.8541        3.8541       3.726766       0.26012
  41    0.4307        0.1274        0.0000        3.8512        3.8512       3.723883       0.25063
  40    0.5894        0.1274        0.0000        3.8465        3.8465       3.719157       0.25133
  39     1.339        0.1274        0.0000        3.8251        3.8251       3.697782       0.24064
  38     1.782        0.1274        0.0000        3.8133        3.8133       3.685969       0.22489
  37     2.292        0.1274        0.0000        3.8003        3.8003       3.672908       0.21632
  36     2.964        0.1274        0.0000        3.7841        3.7841       3.656780       0.20246
  35     3.853        0.1274        0.0000        3.7642        3.7642       3.636865       0.18899
  34     5.035        0.1274        0.0000        3.7395        3.7395       3.612175       0.17638
  33     6.613        0.1274        0.0000        3.7090        3.7090       3.581640       0.16324
  32     8.786        0.1274        0.0000        3.6726        3.6726       3.545247       0.14133
  31     11.80        0.1274        0.0000        3.6320        3.6320       3.504654       0.11365
  30     15.07        0.1274        0.0000        3.6016        3.6016       3.474271       0.07844
  29     18.79        0.1274        0.0000        3.5777        3.5777       3.450374       0.05418
  28     23.16        0.1274        0.0000        3.5564        3.5564       3.429022       0.04129
  27     28.12        0.1274        0.0000        3.5348        3.5348       3.407477       0.03662
  26     33.73        0.1274        0.0000        3.5118        3.5118       3.384446       0.03463
  25     40.54        0.1274        0.0000        3.4849        3.4849       3.357560       0.03335
  24     48.69        0.1274        0.0000        3.4537        3.4537       3.326311       0.03234
  23     57.69        0.1274        0.0000        3.4210        3.4210       3.293640       0.03062
  22     68.43        0.1274        0.0000        3.3844        3.3844       3.257057       0.02876
  21     81.20        0.1274        0.0000        3.3441        3.3441       3.216761       0.02663
  20     96.49        0.1274        0.0000        3.2998        3.2998       3.172400       0.02448
  19     114.6        0.1274        0.0000        3.2506        3.2506       3.123255       0.02295
  18     136.5        0.1274        0.0000        3.1936        3.1936       3.066209       0.02194
  17     162.9        0.1274        0.0000        3.1181        3.1181       2.990711       0.02413
  16     196.4        0.1274        0.0000        3.0090        3.0090       2.881530       0.02748
  15     218.7        0.1275        0.0000        2.9420        2.9420       2.814531       0.02544
  14     243.0        0.1275        0.0000        2.8605        2.8605       2.732975       0.02829
  13     269.0        0.1276        0.0000        2.7419        2.7420       2.614404       0.03846
  12     297.5        0.1277        0.0000        2.5729        2.5729       2.445213       0.05018
  11     328.5        0.1279        0.0000        2.3602        2.3602       2.232345       0.05788
  10     361.9        0.1281        0.0000        2.1524        2.1524       2.024300       0.05264
   9     398.1        0.1285        0.0000        1.9974        1.9974       1.868887       0.03621
   8     437.6        0.1291        0.0000        1.8835        1.8835       1.754396       0.02448
   7     480.5        0.1300        0.0000        1.7734        1.7734       1.643466       0.02179
   6     533.0        0.1314        0.0000        1.6397        1.6398       1.508355       0.02174
   5     589.8        0.1335        0.0000        1.5068        1.5069       1.373375       0.02004
   4     651.6        0.1366        0.0000        1.3807        1.3807       1.244160       0.01767
   3     718.7        0.1407        0.0000        1.2680        1.2680       1.127377       0.01468
   2     792.3        0.1457        0.0000        1.1659        1.1660       1.020264       0.01228
   1     891.5        0.1542        0.0000        1.0372        1.0373       0.883066       0.01167
   0    1013.0        0.1696        0.0000        0.8716        0.8717       0.702049       0.01257

  Modules and versions used in this calculation:

       rrtmg_sw.1col.f90:  $Revision$                    rrtmg_sw_init.f90:  $Revision$        
     rrtmgsw_cldprop.f90:  $Revision$                  rrtmgsw_cldprmc.f90:  NOT USED          
     rrtmg_sw_reftra.f90:  $Revision$                  rrtmg_sw_spcvrt.f90:  NOT USED          
     rrtmg_sw_spcvmc.f90:  NOT USED                    rrtmgsw_setcoef.f90:  NOT USED          
     rrtmg_sw_taumol.f90:  $Revision$                  rrtmg_sw_vrtqdr.f90:  NOT USED          
                rrtatm.f:  NOT USED                             util_xxx.f:  NOT USED          
                 extra.f:  NOT USED                       rrtmg_sw_k_g.f90:  $Revision$        

