

 Wavenumbers:   820. - 50000. cm-1, ATM      1
 LEVEL PRESSURE   UPWARD FLUX   DIFDOWN FLUX  DIRDOWN FLUX  DOWNWARD FLUX   NET FLUX    HEATING RATE
          mb          W/m2          W/m2          W/m2        W/m2          W/m2       degree/day
  51    .06700      152.0162        0.0000      397.8738      397.8738     245.857624       0.00000
  50    .07753      152.0155        0.0011      397.8577      397.8588     245.843348      11.44259
  49    .09103      152.0147        0.0025      397.8418      397.8444     245.829681       8.54227
  48    0.1069      152.0138        0.0042      397.8230      397.8271     245.813362       8.68701
  47    0.1255      152.0127        0.0060      397.7997      397.8057     245.792956       9.25073
  46    0.1487      152.0114        0.0084      397.7676      397.7760     245.764554      10.35308
  45    0.1794      152.0097        0.0116      397.7205      397.7321     245.722347      11.58678
  44    0.2165      152.0078        0.0153      397.6602      397.6756     245.667814      12.40537
  43    0.2613      152.0055        0.0198      397.5829      397.6027     245.597172      13.31563
  42    0.3336      152.0019        0.0271      397.4449      397.4720     245.470028      14.82377
  41    0.4307      151.9974        0.0367      397.2524      397.2890     245.291602      15.51374
  40    0.5894      151.9906        0.0520      396.9253      396.9773     244.986727      16.21285
  39     1.339      151.9679        0.1207      395.4254      395.5460     243.578168      15.85781
  38     1.782      151.9607        0.1591      394.7288      394.8879     242.927148      12.39438
  37     2.292      151.9578        0.2028      394.0572      394.2599     242.302111      10.35224
  36     2.964      151.9619        0.2594      393.3007      393.5601     241.598181       8.83644
  35     3.853      151.9783        0.3335      392.4318      392.7653     240.786915       7.69906
  34     5.035      152.0110        0.4308      391.4441      391.8749     239.863852       6.59398
  33     6.613      152.0608        0.5597      390.3268      390.8865     238.825659       5.55019
  32     8.786      152.1240        0.7321      389.0624      389.7945     237.670521       4.48614
  31     11.80      152.1966        0.9766      387.5500      388.5265     236.329972       3.75312
  30     15.07      152.2538        1.2368      386.1556      387.3924     235.138620       3.07584
  29     18.79      152.2999        1.5283      384.7502      386.2785     233.978558       2.63022
  28     23.16      152.3325        1.8659      383.2686      385.1345     232.801938       2.27520
  27     28.12      152.3450        2.2485      381.7329      383.9814     231.636451       1.98125
  26     33.73      152.3222        2.6734      380.1982      382.8716     230.549381       1.63444
  25     40.54      152.2523        3.1827      378.5384      381.7211     229.468802       1.34058
  24     48.69      152.1276        3.7909      376.7214      380.5123     228.384769       1.12180
  23     57.69      151.9519        4.4522      374.8959      379.3481     227.396167       0.92667
  22     68.43      151.7014        5.2312      372.8999      378.1312     226.429711       0.75976
  21     81.20      151.3460        6.1487      370.7496      376.8983     225.552353       0.57974
  20     96.49      150.8714        7.2270      368.4056      375.6326     224.761198       0.43666
  19     114.6      150.2929        8.4850      365.7513      374.2363     223.943322       0.38189
  18     136.5      149.5990        9.9440      362.7231      372.6671     223.068110       0.33654
  17     162.9      148.7707       11.6372      359.1748      370.8120     222.041267       0.32822
  16     196.4      147.6817       13.7677      354.5718      368.3395     220.657822       0.34823
  15     218.7      146.9669       15.1277      351.4437      366.5714     219.604491       0.39991
  14     243.0      146.1963       16.5719      347.7111      364.2830     218.086783       0.52639
  13     269.0      145.3695       18.0980      342.9441      361.0421     215.672658       0.78313
  12     297.5      144.4871       19.7034      337.4137      357.1171     212.629963       0.90243
  11     328.5      143.5512       21.3889      331.1302      352.5191     208.967932       0.99570
  10     361.9      142.5646       23.1486      324.1219      347.2705     204.705913       1.07833
   9     398.1      141.5280       24.9810      316.6066      341.5876     200.059636       1.08248
   8     437.6      140.4462       26.8810      308.5895      335.4704     195.024204       1.07661
   7     480.5      139.3273       28.8418      299.9349      328.7767     189.449421       1.09487
   6     533.0      138.0097       31.1549      289.7021      320.8571     182.847380       1.06206
   5     589.8      136.6658       33.5308      279.3388      312.8696     176.203730       0.98614
   4     651.6      135.3177       35.9561      268.7786      304.7347     169.416979       0.92811
   3     718.7      133.9775       38.4205      258.2837      296.7042     162.726720       0.84078
   2     792.3      132.6603       40.9090      248.0774      288.9865     156.326205       0.73407
   1     891.5      131.1002       44.0373      235.5216      279.5589     148.458680       0.66949
   0    1013.0      129.6810       47.4658      221.4731      268.9389     139.257886       0.63886



 Wavenumbers:  2600. -  3250. cm-1, ATM      1
 LEVEL PRESSURE   UPWARD FLUX   DIFDOWN FLUX  DIRDOWN FLUX  DOWNWARD FLUX   NET FLUX    HEATING RATE
          mb          W/m2          W/m2          W/m2        W/m2          W/m2       degree/day
  51    .06700        0.2248        0.0000        3.5066        3.5066       3.281775       0.00000
  50    .07753        0.2248        0.0000        3.5066        3.5066       3.281767       0.00640
  49    .09103        0.2248        0.0000        3.5066        3.5066       3.281757       0.00627
  48    0.1069        0.2248        0.0000        3.5066        3.5066       3.281746       0.00613
  47    0.1255        0.2248        0.0000        3.5066        3.5066       3.281733       0.00599
  46    0.1487        0.2248        0.0000        3.5066        3.5066       3.281716       0.00607
  45    0.1794        0.2248        0.0000        3.5065        3.5065       3.281693       0.00624
  44    0.2165        0.2248        0.0000        3.5065        3.5065       3.281666       0.00611
  43    0.2613        0.2248        0.0000        3.5065        3.5065       3.281635       0.00598
  42    0.3336        0.2248        0.0000        3.5064        3.5064       3.281582       0.00615
  41    0.4307        0.2248        0.0000        3.5064        3.5064       3.281511       0.00618
  40    0.5894        0.2248        0.0000        3.5062        3.5062       3.281392       0.00633
  39     1.339        0.2248        0.0000        3.5055        3.5055       3.280693       0.00787
  38     1.782        0.2248        0.0000        3.5050        3.5050       3.280162       0.01011
  37     2.292        0.2248        0.0000        3.5043        3.5043       3.279470       0.01147
  36     2.964        0.2248        0.0000        3.5033        3.5033       3.278478       0.01245
  35     3.853        0.2248        0.0000        3.5019        3.5019       3.277101       0.01307
  34     5.035        0.2248        0.0000        3.5001        3.5001       3.275240       0.01329
  33     6.613        0.2248        0.0000        3.4977        3.4977       3.272831       0.01288
  32     8.786        0.2248        0.0000        3.4947        3.4947       3.269860       0.01154
  31     11.80        0.2248        0.0000        3.4911        3.4911       3.266224       0.01018
  30     15.07        0.2248        0.0000        3.4878        3.4878       3.263004       0.00832
  29     18.79        0.2248        0.0000        3.4848        3.4848       3.259940       0.00695
  28     23.16        0.2248        0.0000        3.4816        3.4816       3.256720       0.00623
  27     28.12        0.2248        0.0000        3.4779        3.4779       3.253103       0.00615
  26     33.73        0.2248        0.0000        3.4735        3.4735       3.248637       0.00671
  25     40.54        0.2248        0.0000        3.4671        3.4671       3.242311       0.00785
  24     48.69        0.2248        0.0000        3.4582        3.4583       3.233417       0.00920
  23     57.69        0.2248        0.0000        3.4472        3.4472       3.222369       0.01036
  22     68.43        0.2248        0.0000        3.4329        3.4329       3.208111       0.01121
  21     81.20        0.2248        0.0000        3.4152        3.4152       3.190384       0.01171
  20     96.49        0.2248        0.0000        3.3940        3.3941       3.169241       0.01167
  19     114.6        0.2248        0.0000        3.3692        3.3692       3.144354       0.01162
  18     136.5        0.2249        0.0001        3.3419        3.3420       3.117140       0.01046
  17     162.9        0.2249        0.0001        3.3129        3.3129       3.088069       0.00929
  16     196.4        0.2249        0.0001        3.2793        3.2794       3.054503       0.00845
  15     218.7        0.2249        0.0001        3.2578        3.2578       3.032893       0.00820
  14     243.0        0.2250        0.0001        3.2320        3.2320       3.007029       0.00897
  13     269.0        0.2251        0.0001        3.1968        3.1969       2.971793       0.01143
  12     297.5        0.2253        0.0001        3.1489        3.1490       2.923731       0.01425
  11     328.5        0.2256        0.0001        3.0821        3.0822       2.856577       0.01826
  10     361.9        0.2260        0.0001        2.9902        2.9904       2.764355       0.02333
   9     398.1        0.2266        0.0001        2.8715        2.8716       2.645036       0.02780
   8     437.6        0.2274        0.0001        2.7276        2.7278       2.500386       0.03093
   7     480.5        0.2286        0.0001        2.5595        2.5597       2.331054       0.03326
   6     533.0        0.2306        0.0001        2.3617        2.3619       2.131283       0.03214
   5     589.8        0.2335        0.0002        2.1649        2.1651       1.931599       0.02964
   4     651.6        0.2376        0.0002        1.9608        1.9609       1.723300       0.02849
   3     718.7        0.2433        0.0002        1.7593        1.7595       1.516223       0.02602
   2     792.3        0.2506        0.0002        1.5761        1.5762       1.325593       0.02186
   1     891.5        0.2633        0.0002        1.3714        1.3716       1.108315       0.01849
   0    1013.0        0.2862        0.0002        1.1584        1.1586       0.872413       0.01638



 Wavenumbers:  3250. -  4000. cm-1, ATM      1
 LEVEL PRESSURE   UPWARD FLUX   DIFDOWN FLUX  DIRDOWN FLUX  DOWNWARD FLUX   NET FLUX    HEATING RATE
          mb          W/m2          W/m2          W/m2        W/m2          W/m2       degree/day
  51    .06700        0.0004        0.0000        5.9117        5.9117       5.911238       0.00000
  50    .07753        0.0004        0.0000        5.9075        5.9075       5.907048       3.35808
  49    .09103        0.0004        0.0000        5.9050        5.9050       5.904606       1.52677
  48    0.1069        0.0004        0.0000        5.9032        5.9032       5.902739       0.99346
  47    0.1255        0.0004        0.0000        5.9014        5.9014       5.900981       0.79708
  46    0.1487        0.0004        0.0000        5.8995        5.8995       5.899092       0.68848
  45    0.1794        0.0004        0.0000        5.8974        5.8974       5.896944       0.58983
  44    0.2165        0.0004        0.0000        5.8952        5.8952       5.894827       0.48155
  43    0.2613        0.0004        0.0000        5.8931        5.8931       5.892668       0.40696
  42    0.3336        0.0004        0.0000        5.8899        5.8899       5.889510       0.36820
  41    0.4307        0.0004        0.0000        5.8861        5.8861       5.885672       0.33365
  40    0.5894        0.0004        0.0000        5.8803        5.8803       5.879870       0.30857
  39     1.339        0.0004        0.0000        5.8597        5.8597       5.859272       0.23189
  38     1.782        0.0004        0.0000        5.8513        5.8513       5.850848       0.16039
  37     2.292        0.0004        0.0000        5.8431        5.8431       5.842677       0.13533
  36     2.964        0.0004        0.0000        5.8334        5.8334       5.833037       0.12100
  35     3.853        0.0004        0.0000        5.8213        5.8213       5.820862       0.11555
  34     5.035        0.0004        0.0000        5.8052        5.8052       5.804766       0.11498
  33     6.613        0.0004        0.0000        5.7833        5.7834       5.782945       0.11666
  32     8.786        0.0004        0.0000        5.7531        5.7531       5.752744       0.11729
  31     11.80        0.0004        0.0000        5.7090        5.7090       5.708575       0.12366
  30     15.07        0.0004        0.0000        5.6615        5.6615       5.661110       0.12254
  29     18.79        0.0004        0.0000        5.6093        5.6094       5.608975       0.11821
  28     23.16        0.0004        0.0000        5.5524        5.5524       5.552049       0.11008
  27     28.12        0.0004        0.0000        5.4935        5.4935       5.493170       0.10009
  26     33.73        0.0004        0.0000        5.4348        5.4349       5.434481       0.08824
  25     40.54        0.0004        0.0001        5.3707        5.3708       5.370419       0.07948
  24     48.69        0.0004        0.0001        5.2985        5.2985       5.298186       0.07475
  23     57.69        0.0003        0.0001        5.2215        5.2216       5.221247       0.07212
  22     68.43        0.0003        0.0001        5.1318        5.1319       5.131587       0.07048
  21     81.20        0.0003        0.0001        5.0284        5.0285       5.028158       0.06834
  20     96.49        0.0003        0.0001        4.9122        4.9123       4.912024       0.06410
  19     114.6        0.0003        0.0001        4.7780        4.7782       4.777913       0.06262
  18     136.5        0.0002        0.0002        4.6285        4.6287       4.628435       0.05748
  17     162.9        0.0002        0.0002        4.4406        4.4407       4.440522       0.06006
  16     196.4        0.0002        0.0002        4.1548        4.1550       4.154849       0.07191
  15     218.7        0.0002        0.0002        3.9564        3.9566       3.956468       0.07532
  14     243.0        0.0001        0.0002        3.7055        3.7058       3.705633       0.08700
  13     269.0        0.0001        0.0002        3.3399        3.3401       3.339994       0.11861
  12     297.5        0.0001        0.0002        2.8954        2.8956       2.895505       0.13183
  11     328.5        0.0001        0.0002        2.4388        2.4390       2.438964       0.12413
  10     361.9        0.0001        0.0002        2.0269        2.0271       2.027026       0.10422
   9     398.1        0.0001        0.0002        1.6753        1.6755       1.675438       0.08191
   8     437.6        0.0000        0.0002        1.3592        1.3594       1.359319       0.06759
   7     480.5        0.0000        0.0002        1.0616        1.0618       1.061737       0.05844
   6     533.0        0.0000        0.0001        0.7543        0.7544       0.754404       0.04944
   5     589.8        0.0000        0.0001        0.4951        0.4952       0.495213       0.03847
   4     651.6        0.0000        0.0001        0.2943        0.2943       0.294319       0.02747
   3     718.7        0.0000        0.0001        0.1528        0.1529       0.152830       0.01778
   2     792.3        0.0000        0.0000        0.0658        0.0658       0.065808       0.00998
   1     891.5        0.0001        0.0000        0.0157        0.0157       0.015588       0.00427
   0    1013.0        0.0003        0.0000        0.0013        0.0013       0.001012       0.00101



 Wavenumbers:  4000. -  4650. cm-1, ATM      1
 LEVEL PRESSURE   UPWARD FLUX   DIFDOWN FLUX  DIRDOWN FLUX  DOWNWARD FLUX   NET FLUX    HEATING RATE
          mb          W/m2          W/m2          W/m2        W/m2          W/m2       degree/day
  51    .06700        0.9654        0.0000        6.9421        6.9421       5.976702       0.00000
  50    .07753        0.9654        0.0000        6.9421        6.9421       5.976701       0.00079
  49    .09103        0.9654        0.0000        6.9421        6.9421       5.976700       0.00078
  48    0.1069        0.9654        0.0000        6.9421        6.9421       5.976699       0.00076
  47    0.1255        0.9654        0.0000        6.9421        6.9421       5.976697       0.00074
  46    0.1487        0.9654        0.0000        6.9421        6.9421       5.976695       0.00075
  45    0.1794        0.9654        0.0000        6.9421        6.9421       5.976692       0.00077
  44    0.2165        0.9654        0.0000        6.9421        6.9421       5.976689       0.00076
  43    0.2613        0.9654        0.0000        6.9420        6.9420       5.976685       0.00074
  42    0.3336        0.9654        0.0000        6.9420        6.9420       5.976678       0.00076
  41    0.4307        0.9654        0.0000        6.9420        6.9420       5.976669       0.00077
  40    0.5894        0.9654        0.0000        6.9420        6.9420       5.976655       0.00079
  39     1.339        0.9654        0.0000        6.9419        6.9419       5.976566       0.00100
  38     1.782        0.9654        0.0000        6.9418        6.9419       5.976496       0.00132
  37     2.292        0.9654        0.0000        6.9418        6.9418       5.976403       0.00155
  36     2.964        0.9654        0.0000        6.9416        6.9416       5.976263       0.00175
  35     3.853        0.9654        0.0000        6.9414        6.9414       5.976057       0.00196
  34     5.035        0.9653        0.0000        6.9411        6.9411       5.975752       0.00218
  33     6.613        0.9653        0.0000        6.9406        6.9406       5.975305       0.00239
  32     8.786        0.9653        0.0000        6.9399        6.9400       5.974645       0.00256
  31     11.80        0.9653        0.0000        6.9389        6.9389       5.973611       0.00290
  30     15.07        0.9653        0.0001        6.9377        6.9377       5.972401       0.00312
  29     18.79        0.9653        0.0001        6.9362        6.9362       5.970943       0.00330
  28     23.16        0.9653        0.0001        6.9343        6.9344       5.969141       0.00349
  27     28.12        0.9653        0.0001        6.9321        6.9322       5.966969       0.00369
  26     33.73        0.9653        0.0001        6.9294        6.9296       5.964305       0.00401
  25     40.54        0.9652        0.0002        6.9258        6.9260       5.960713       0.00446
  24     48.69        0.9652        0.0002        6.9210        6.9212       5.955959       0.00492
  23     57.69        0.9652        0.0002        6.9154        6.9156       5.950368       0.00524
  22     68.43        0.9652        0.0003        6.9083        6.9086       5.943420       0.00546
  21     81.20        0.9652        0.0003        6.8998        6.9001       5.934928       0.00561
  20     96.49        0.9651        0.0004        6.8894        6.8898       5.924675       0.00566
  19     114.6        0.9651        0.0004        6.8765        6.8770       5.911848       0.00599
  18     136.5        0.9651        0.0005        6.8610        6.8615       5.896384       0.00595
  17     162.9        0.9651        0.0006        6.8417        6.8423       5.877164       0.00614
  16     196.4        0.9652        0.0007        6.8147        6.8154       5.850231       0.00678
  15     218.7        0.9652        0.0008        6.7948        6.7956       5.830413       0.00752
  14     243.0        0.9654        0.0009        6.7698        6.7707       5.805299       0.00871
  13     269.0        0.9656        0.0010        6.7349        6.7358       5.770204       0.01138
  12     297.5        0.9661        0.0011        6.6869        6.6879       5.721880       0.01433
  11     328.5        0.9667        0.0012        6.6194        6.6205       5.653867       0.01849
  10     361.9        0.9675        0.0013        6.5295        6.5307       5.563218       0.02294
   9     398.1        0.9687        0.0014        6.4202        6.4216       5.452955       0.02569
   8     437.6        0.9702        0.0015        6.2962        6.2977       5.327534       0.02682
   7     480.5        0.9722        0.0016        6.1555        6.1571       5.184932       0.02801
   6     533.0        0.9755        0.0018        5.9675        5.9693       4.993823       0.03074
   5     589.8        0.9802        0.0019        5.7368        5.7387       4.758425       0.03494
   4     651.6        0.9871        0.0020        5.4662        5.4683       4.481130       0.03792
   3     718.7        0.9966        0.0022        5.1912        5.1933       4.196779       0.03573
   2     792.3        1.0087        0.0023        4.9395        4.9418       3.933024       0.03025
   1     891.5        1.0296        0.0024        4.6486        4.6511       3.621487       0.02651
   0    1013.0        1.0669        0.0026        4.3179        4.3205       3.253528       0.02555



 Wavenumbers:  4650. -  5150. cm-1, ATM      1
 LEVEL PRESSURE   UPWARD FLUX   DIFDOWN FLUX  DIRDOWN FLUX  DOWNWARD FLUX   NET FLUX    HEATING RATE
          mb          W/m2          W/m2          W/m2        W/m2          W/m2       degree/day
  51    .06700        0.6525        0.0000        6.5710        6.5710       5.918445       0.00000
  50    .07753        0.6525        0.0000        6.5708        6.5708       5.918209       0.18887
  49    .09103        0.6525        0.0000        6.5705        6.5705       5.917916       0.18362
  48    0.1069        0.6525        0.0000        6.5701        6.5701       5.917581       0.17806
  47    0.1255        0.6525        0.0000        6.5697        6.5697       5.917201       0.17238
  46    0.1487        0.6525        0.0000        6.5693        6.5693       5.916727       0.17268
  45    0.1794        0.6525        0.0000        6.5686        6.5686       5.916091       0.17473
  44    0.2165        0.6525        0.0000        6.5679        6.5679       5.915353       0.16788
  43    0.2613        0.6525        0.0000        6.5670        6.5670       5.914500       0.16078
  42    0.3336        0.6525        0.0000        6.5657        6.5657       5.913137       0.15894
  41    0.4307        0.6525        0.0000        6.5640        6.5640       5.911415       0.14971
  40    0.5894        0.6525        0.0000        6.5613        6.5613       5.908799       0.13913
  39     1.339        0.6525        0.0000        6.5516        6.5516       5.899021       0.11008
  38     1.782        0.6525        0.0000        6.5473        6.5473       5.894805       0.08026
  37     2.292        0.6525        0.0000        6.5434        6.5435       5.890918       0.06438
  36     2.964        0.6525        0.0000        6.5395        6.5395       5.886964       0.04964
  35     3.853        0.6525        0.0000        6.5355        6.5356       5.883021       0.03742
  34     5.035        0.6525        0.0000        6.5315        6.5315       5.879019       0.02859
  33     6.613        0.6525        0.0000        6.5271        6.5271       5.874625       0.02349
  32     8.786        0.6525        0.0000        6.5216        6.5216       5.869131       0.02134
  31     11.80        0.6525        0.0001        6.5135        6.5135       5.861053       0.02262
  30     15.07        0.6525        0.0001        6.5041        6.5042       5.851686       0.02418
  29     18.79        0.6525        0.0001        6.4925        6.4926       5.840172       0.02611
  28     23.16        0.6524        0.0001        6.4779        6.4780       5.825582       0.02821
  27     28.12        0.6524        0.0002        6.4599        6.4600       5.807610       0.03055
  26     33.73        0.6524        0.0002        6.4384        6.4386       5.786184       0.03222
  25     40.54        0.6524        0.0002        6.4112        6.4115       5.759065       0.03364
  24     48.69        0.6524        0.0003        6.3775        6.3778       5.725438       0.03480
  23     57.69        0.6523        0.0003        6.3404        6.3407       5.688360       0.03476
  22     68.43        0.6523        0.0004        6.2971        6.2975       5.645189       0.03394
  21     81.20        0.6523        0.0004        6.2483        6.2487       5.596400       0.03224
  20     96.49        0.6523        0.0005        6.1948        6.1954       5.543066       0.02944
  19     114.6        0.6523        0.0006        6.1381        6.1388       5.486482       0.02642
  18     136.5        0.6523        0.0007        6.0790        6.0797       5.427443       0.02270
  17     162.9        0.6523        0.0009        6.0160        6.0169       5.364580       0.02009
  16     196.4        0.6524        0.0010        5.9399        5.9409       5.288485       0.01915
  15     218.7        0.6525        0.0011        5.8896        5.8908       5.238263       0.01907
  14     243.0        0.6527        0.0013        5.8322        5.8334       5.180778       0.01994
  13     269.0        0.6529        0.0014        5.7624        5.7638       5.110860       0.02268
  12     297.5        0.6533        0.0015        5.6767        5.6782       5.024910       0.02549
  11     328.5        0.6539        0.0016        5.5726        5.5742       4.920309       0.02844
  10     361.9        0.6548        0.0018        5.4473        5.4491       4.794338       0.03187
   9     398.1        0.6559        0.0019        5.2995        5.3014       4.645468       0.03468
   8     437.6        0.6575        0.0021        5.1275        5.1295       4.471996       0.03709
   7     480.5        0.6597        0.0022        4.9290        4.9312       4.271439       0.03939
   6     533.0        0.6632        0.0023        4.6794        4.6817       4.018499       0.04069
   5     589.8        0.6681        0.0025        4.4188        4.4212       3.753154       0.03939
   4     651.6        0.6750        0.0026        4.1521        4.1547       3.479718       0.03739
   3     718.7        0.6841        0.0027        3.8929        3.8957       3.211523       0.03370
   2     792.3        0.6960        0.0028        3.6469        3.6497       2.953691       0.02957
   1     891.5        0.7163        0.0030        3.3535        3.3564       2.640175       0.02668
   0    1013.0        0.7510        0.0031        3.0383        3.0414       2.290455       0.02428



 Wavenumbers:  5150. -  6150. cm-1, ATM      1
 LEVEL PRESSURE   UPWARD FLUX   DIFDOWN FLUX  DIRDOWN FLUX  DOWNWARD FLUX   NET FLUX    HEATING RATE
          mb          W/m2          W/m2          W/m2        W/m2          W/m2       degree/day
  51    .06700        1.7646        0.0000       16.4735       16.4735      14.708868       0.00000
  50    .07753        1.7646        0.0000       16.4735       16.4735      14.708834       0.02761
  49    .09103        1.7646        0.0000       16.4734       16.4734      14.708789       0.02811
  48    0.1069        1.7646        0.0000       16.4734       16.4734      14.708735       0.02859
  47    0.1255        1.7646        0.0000       16.4733       16.4733      14.708671       0.02904
  46    0.1487        1.7646        0.0000       16.4732       16.4732      14.708587       0.03060
  45    0.1794        1.7646        0.0000       16.4731       16.4731      14.708468       0.03269
  44    0.2165        1.7646        0.0000       16.4730       16.4730      14.708322       0.03331
  43    0.2613        1.7646        0.0000       16.4728       16.4728      14.708143       0.03376
  42    0.3336        1.7646        0.0000       16.4725       16.4725      14.707837       0.03564
  41    0.4307        1.7646        0.0000       16.4720       16.4720      14.707418       0.03645
  40    0.5894        1.7646        0.0000       16.4713       16.4713      14.706717       0.03729
  39     1.339        1.7646        0.0000       16.4679       16.4679      14.703308       0.03838
  38     1.782        1.7646        0.0000       16.4659       16.4659      14.701308       0.03807
  37     2.292        1.7646        0.0001       16.4635       16.4636      14.699017       0.03795
  36     2.964        1.7646        0.0001       16.4605       16.4606      14.696047       0.03728
  35     3.853        1.7646        0.0001       16.4567       16.4567      14.692194       0.03657
  34     5.035        1.7645        0.0001       16.4516       16.4517      14.687197       0.03570
  33     6.613        1.7645        0.0002       16.4451       16.4452      14.680736       0.03454
  32     8.786        1.7645        0.0002       16.4367       16.4369      14.672424       0.03228
  31     11.80        1.7644        0.0003       16.4254       16.4257      14.661272       0.03122
  30     15.07        1.7643        0.0004       16.4141       16.4145      14.650185       0.02863
  29     18.79        1.7643        0.0005       16.4024       16.4029      14.638663       0.02612
  28     23.16        1.7642        0.0006       16.3900       16.3906      14.626401       0.02371
  27     28.12        1.7641        0.0007       16.3771       16.3778      14.613736       0.02153
  26     33.73        1.7640        0.0009       16.3641       16.3650      14.601008       0.01914
  25     40.54        1.7639        0.0010       16.3502       16.3512      14.587366       0.01692
  24     48.69        1.7637        0.0013       16.3354       16.3366      14.572891       0.01498
  23     57.69        1.7636        0.0015       16.3211       16.3226      14.558990       0.01303
  22     68.43        1.7634        0.0018       16.3062       16.3080      14.544600       0.01131
  21     81.20        1.7632        0.0021       16.2903       16.2924      14.529206       0.01017
  20     96.49        1.7630        0.0025       16.2726       16.2751      14.512130       0.00942
  19     114.6        1.7627        0.0029       16.2521       16.2550      14.492315       0.00925
  18     136.5        1.7624        0.0035       16.2245       16.2280      14.465652       0.01025
  17     162.9        1.7620        0.0041       16.1747       16.1789      14.416865       0.01559
  16     196.4        1.7616        0.0050       16.0518       16.0568      14.295257       0.03061
  15     218.7        1.7613        0.0055       15.8984       15.9039      14.142605       0.05796
  14     243.0        1.7610        0.0060       15.6153       15.6213      13.860297       0.09791
  13     269.0        1.7607        0.0065       15.1390       15.1455      13.384780       0.15426
  12     297.5        1.7606        0.0070       14.5779       14.5849      12.824349       0.16622
  11     328.5        1.7605        0.0075       13.8780       13.8855      12.125013       0.19015
  10     361.9        1.7605        0.0078       13.0814       13.0893      11.328765       0.20146
   9     398.1        1.7608        0.0082       12.2728       12.2810      10.520253       0.18837
   8     437.6        1.7613        0.0085       11.4776       11.4860       9.724729       0.17009
   7     480.5        1.7623        0.0087       10.7300       10.7387       8.976381       0.14697
   6     533.0        1.7643        0.0091       10.0326       10.0417       8.277388       0.11245
   5     589.8        1.7675        0.0095        9.5050        9.5145       7.747034       0.07872
   4     651.6        1.7726        0.0100        9.0814        9.0914       7.318809       0.05856
   3     718.7        1.7800        0.0106        8.7024        8.7131       6.933026       0.04848
   2     792.3        1.7903        0.0113        8.3379        8.3493       6.558987       0.04290
   1     891.5        1.8092        0.0122        7.9064        7.9185       6.109310       0.03827
   0    1013.0        1.8483        0.0131        7.4741        7.4872       5.638932       0.03266



 Wavenumbers:  6150. -  7700. cm-1, ATM      1
 LEVEL PRESSURE   UPWARD FLUX   DIFDOWN FLUX  DIRDOWN FLUX  DOWNWARD FLUX   NET FLUX    HEATING RATE
          mb          W/m2          W/m2          W/m2        W/m2          W/m2       degree/day
  51    .06700        2.6090        0.0000       30.4684       30.4684      27.859401       0.00000
  50    .07753        2.6090        0.0000       30.4683       30.4683      27.859349       0.04144
  49    .09103        2.6090        0.0000       30.4683       30.4683      27.859282       0.04174
  48    0.1069        2.6090        0.0000       30.4682       30.4682      27.859203       0.04202
  47    0.1255        2.6090        0.0000       30.4681       30.4681      27.859110       0.04227
  46    0.1487        2.6090        0.0000       30.4680       30.4680      27.858989       0.04411
  45    0.1794        2.6090        0.0000       30.4678       30.4678      27.858819       0.04669
  44    0.2165        2.6090        0.0000       30.4676       30.4676      27.858612       0.04715
  43    0.2613        2.6090        0.0000       30.4673       30.4673      27.858360       0.04744
  42    0.3336        2.6090        0.0000       30.4669       30.4669      27.857933       0.04974
  41    0.4307        2.6089        0.0000       30.4663       30.4663      27.857352       0.05052
  40    0.5894        2.6089        0.0001       30.4653       30.4653      27.856385       0.05146
  39     1.339        2.6089        0.0001       30.4604       30.4606      27.851701       0.05273
  38     1.782        2.6088        0.0002       30.4576       30.4578      27.848951       0.05235
  37     2.292        2.6088        0.0002       30.4543       30.4546      27.845793       0.05231
  36     2.964        2.6087        0.0003       30.4501       30.4504      27.841685       0.05156
  35     3.853        2.6086        0.0004       30.4445       30.4449      27.836328       0.05084
  34     5.035        2.6085        0.0005       30.4373       30.4378      27.829329       0.05000
  33     6.613        2.6083        0.0007       30.4278       30.4285      27.820181       0.04890
  32     8.786        2.6081        0.0009       30.4154       30.4163      27.808228       0.04642
  31     11.80        2.6078        0.0013       30.3984       30.3996      27.791843       0.04587
  30     15.07        2.6075        0.0016       30.3810       30.3826      27.775130       0.04315
  29     18.79        2.6071        0.0020       30.3623       30.3643      27.757229       0.04059
  28     23.16        2.6067        0.0025       30.3417       30.3442      27.737546       0.03806
  27     28.12        2.6062        0.0030       30.3196       30.3226      27.716446       0.03587
  26     33.73        2.6056        0.0037       30.2965       30.3001      27.694528       0.03295
  25     40.54        2.6049        0.0044       30.2708       30.2751      27.670191       0.03019
  24     48.69        2.6041        0.0053       30.2423       30.2475      27.643415       0.02771
  23     57.69        2.6032        0.0062       30.2139       30.2201      27.616850       0.02490
  22     68.43        2.6022        0.0074       30.1834       30.1907      27.588575       0.02223
  21     81.20        2.6009        0.0087       30.1500       30.1587      27.557847       0.02030
  20     96.49        2.5994        0.0104       30.1126       30.1230      27.523631       0.01889
  19     114.6        2.5976        0.0123       30.0695       30.0818      27.484247       0.01839
  18     136.5        2.5954        0.0146       30.0139       30.0285      27.433095       0.01967
  17     162.9        2.5929        0.0174       29.9225       29.9398      27.346923       0.02754
  16     196.4        2.5897        0.0209       29.7333       29.7542      27.164547       0.04591
  15     218.7        2.5875        0.0231       29.5259       29.5490      26.961429       0.07712
  14     243.0        2.5853        0.0254       29.1375       29.1629      26.577623       0.13312
  13     269.0        2.5830        0.0277       28.3800       28.4077      25.824687       0.24425
  12     297.5        2.5807        0.0298       27.3895       27.4193      24.838588       0.29247
  11     328.5        2.5786        0.0317       26.2257       26.2574      23.678875       0.31532
  10     361.9        2.5767        0.0335       24.8453       24.8789      22.302177       0.34832
   9     398.1        2.5752        0.0351       23.3471       23.3821      20.806885       0.34837
   8     437.6        2.5745        0.0363       21.7966       21.8330      19.258452       0.33106
   7     480.5        2.5751        0.0373       20.1977       20.2350      17.659945       0.31394
   6     533.0        2.5781        0.0383       18.4969       18.5352      15.957159       0.27392
   5     589.8        2.5846        0.0392       16.9754       17.0146      14.429992       0.22668
   4     651.6        2.5967        0.0402       15.6022       15.6423      13.045591       0.18932
   3     718.7        2.6157        0.0413       14.4232       14.4645      11.848749       0.15041
   2     792.3        2.6427        0.0426       13.4386       13.4812      10.838554       0.11586
   1     891.5        2.6934        0.0445       12.3736       12.4180       9.724626       0.09479
   0    1013.0        2.7966        0.0465       11.2911       11.3376       8.540968       0.08219



 Wavenumbers:  7700. -  8050. cm-1, ATM      1
 LEVEL PRESSURE   UPWARD FLUX   DIFDOWN FLUX  DIRDOWN FLUX  DOWNWARD FLUX   NET FLUX    HEATING RATE
          mb          W/m2          W/m2          W/m2        W/m2          W/m2       degree/day
  51    .06700        1.3530        0.0000        7.2006        7.2006       5.847601       0.00000
  50    .07753        1.3530        0.0000        7.2006        7.2006       5.847582       0.01490
  49    .09103        1.3530        0.0000        7.2005        7.2005       5.847559       0.01460
  48    0.1069        1.3530        0.0000        7.2005        7.2005       5.847532       0.01430
  47    0.1255        1.3530        0.0000        7.2005        7.2005       5.847501       0.01399
  46    0.1487        1.3530        0.0000        7.2004        7.2005       5.847462       0.01420
  45    0.1794        1.3530        0.0000        7.2004        7.2004       5.847409       0.01461
  44    0.2165        1.3530        0.0000        7.2003        7.2003       5.847346       0.01433
  43    0.2613        1.3530        0.0000        7.2003        7.2003       5.847271       0.01406
  42    0.3336        1.3530        0.0000        7.2001        7.2001       5.847148       0.01439
  41    0.4307        1.3530        0.0000        7.2000        7.2000       5.846984       0.01423
  40    0.5894        1.3530        0.0000        7.1997        7.1997       5.846717       0.01421
  39     1.339        1.3530        0.0001        7.1984        7.1985       5.845453       0.01423
  38     1.782        1.3531        0.0001        7.1977        7.1978       5.844711       0.01413
  37     2.292        1.3531        0.0001        7.1968        7.1969       5.843852       0.01422
  36     2.964        1.3531        0.0001        7.1957        7.1958       5.842725       0.01415
  35     3.853        1.3531        0.0002        7.1942        7.1944       5.841237       0.01412
  34     5.035        1.3532        0.0002        7.1922        7.1925       5.839262       0.01411
  33     6.613        1.3533        0.0003        7.1896        7.1899       5.836626       0.01409
  32     8.786        1.3533        0.0004        7.1860        7.1864       5.833079       0.01377
  31     11.80        1.3535        0.0005        7.1810        7.1815       5.828017       0.01417
  30     15.07        1.3536        0.0007        7.1755        7.1762       5.822599       0.01399
  29     18.79        1.3538        0.0008        7.1694        7.1703       5.816498       0.01383
  28     23.16        1.3539        0.0010        7.1623        7.1633       5.809399       0.01373
  27     28.12        1.3542        0.0012        7.1542        7.1555       5.801319       0.01374
  26     33.73        1.3544        0.0015        7.1452        7.1467       5.792325       0.01352
  25     40.54        1.3547        0.0018        7.1344        7.1362       5.781526       0.01340
  24     48.69        1.3550        0.0021        7.1215        7.1236       5.768605       0.01337
  23     57.69        1.3554        0.0025        7.1074        7.1100       5.754537       0.01319
  22     68.43        1.3559        0.0030        7.0909        7.0938       5.737948       0.01304
  21     81.20        1.3564        0.0035        7.0713        7.0749       5.718420       0.01290
  20     96.49        1.3571        0.0042        7.0484        7.0526       5.695476       0.01266
  19     114.6        1.3579        0.0049        7.0217        7.0266       5.668677       0.01251
  18     136.5        1.3589        0.0058        6.9906        6.9964       5.637513       0.01198
  17     162.9        1.3601        0.0069        6.9544        6.9613       5.601200       0.01161
  16     196.4        1.3617        0.0083        6.9087        6.9171       5.555335       0.01154
  15     218.7        1.3628        0.0092        6.8794        6.8887       5.525857       0.01119
  14     243.0        1.3640        0.0102        6.8481        6.8583       5.494338       0.01093
  13     269.0        1.3653        0.0113        6.8147        6.8260       5.460668       0.01092
  12     297.5        1.3668        0.0124        6.7791        6.7915       5.424673       0.01068
  11     328.5        1.3685        0.0137        6.7409        6.7546       5.386082       0.01049
  10     361.9        1.3705        0.0150        6.7002        6.7152       5.344680       0.01048
   9     398.1        1.3727        0.0164        6.6563        6.6727       5.299988       0.01041
   8     437.6        1.3753        0.0180        6.6089        6.6268       5.251509       0.01037
   7     480.5        1.3784        0.0196        6.5570        6.5766       5.198215       0.01047
   6     533.0        1.3826        0.0216        6.4915        6.5130       5.130480       0.01090
   5     589.8        1.3877        0.0237        6.4182        6.4419       5.054219       0.01132
   4     651.6        1.3940        0.0259        6.3359        6.3618       4.967778       0.01182
   3     718.7        1.4017        0.0283        6.2441        6.2724       4.870717       0.01220
   2     792.3        1.4109        0.0308        6.1437        6.1745       4.763642       0.01228
   1     891.5        1.4248        0.0341        6.0042        6.0382       4.613400       0.01278
   0    1013.0        1.4450        0.0379        5.8249        5.8628       4.417715       0.01359



 Wavenumbers:  8050. - 12850. cm-1, ATM      1
 LEVEL PRESSURE   UPWARD FLUX   DIFDOWN FLUX  DIRDOWN FLUX  DOWNWARD FLUX   NET FLUX    HEATING RATE
          mb          W/m2          W/m2          W/m2        W/m2          W/m2       degree/day
  51    .06700       17.8016        0.0000      100.8135      100.8135      83.011878       0.00000
  50    .07753       17.8016        0.0000      100.8135      100.8135      83.011878       0.00000
  49    .09103       17.8016        0.0001      100.8134      100.8135      83.011878       0.00000
  48    0.1069       17.8016        0.0001      100.8134      100.8134      83.011878      -0.00000
  47    0.1255       17.8015        0.0001      100.8133      100.8134      83.011878       0.00000
  46    0.1487       17.8015        0.0002      100.8132      100.8134      83.011878      -0.00000
  45    0.1794       17.8014        0.0002      100.8131      100.8133      83.011878       0.00000
  44    0.2165       17.8014        0.0003      100.8129      100.8132      83.011878       0.00000
  43    0.2613       17.8013        0.0004      100.8127      100.8132      83.011878       0.00000
  42    0.3336       17.8012        0.0006      100.8125      100.8130      83.011878      -0.00000
  41    0.4307       17.8010        0.0008      100.8121      100.8129      83.011878       0.00000
  40    0.5894       17.8007        0.0011      100.8115      100.8126      83.011878      -0.00000
  39     1.339       17.7993        0.0027      100.8085      100.8112      83.011878       0.00000
  38     1.782       17.7985        0.0037      100.8068      100.8104      83.011878      -0.00000
  37     2.292       17.7976        0.0048      100.8047      100.8095      83.011878       0.00000
  36     2.964       17.7964        0.0062      100.8021      100.8083      83.011878      -0.00000
  35     3.853       17.7948        0.0081      100.7986      100.8067      83.011878       0.00000
  34     5.035       17.7927        0.0106      100.7940      100.8046      83.011878       0.00000
  33     6.613       17.7898        0.0139      100.7878      100.8017      83.011878       0.00000
  32     8.786       17.7860        0.0185      100.7794      100.7979      83.011878       0.00000
  31     11.80       17.7805        0.0250      100.7674      100.7924      83.011878       0.00000
  30     15.07       17.7746        0.0319      100.7546      100.7865      83.011878       0.00000
  29     18.79       17.7679        0.0398      100.7400      100.7798      83.011878      -0.00000
  28     23.16       17.7601        0.0490      100.7230      100.7720      83.011878      -0.00000
  27     28.12       17.7512        0.0596      100.7035      100.7631      83.011878       0.00000
  26     33.73       17.7412        0.0714      100.6817      100.7531      83.011878      -0.00000
  25     40.54       17.7291        0.0857      100.6552      100.7410      83.011878       0.00000
  24     48.69       17.7145        0.1030      100.6234      100.7263      83.011878       0.00000
  23     57.69       17.6984        0.1220      100.5883      100.7103      83.011878       0.00000
  22     68.43       17.6792        0.1446      100.5464      100.6911      83.011878       0.00000
  21     81.20       17.6563        0.1716      100.4965      100.6682      83.011878      -0.00000
  20     96.49       17.6289        0.2039      100.4370      100.6408      83.011878       0.00000
  19     114.6       17.5965        0.2422      100.3585      100.6007      83.004205       0.00358
  18     136.5       17.5579        0.2877      100.2634      100.5511      82.993160       0.00425
  17     162.9       17.5119        0.3420      100.1407      100.4826      82.970739       0.00717
  16     196.4       17.4521        0.4124       99.9505      100.3629      82.910796       0.01509
  15     218.7       17.4128        0.4587       99.7889      100.2476      82.834820       0.02885
  14     243.0       17.3701        0.5089       99.5472      100.0561      82.685967       0.05163
  13     269.0       17.3242        0.5630       99.1452       99.7082      82.384026       0.09795
  12     297.5       17.2752        0.6210       98.5975       99.2184      81.943266       0.13072
  11     328.5       17.2232        0.6830       97.8659       98.5488      81.325594       0.16794
  10     361.9       17.1690        0.7487       96.8848       97.6335      80.464519       0.21786
   9     398.1       17.1131        0.8180       95.6330       96.4510      79.337908       0.26248
   8     437.6       17.0570        0.8904       94.0655       94.9558      77.898873       0.30767
   7     480.5       17.0034        0.9648       92.0807       93.0455      76.042093       0.36466
   6     533.0       16.9486        1.0523       89.4449       90.4972      73.548514       0.40114
   5     589.8       16.9057        1.1422       86.5544       87.6966      70.790911       0.40932
   4     651.6       16.8830        1.2340       83.4174       84.6514      67.768391       0.41334
   3     718.7       16.8856        1.3284       80.2037       81.5321      64.646569       0.39233
   2     792.3       16.9178        1.4260       77.0811       78.5071      61.589380       0.35063
   1     891.5       17.0231        1.5515       73.2645       74.8160      57.792892       0.32306
   0    1013.0       17.3098        1.6899       68.9425       70.6324      53.322554       0.31040



 Wavenumbers: 12850. - 16000. cm-1, ATM      1
 LEVEL PRESSURE   UPWARD FLUX   DIFDOWN FLUX  DIRDOWN FLUX  DOWNWARD FLUX   NET FLUX    HEATING RATE
          mb          W/m2          W/m2          W/m2        W/m2          W/m2       degree/day
  51    .06700       27.2421        0.0000       63.1686       63.1686      35.926430       0.00000
  50    .07753       27.2421        0.0001       63.1677       63.1678      35.925653       0.62336
  49    .09103       27.2421        0.0001       63.1666       63.1668      35.924684       0.60557
  48    0.1069       27.2420        0.0002       63.1654       63.1656      35.923581       0.58695
  47    0.1255       27.2420        0.0003       63.1640       63.1643      35.922328       0.56822
  46    0.1487       27.2419        0.0004       63.1623       63.1627      35.920766       0.56938
  45    0.1794       27.2419        0.0006       63.1600       63.1605      35.918673       0.57460
  44    0.2165       27.2418        0.0007       63.1573       63.1580      35.916254       0.55009
  43    0.2613       27.2417        0.0010       63.1542       63.1552      35.913468       0.52517
  42    0.3336       27.2416        0.0013       63.1493       63.1506      35.909036       0.51680
  41    0.4307       27.2414        0.0018       63.1431       63.1449      35.903502       0.48111
  40    0.5894       27.2413        0.0026       63.1338       63.1364      35.895145       0.44445
  39     1.339       27.2415        0.0063       63.0956       63.1019      35.860418       0.39096
  38     1.782       27.2423        0.0085       63.0740       63.0825      35.840213       0.38467
  37     2.292       27.2439        0.0110       63.0477       63.0587      35.814726       0.42213
  36     2.964       27.2471        0.0143       63.0095       63.0238      35.776697       0.47737
  35     3.853       27.2528        0.0187       62.9533       62.9719      35.719108       0.54654
  34     5.035       27.2618        0.0244       62.8725       62.8969      35.635156       0.59972
  33     6.613       27.2745        0.0322       62.7621       62.7942      35.519696       0.61725
  32     8.786       27.2909        0.0425       62.6182       62.6608      35.369865       0.58189
  31     11.80       27.3115        0.0573       62.4284       62.4857      35.174174       0.54787
  30     15.07       27.3303        0.0732       62.2426       62.3158      34.985459       0.48723
  29     18.79       27.3486        0.0911       62.0493       62.1404      34.791727       0.43925
  28     23.16       27.3666        0.1119       61.8424       61.9543      34.587760       0.39441
  27     28.12       27.3831        0.1356       61.6278       61.7635      34.380361       0.35256
  26     33.73       27.3959        0.1622       61.4177       61.5798      34.183973       0.29527
  25     40.54       27.4047        0.1941       61.1983       61.3924      33.987775       0.24340
  24     48.69       27.4089        0.2326       60.9680       61.2006      33.791751       0.20285
  23     57.69       27.4072        0.2748       60.7478       61.0226      33.615388       0.16531
  22     68.43       27.3986        0.3250       60.5202       60.8452      33.446637       0.13266
  21     81.20       27.3790        0.3848       60.2938       60.6786      33.299566       0.09718
  20     96.49       27.3473        0.4559       60.0643       60.5202      33.172955       0.06988
  19     114.6       27.3102        0.5408       59.8078       60.3486      33.038414       0.06282
  18     136.5       27.2624        0.6412       59.5157       60.1570      32.894589       0.05530
  17     162.9       27.2018        0.7605       59.1770       59.9375      32.735661       0.05080
  16     196.4       27.1157        0.9146       58.7604       59.6750      32.559294       0.04439
  15     218.7       27.0564        1.0155       58.4948       59.5103      32.453854       0.04003
  14     243.0       26.9908        1.1249       58.2089       59.3338      32.343012       0.03844
  13     269.0       26.9186        1.2432       57.9006       59.1438      32.225140       0.03824
  12     297.5       26.8399        1.3707       57.5668       58.9375      32.097577       0.03783
  11     328.5       26.7550        1.5080       57.2005       58.7085      31.953454       0.03919
  10     361.9       26.6644        1.6553       56.7963       58.4516      31.787191       0.04207
   9     398.1       26.5684        1.8131       56.3475       58.1607      31.592237       0.04542
   8     437.6       26.4681        1.9817       55.8422       57.8240      31.355844       0.05054
   7     480.5       26.3657        2.1611       55.2625       57.4237      31.057951       0.05851
   6     533.0       26.2483        2.3798       54.4972       56.8769      30.628626       0.06906
   5     589.8       26.1326        2.6120       53.6307       56.2427      30.110090       0.07697
   4     651.6       26.0232        2.8570       52.6606       55.5176      29.494433       0.08419
   3     718.7       25.9220        3.1150       51.6100       54.7250      28.803027       0.08689
   2     792.3       25.8321        3.3857       50.5019       53.8876      28.055517       0.08573
   1     891.5       25.7477        3.7417       49.0197       52.7614      27.013703       0.08865
   0    1013.0       25.7213        4.1533       47.2289       51.3822      25.660822       0.09394



 Wavenumbers: 16000. - 22650. cm-1, ATM      1
 LEVEL PRESSURE   UPWARD FLUX   DIFDOWN FLUX  DIRDOWN FLUX  DOWNWARD FLUX   NET FLUX    HEATING RATE
          mb          W/m2          W/m2          W/m2        W/m2          W/m2       degree/day
  51    .06700       65.6065        0.0000      100.7153      100.7153      35.108757       0.00000
  50    .07753       65.6064        0.0003      100.7147      100.7150      35.108645       0.09015
  49    .09103       65.6062        0.0007      100.7140      100.7147      35.108481       0.10225
  48    0.1069       65.6060        0.0012      100.7131      100.7143      35.108262       0.11660
  47    0.1255       65.6058        0.0017      100.7121      100.7138      35.107969       0.13291
  46    0.1487       65.6056        0.0024      100.7108      100.7131      35.107537       0.15749
  45    0.1794       65.6053        0.0033      100.7089      100.7121      35.106862       0.18543
  44    0.2165       65.6049        0.0043      100.7066      100.7109      35.105946       0.20840
  43    0.2613       65.6046        0.0056      100.7037      100.7093      35.104703       0.23429
  42    0.3336       65.6040        0.0077      100.6987      100.7064      35.102339       0.27552
  41    0.4307       65.6035        0.0105      100.6918      100.7022      35.098777       0.30971
  40    0.5894       65.6028        0.0150      100.6797      100.6947      35.091984       0.36124
  39     1.339       65.6042        0.0365      100.6095      100.6460      35.041808       0.56489
  38     1.782       65.6084        0.0491      100.5585      100.6075      34.999079       0.81350
  37     2.292       65.6166        0.0636      100.4903      100.5539      34.937249       1.02406
  36     2.964       65.6324        0.0828      100.3868      100.4695      34.837137       1.25671
  35     3.853       65.6602        0.1080      100.2306      100.3386      34.678412       1.50633
  34     5.035       65.7040        0.1415      100.0045      100.1459      34.441893       1.68959
  33     6.613       65.7662        0.1861       99.6939       99.8799      34.113765       1.75417
  32     8.786       65.8463        0.2460       99.2881       99.5341      33.687775       1.65439
  31     11.80       65.9475        0.3315       98.7496       99.0811      33.133644       1.55139
  30     15.07       66.0404        0.4230       98.2198       98.6428      32.602391       1.37159
  29     18.79       66.1313        0.5259       97.6651       98.1910      32.059762       1.23031
  28     23.16       66.2211        0.6456       97.0671       97.7128      31.491647       1.09855
  27     28.12       66.3049        0.7820       96.4406       97.2226      30.917660       0.97574
  26     33.73       66.3714        0.9341       95.8179       96.7520      30.380558       0.80755
  25     40.54       66.4202        1.1171       95.1548       96.2720      29.851730       0.65607
  24     48.69       66.4486        1.3369       94.4420       95.7789      29.330259       0.53964
  23     57.69       66.4504        1.5772       93.7416       95.3188      28.868451       0.43287
  22     68.43       66.4209        1.8622       92.9954       94.8575      28.436630       0.33947
  21     81.20       66.3426        2.2002       92.2231       94.4234      28.080809       0.23512
  20     96.49       66.2094        2.6011       91.4110       94.0121      27.802650       0.15352
  19     114.6       66.0318        3.0735       90.5070       93.5805      27.548648       0.11860
  18     136.5       65.8089        3.6285       89.4803       93.1087      27.299835       0.09567
  17     162.9       65.5328        4.2823       88.3022       92.5845      27.051778       0.07929
  16     196.4       65.1507        5.1199       86.8606       91.9805      26.829871       0.05586
  15     218.7       64.8917        5.6636       85.9492       91.6128      26.721072       0.04131
  14     243.0       64.6075        6.2489       84.9789       91.2279      26.620389       0.03492
  13     269.0       64.2967        6.8766       83.9493       90.8259      26.529232       0.02957
  12     297.5       63.9587        7.5475       82.8589       90.4064      26.447701       0.02418
  11     328.5       63.5942        8.2636       81.6982       89.9619      26.367675       0.02176
  10     361.9       63.2030        9.0247       80.4669       89.4917      26.288650       0.01999
   9     398.1       62.7841        9.8325       79.1611       88.9936      26.209474       0.01845
   8     437.6       62.3377       10.6869       77.7777       88.4647      26.127009       0.01763
   7     480.5       61.8636       11.5882       76.3136       87.9018      26.038275       0.01743
   6     533.0       61.2871       12.6771       74.5359       87.2130      25.925908       0.01808
   5     589.8       60.6755       13.8259       72.6469       86.4728      25.797311       0.01909
   4     651.6       60.0304       15.0321       70.6456       85.6777      25.647260       0.02052
   3     718.7       59.3520       16.2933       68.5367       84.8300      25.477933       0.02128
   2     792.3       58.6427       17.6037       66.3287       83.9324      25.289713       0.02159
   1     891.5       57.7157       19.3077       63.4246       82.7323      25.016612       0.02324
   0    1013.0       56.6514       21.2560       60.0483       81.3043      24.652952       0.02525



 Wavenumbers: 22650. - 29000. cm-1, ATM      1
 LEVEL PRESSURE   UPWARD FLUX   DIFDOWN FLUX  DIRDOWN FLUX  DOWNWARD FLUX   NET FLUX    HEATING RATE
          mb          W/m2          W/m2          W/m2        W/m2          W/m2       degree/day
  51    .06700       29.2379        0.0000       38.0063       38.0063       8.768393       0.00000
  50    .07753       29.2377        0.0004       38.0057       38.0061       8.768393       0.00000
  49    .09103       29.2375        0.0008       38.0050       38.0059       8.768393      -0.00000
  48    0.1069       29.2372        0.0014       38.0042       38.0056       8.768393       0.00000
  47    0.1255       29.2369        0.0020       38.0033       38.0053       8.768393      -0.00000
  46    0.1487       29.2365        0.0028       38.0022       38.0049       8.768393       0.00000
  45    0.1794       29.2360        0.0038       38.0006       38.0044       8.768393       0.00000
  44    0.2165       29.2354        0.0051       37.9987       38.0038       8.768393       0.00000
  43    0.2613       29.2347        0.0065       37.9965       38.0031       8.768393       0.00000
  42    0.3336       29.2335        0.0090       37.9928       38.0018       8.768393      -0.00000
  41    0.4307       29.2318        0.0123       37.9880       38.0002       8.768393       0.00000
  40    0.5894       29.2292        0.0176       37.9800       37.9976       8.768393      -0.00000
  39     1.339       29.2168        0.0427       37.9425       37.9852       8.768393      -0.00000
  38     1.782       29.2095        0.0575       37.9204       37.9779       8.768393       0.00000
  37     2.292       29.2011        0.0745       37.8949       37.9695       8.768393       0.00000
  36     2.964       29.1900        0.0970       37.8614       37.9584       8.768393       0.00000
  35     3.853       29.1754        0.1265       37.8172       37.9438       8.768393      -0.00000
  34     5.035       29.1560        0.1658       37.7586       37.9244       8.768393       0.00000
  33     6.613       29.1301        0.2181       37.6803       37.8984       8.768393       0.00000
  32     8.786       29.0952        0.2885       37.5750       37.8636       8.768393      -0.00000
  31     11.80       29.0454        0.3890       37.4249       37.8138       8.768393       0.00000
  30     15.07       28.9921        0.4964       37.2642       37.7605       8.768393      -0.00000
  29     18.79       28.9321        0.6172       37.0833       37.7005       8.768393      -0.00000
  28     23.16       28.8623        0.7577       36.8730       37.6307       8.768393       0.00000
  27     28.12       28.7828        0.9174       36.6338       37.5512       8.768393      -0.00000
  26     33.73       28.6942        1.0949       36.3677       37.4626       8.768393      -0.00000
  25     40.54       28.5878        1.3077       36.0486       37.3562       8.768393       0.00000
  24     48.69       28.4605        1.5617       35.6672       37.2289       8.768393      -0.00000
  23     57.69       28.3219        1.8376       35.2527       37.0902       8.768393       0.00000
  22     68.43       28.1583        2.1618       34.7649       36.9267       8.768393      -0.00000
  21     81.20       27.9658        2.5420       34.1922       36.7342       8.768393       0.00000
  20     96.49       27.7396        2.9863       33.5217       36.5080       8.768393      -0.00000
  19     114.6       27.4757        3.5018       32.7424       36.2441       8.768393       0.00000
  18     136.5       27.1692        4.0960       31.8416       35.9376       8.768393       0.00000
  17     162.9       26.8129        4.7805       30.8008       35.5813       8.768393       0.00000
  16     196.4       26.3645        5.6323       29.5007       35.1329       8.768393      -0.00000
  15     218.7       26.0783        6.1699       28.6767       34.8466       8.768393       0.00000
  14     243.0       25.7741        6.7357       27.8068       34.5425       8.768393      -0.00000
  13     269.0       25.4525        7.3276       26.8933       34.2209       8.768393      -0.00000
  12     297.5       25.1140        7.9431       25.9393       33.8824       8.768393       0.00000
  11     328.5       24.7582        8.5815       24.9451       33.5266       8.768393      -0.00000
  10     361.9       24.3863        9.2387       23.9160       33.1547       8.768393       0.00000
   9     398.1       23.9984        9.9127       22.8541       32.7668       8.768393       0.00000
   8     437.6       23.5956       10.5995       21.7645       32.3640       8.768393       0.00000
   7     480.5       23.1787       11.2950       20.6521       31.9471       8.768393       0.00000
   6     533.0       22.6853       12.0968       19.3569       31.4537       8.768393       0.00000
   5     589.8       22.1763       12.8979       18.0467       30.9447       8.768393      -0.00000
   4     651.6       21.6537       13.6905       16.7316       30.4221       8.768393       0.00000
   3     718.7       21.1195       14.4665       15.4214       29.8879       8.768393       0.00000
   2     792.3       20.5764       15.2172       14.1276       29.3448       8.768393       0.00000
   1     891.5       19.8867       16.1091       12.5459       28.6550       8.768393       0.00000
   0    1013.0       19.1168       17.0135       10.8717       27.8852       8.768393      -0.00000



 Wavenumbers: 29000. - 38000. cm-1, ATM      1
 LEVEL PRESSURE   UPWARD FLUX   DIFDOWN FLUX  DIRDOWN FLUX  DOWNWARD FLUX   NET FLUX    HEATING RATE
          mb          W/m2          W/m2          W/m2        W/m2          W/m2       degree/day
  51    .06700        4.3914        0.0000       13.4026       13.4026       9.011229       0.00000
  50    .07753        4.3911        0.0003       13.3983       13.3986       9.007431       3.04392
  49    .09103        4.3909        0.0007       13.3921       13.3928       9.001913       3.44914
  48    0.1069        4.3906        0.0011       13.3840       13.3851       8.994537       3.92615
  47    0.1255        4.3902        0.0016       13.3733       13.3749       8.984694       4.46246
  46    0.1487        4.3898        0.0022       13.3579       13.3600       8.970254       5.26352
  45    0.1794        4.3892        0.0030       13.3340       13.3370       8.947858       6.14824
  44    0.2165        4.3885        0.0040       13.3024       13.3063       8.917844       6.82759
  43    0.2613        4.3877        0.0051       13.2604       13.2655       8.877797       7.54876
  42    0.3336        4.3865        0.0070       13.1833       13.1903       8.803804       8.62680
  41    0.4307        4.3848        0.0094       13.0729       13.0823       8.697454       9.24693
  40    0.5894        4.3824        0.0132       12.8796       12.8928       8.510453       9.94448
  39     1.339        4.3734        0.0293       11.9165       11.9458       7.572435      10.56038
  38     1.782        4.3697        0.0375       11.4399       11.4774       7.107724       8.84734
  37     2.292        4.3666        0.0462       10.9796       11.0258       6.659175       7.42915
  36     2.964        4.3644        0.0569       10.4786       10.5355       6.171150       6.12618
  35     3.853        4.3638        0.0701        9.9429       10.0130       5.649237       4.95305
  34     5.035        4.3654        0.0866        9.4007        9.4873       5.121892       3.76714
  33     6.613        4.3693        0.1075        8.8752        8.9827       4.613406       2.71836
  32     8.786        4.3748        0.1344        8.3786        8.5130       4.138143       1.84575
  31     11.80        4.3812        0.1713        7.8897        8.0609       3.679715       1.28345
  30     15.07        4.3861        0.2093        7.5108        7.7201       3.333933       0.89274
  29     18.79        4.3901        0.2506        7.1776        7.4283       3.038103       0.67074
  28     23.16        4.3930        0.2972        6.8664        7.1636       2.770610       0.51725
  27     28.12        4.3940        0.3486        6.5780        6.9266       2.532582       0.40463
  26     33.73        4.3910        0.4045        6.3195        6.7240       2.332938       0.30017
  25     40.54        4.3825        0.4704        6.0663        6.5367       2.154153       0.22180
  24     48.69        4.3678        0.5475        5.8128        6.3604       1.992549       0.16723
  23     57.69        4.3475        0.6297        5.5777        6.2074       1.859980       0.12426
  22     68.43        4.3187        0.7248        5.3379        6.0626       1.743972       0.09120
  21     81.20        4.2774        0.8348        5.0965        5.9313       1.653890       0.05952
  20     96.49        4.2224        0.9618        4.8476        5.8094       1.586969       0.03694
  19     114.6        4.1563        1.1053        4.5799        5.6851       1.528862       0.02713
  18     136.5        4.0797        1.2651        4.2891        5.5542       1.474556       0.02088
  17     162.9        3.9920        1.4418        3.9732        5.4149       1.422961       0.01649
  16     196.4        3.8813        1.6523        3.6080        5.2603       1.379039       0.01106
  15     218.7        3.8114        1.7798        3.3898        5.1696       1.358209       0.00791
  14     243.0        3.7384        1.9092        3.1686        5.0778       1.339375       0.00653
  13     269.0        3.6626        2.0394        2.9461        4.9854       1.322820       0.00537
  12     297.5        3.5844        2.1690        2.7239        4.8930       1.308551       0.00423
  11     328.5        3.5044        2.2967        2.5029        4.7996       1.295205       0.00363
  10     361.9        3.4231        2.4213        2.2846        4.7059       1.282798       0.00314
   9     398.1        3.3408        2.5413        2.0708        4.6121       1.271322       0.00267
   8     437.6        3.2578        2.6557        1.8626        4.5183       1.260530       0.00231
   7     480.5        3.1746        2.7630        1.6621        4.4251       1.250535       0.00196
   6     533.0        3.0793        2.8756        1.4437        4.3193       1.239929       0.00171
   5     589.8        2.9847        2.9756        1.2390        4.2146       1.229952       0.00148
   4     651.6        2.8910        3.0614        1.0500        4.1114       1.220470       0.00130
   3     718.7        2.7984        3.1320        0.8778        4.0098       1.211451       0.00113
   2     792.3        2.7072        3.1863        0.7237        3.9101       1.202876       0.00098
   1     891.5        2.5946        3.2310        0.5563        3.7873       1.192636       0.00087
   0    1013.0        2.4720        3.2498        0.4039        3.6537       1.181768       0.00075



 Wavenumbers: 38000. - 50000. cm-1, ATM      1
 LEVEL PRESSURE   UPWARD FLUX   DIFDOWN FLUX  DIRDOWN FLUX  DOWNWARD FLUX   NET FLUX    HEATING RATE
          mb          W/m2          W/m2          W/m2        W/m2          W/m2       degree/day
  51    .06700        0.0051        0.0000        0.8267        0.8267       0.821528       0.00000
  50    .07753        0.0051        0.0001        0.8242        0.8243       0.819196       1.86936
  49    .09103        0.0050        0.0002        0.8207        0.8209       0.815872       2.07705
  48    0.1069        0.0049        0.0002        0.8162        0.8164       0.811514       2.31984
  47    0.1255        0.0048        0.0004        0.8103        0.8106       0.805801       2.59006
  46    0.1487        0.0047        0.0005        0.8018        0.8023       0.797567       3.00143
  45    0.1794        0.0045        0.0007        0.7889        0.7896       0.785013       3.44648
  44    0.2165        0.0044        0.0009        0.7720        0.7729       0.768507       3.75474
  43    0.2613        0.0042        0.0011        0.7500        0.7511       0.746955       4.06246
  42    0.3336        0.0039        0.0015        0.7106        0.7121       0.708267       4.51071
  41    0.4307        0.0035        0.0019        0.6566        0.6584       0.654972       4.63387
  40    0.5894        0.0029        0.0024        0.5680        0.5704       0.567464       4.65357
  39     1.339        0.0015        0.0030        0.2422        0.2452       0.243720       3.64476
  38     1.782        0.0010        0.0026        0.1493        0.1519       0.150889       1.76735
  37     2.292        0.0007        0.0022        0.0924        0.0946       0.093932       0.94336
  36     2.964        0.0005        0.0018        0.0539        0.0557       0.055224       0.48589
  35     3.853        0.0003        0.0013        0.0295        0.0308       0.030502       0.23462
  34     5.035        0.0002        0.0010        0.0154        0.0164       0.016181       0.10230
  33     6.613        0.0001        0.0007        0.0073        0.0080       0.007912       0.04420
  32     8.786        0.0000        0.0004        0.0030        0.0034       0.003390       0.01756
  31     11.80        0.0000        0.0003        0.0010        0.0012       0.001199       0.00613
  30     15.07        0.0000        0.0001        0.0003        0.0005       0.000463       0.00190
  29     18.79        0.0000        0.0001        0.0001        0.0002       0.000182       0.00064
  28     23.16        0.0000        0.0000        0.0000        0.0001       0.000071       0.00022
  27     28.12        0.0000        0.0000        0.0000        0.0000       0.000028       0.00007
  26     33.73        0.0000        0.0000        0.0000        0.0000       0.000011       0.00002
  25     40.54        0.0000        0.0000        0.0000        0.0000       0.000005       0.00001
  24     48.69        0.0000        0.0000        0.0000        0.0000       0.000002       0.00000
  23     57.69        0.0000        0.0000        0.0000        0.0000       0.000001       0.00000
  22     68.43        0.0000        0.0000        0.0000        0.0000       0.000000       0.00000
  21     81.20        0.0000        0.0000        0.0000        0.0000       0.000000       0.00000
  20     96.49        0.0000        0.0000        0.0000        0.0000       0.000000       0.00000
  19     114.6        0.0000        0.0000        0.0000        0.0000       0.000000       0.00000
  18     136.5        0.0000        0.0000        0.0000        0.0000       0.000000       0.00000
  17     162.9        0.0000        0.0000        0.0000        0.0000       0.000000       0.00000
  16     196.4        0.0000        0.0000        0.0000        0.0000       0.000000       0.00000
  15     218.7        0.0000        0.0000        0.0000        0.0000       0.000000       0.00000
  14     243.0        0.0000        0.0000        0.0000        0.0000       0.000000       0.00000
  13     269.0        0.0000        0.0000        0.0000        0.0000       0.000000       0.00000
  12     297.5        0.0000        0.0000        0.0000        0.0000       0.000000       0.00000
  11     328.5        0.0000        0.0000        0.0000        0.0000       0.000000       0.00000
  10     361.9        0.0000        0.0000        0.0000        0.0000       0.000000       0.00000
   9     398.1        0.0000        0.0000        0.0000        0.0000       0.000000       0.00000
   8     437.6        0.0000        0.0000        0.0000        0.0000       0.000000       0.00000
   7     480.5        0.0000        0.0000        0.0000        0.0000       0.000000       0.00000
   6     533.0        0.0000        0.0000        0.0000        0.0000       0.000000       0.00000
   5     589.8        0.0000        0.0000        0.0000        0.0000       0.000000       0.00000
   4     651.6        0.0000        0.0000        0.0000        0.0000       0.000000       0.00000
   3     718.7        0.0000        0.0000        0.0000        0.0000       0.000000       0.00000
   2     792.3        0.0000        0.0000        0.0000        0.0000       0.000000       0.00000
   1     891.5        0.0000        0.0000        0.0000        0.0000       0.000000       0.00000
   0    1013.0        0.0000        0.0000        0.0000        0.0000       0.000000       0.00000



 Wavenumbers:   820. -  2600. cm-1, ATM      1
 LEVEL PRESSURE   UPWARD FLUX   DIFDOWN FLUX  DIRDOWN FLUX  DOWNWARD FLUX   NET FLUX    HEATING RATE
          mb          W/m2          W/m2          W/m2        W/m2          W/m2       degree/day
  51    .06700        0.1616        0.0000        3.8670        3.8670       3.705378       0.00000
  50    .07753        0.1616        0.0000        3.8643        3.8643       3.702661       2.17769
  49    .09103        0.1616        0.0000        3.8635        3.8635       3.701851       0.50638
  48    0.1069        0.1616        0.0000        3.8626        3.8626       3.700960       0.47415
  47    0.1255        0.1616        0.0000        3.8616        3.8616       3.699999       0.43559
  46    0.1487        0.1616        0.0000        3.8605        3.8605       3.698890       0.40437
  45    0.1794        0.1616        0.0000        3.8592        3.8592       3.697555       0.36648
  44    0.2165        0.1616        0.0000        3.8578        3.8578       3.696177       0.31346
  43    0.2613        0.1616        0.0000        3.8564        3.8564       3.694717       0.27522
  42    0.3336        0.1616        0.0000        3.8541        3.8541       3.692486       0.26012
  41    0.4307        0.1616        0.0000        3.8512        3.8512       3.689603       0.25063
  40    0.5894        0.1616        0.0000        3.8465        3.8465       3.684877       0.25133
  39     1.339        0.1616        0.0000        3.8251        3.8251       3.663502       0.24064
  38     1.782        0.1616        0.0000        3.8133        3.8133       3.651689       0.22489
  37     2.292        0.1616        0.0000        3.8003        3.8003       3.638628       0.21633
  36     2.964        0.1616        0.0000        3.7841        3.7841       3.622499       0.20246
  35     3.853        0.1616        0.0000        3.7642        3.7642       3.602585       0.18899
  34     5.035        0.1616        0.0000        3.7395        3.7395       3.577894       0.17638
  33     6.613        0.1616        0.0000        3.7090        3.7090       3.547359       0.16324
  32     8.786        0.1616        0.0000        3.6726        3.6726       3.510966       0.14134
  31     11.80        0.1616        0.0000        3.6320        3.6320       3.470373       0.11365
  30     15.07        0.1616        0.0000        3.6016        3.6016       3.439989       0.07844
  29     18.79        0.1616        0.0000        3.5777        3.5777       3.416092       0.05418
  28     23.16        0.1616        0.0000        3.5564        3.5564       3.394740       0.04129
  27     28.12        0.1617        0.0000        3.5348        3.5348       3.373195       0.03663
  26     33.73        0.1617        0.0000        3.5118        3.5118       3.350163       0.03463
  25     40.54        0.1617        0.0000        3.4849        3.4849       3.323276       0.03336
  24     48.69        0.1617        0.0000        3.4537        3.4537       3.292026       0.03234
  23     57.69        0.1617        0.0000        3.4210        3.4210       3.259354       0.03062
  22     68.43        0.1617        0.0000        3.3844        3.3844       3.222770       0.02876
  21     81.20        0.1617        0.0000        3.3441        3.3441       3.182472       0.02663
  20     96.49        0.1617        0.0000        3.2998        3.2998       3.138110       0.02449
  19     114.6        0.1617        0.0000        3.2506        3.2506       3.088963       0.02295
  18     136.5        0.1617        0.0000        3.1936        3.1936       3.031914       0.02194
  17     162.9        0.1617        0.0000        3.1181        3.1181       2.956411       0.02413
  16     196.4        0.1618        0.0000        3.0090        3.0090       2.847221       0.02748
  15     218.7        0.1618        0.0000        2.9420        2.9420       2.780215       0.02544
  14     243.0        0.1618        0.0000        2.8605        2.8605       2.698649       0.02829
  13     269.0        0.1619        0.0000        2.7419        2.7420       2.580060       0.03847
  12     297.5        0.1621        0.0000        2.5729        2.5729       2.410839       0.05019
  11     328.5        0.1623        0.0000        2.3602        2.3602       2.197923       0.05789
  10     361.9        0.1626        0.0000        2.1524        2.1524       1.989802       0.05266
   9     398.1        0.1632        0.0000        1.9974        1.9974       1.834278       0.03623
   8     437.6        0.1639        0.0000        1.8835        1.8835       1.719630       0.02451
   7     480.5        0.1650        0.0000        1.7734        1.7734       1.608470       0.02183
   6     533.0        0.1668        0.0000        1.6397        1.6398       1.472973       0.02180
   5     589.8        0.1694        0.0000        1.5068        1.5069       1.337436       0.02012
   4     651.6        0.1733        0.0000        1.3807        1.3807       1.207387       0.01778
   3     718.7        0.1785        0.0000        1.2680        1.2680       1.089499       0.01482
   2     792.3        0.1850        0.0000        1.1659        1.1660       0.981026       0.01244
   1     891.5        0.1957        0.0000        1.0372        1.0373       0.841542       0.01187
   0    1013.0        0.2153        0.0000        0.8716        0.8717       0.656373       0.01286

  Modules and versions used in this calculation:

       rrtmg_sw.1col.f90:  $Revision$                    rrtmg_sw_init.f90:  $Revision$        
     rrtmgsw_cldprop.f90:  $Revision$                  rrtmgsw_cldprmc.f90:  NOT USED          
     rrtmg_sw_reftra.f90:  $Revision$                  rrtmg_sw_spcvrt.f90:  NOT USED          
     rrtmg_sw_spcvmc.f90:  NOT USED                    rrtmgsw_setcoef.f90:  NOT USED          
     rrtmg_sw_taumol.f90:  $Revision$                  rrtmg_sw_vrtqdr.f90:  NOT USED          
                rrtatm.f:  NOT USED                             util_xxx.f:  NOT USED          
                 extra.f:  NOT USED                       rrtmg_sw_k_g.f90:  $Revision$        

