

 Wavenumbers:   820. - 50000. cm-1, ATM      1
 LEVEL PRESSURE   UPWARD FLUX   DIFDOWN FLUX  DIRDOWN FLUX  DOWNWARD FLUX   NET FLUX    HEATING RATE
          mb          W/m2          W/m2          W/m2        W/m2          W/m2       degree/day
  51    .06700      151.8471        0.0000      397.8738      397.8738     246.026714       0.00000
  50    .07753      151.8464        0.0011      397.8577      397.8589     246.012438      11.44296
  49    .09103      151.8456        0.0026      397.8418      397.8444     245.998770       8.54272
  48    0.1069      151.8447        0.0042      397.8230      397.8272     245.982449       8.68756
  47    0.1255      151.8437        0.0061      397.7997      397.8057     245.962043       9.25139
  46    0.1487      151.8424        0.0084      397.7676      397.7761     245.933638      10.35391
  45    0.1794      151.8408        0.0117      397.7205      397.7322     245.891427      11.58779
  44    0.2165      151.8388        0.0155      397.6602      397.6757     245.836889      12.40653
  43    0.2613      151.8366        0.0200      397.5829      397.6029     245.766240      13.31697
  42    0.3336      151.8332        0.0273      397.4449      397.4722     245.639082      14.82539
  41    0.4307      151.8288        0.0370      397.2524      397.2894     245.460635      15.51561
  40    0.5894      151.8222        0.0526      396.9253      396.9779     245.155718      16.21507
  39     1.339      151.8005        0.1220      395.4254      395.5473     243.746838      15.86143
  38     1.782      151.7941        0.1608      394.7288      394.8896     243.095540      12.39966
  37     2.292      151.7921        0.2050      394.0572      394.2622     242.470102      10.35889
  36     2.964      151.7975        0.2624      393.3007      393.5631     241.765523       8.84458
  35     3.853      151.8159        0.3373      392.4318      392.7691     240.953229       7.70882
  34     5.035      151.8513        0.4359      391.4441      391.8799     240.028634       6.60492
  33     6.613      151.9048        0.5664      390.3268      390.8931     238.988313       5.56156
  32     8.786      151.9729        0.7409      389.0624      389.8033     237.830405       4.49690
  31     11.80      152.0522        0.9884      387.5500      388.5384     236.486233       3.76326
  30     15.07      152.1162        1.2520      386.1556      387.4076     235.291379       3.08488
  29     18.79      152.1697        1.5473      384.7502      386.2974     234.127706       2.63840
  28     23.16      152.2106        1.8892      383.2686      385.1579     232.947263       2.28260
  27     28.12      152.2320        2.2770      381.7329      384.0098     231.777866       1.98790
  26     33.73      152.2186        2.7075      380.1982      382.9057     230.687101       1.63999
  25     40.54      152.1592        3.2237      378.5384      381.7620     229.602853       1.34513
  24     48.69      152.0464        3.8401      376.7214      380.5616     228.515174       1.12558
  23     57.69      151.8831        4.5106      374.8959      379.4064     227.523327       0.92971
  22     68.43      151.6466        5.3005      372.8999      378.2004     226.553838       0.76215
  21     81.20      151.3066        6.2310      370.7496      376.9806     225.674032       0.58136
  20     96.49      150.8495        7.3250      368.4056      375.7305     224.881066       0.43766
  19     114.6      150.2908        8.6015      365.7513      374.3528     224.061994       0.38245
  18     136.5      149.6200       10.0826      362.7231      372.8057     223.185685       0.33696
  17     162.9      148.8192       11.8022      359.1748      370.9770     222.157841       0.32854
  16     196.4      147.7652       13.9671      354.5718      368.5390     220.773802       0.34838
  15     218.7      147.0732       15.3498      351.4437      366.7935     219.720366       0.39995
  14     243.0      146.3272       16.8188      347.7111      364.5299     218.202725       0.52637
  13     269.0      145.5270       18.3718      342.9441      361.3160     215.788946       0.78302
  12     297.5      144.6732       20.0064      337.4137      357.4201     212.746977       0.90221
  11     328.5      143.7678       21.7236      331.1302      352.8539     209.086115       0.99538
  10     361.9      142.8137       23.5176      324.1219      347.6395     204.825874       1.07788
   9     398.1      141.8116       25.3872      316.6066      341.9938     200.182204       1.08187
   8     437.6      140.7662       27.3273      308.5895      335.9167     195.150562       1.07580
   7     480.5      139.6848       29.3314      299.9349      329.2663     189.581464       1.09375
   6     533.0      138.4112       31.6982      289.7021      321.4003     182.989138       1.06050
   5     589.8      137.1114       34.1325      279.3388      313.4713     176.359839       0.98401
   4     651.6      135.8057       36.6213      268.7786      305.3999     169.594208       0.92522
   3     718.7      134.5052       39.1547      258.2837      297.4383     162.933138       0.83711
   2     792.3      133.2241       41.7178      248.0774      289.7952     156.571022       0.72966
   1     891.5      131.6990       44.9479      235.5216      280.4695     148.770533       0.66378
   0    1013.0      130.2833       48.5010      221.4731      269.9741     139.690806       0.63045



 Wavenumbers:  2600. -  3250. cm-1, ATM      1
 LEVEL PRESSURE   UPWARD FLUX   DIFDOWN FLUX  DIRDOWN FLUX  DOWNWARD FLUX   NET FLUX    HEATING RATE
          mb          W/m2          W/m2          W/m2        W/m2          W/m2       degree/day
  51    .06700        0.2237        0.0000        3.5066        3.5066       3.282877       0.00000
  50    .07753        0.2237        0.0000        3.5066        3.5066       3.282869       0.00640
  49    .09103        0.2237        0.0000        3.5066        3.5066       3.282859       0.00627
  48    0.1069        0.2237        0.0000        3.5066        3.5066       3.282847       0.00613
  47    0.1255        0.2237        0.0000        3.5066        3.5066       3.282834       0.00599
  46    0.1487        0.2237        0.0000        3.5066        3.5066       3.282818       0.00607
  45    0.1794        0.2237        0.0000        3.5065        3.5065       3.282795       0.00624
  44    0.2165        0.2237        0.0000        3.5065        3.5065       3.282768       0.00611
  43    0.2613        0.2237        0.0000        3.5065        3.5065       3.282736       0.00598
  42    0.3336        0.2237        0.0000        3.5064        3.5064       3.282683       0.00615
  41    0.4307        0.2237        0.0000        3.5064        3.5064       3.282612       0.00618
  40    0.5894        0.2237        0.0000        3.5062        3.5062       3.282493       0.00633
  39     1.339        0.2237        0.0000        3.5055        3.5055       3.281795       0.00787
  38     1.782        0.2237        0.0000        3.5050        3.5050       3.281264       0.01011
  37     2.292        0.2237        0.0000        3.5043        3.5043       3.280571       0.01147
  36     2.964        0.2237        0.0000        3.5033        3.5033       3.279580       0.01245
  35     3.853        0.2237        0.0000        3.5019        3.5019       3.278203       0.01307
  34     5.035        0.2237        0.0000        3.5001        3.5001       3.276342       0.01329
  33     6.613        0.2237        0.0000        3.4977        3.4977       3.273932       0.01288
  32     8.786        0.2237        0.0000        3.4947        3.4947       3.270961       0.01154
  31     11.80        0.2237        0.0000        3.4911        3.4911       3.267326       0.01018
  30     15.07        0.2237        0.0000        3.4878        3.4878       3.264105       0.00832
  29     18.79        0.2237        0.0000        3.4848        3.4848       3.261042       0.00695
  28     23.16        0.2237        0.0000        3.4816        3.4816       3.257822       0.00623
  27     28.12        0.2237        0.0000        3.4779        3.4779       3.254204       0.00615
  26     33.73        0.2237        0.0000        3.4735        3.4735       3.249738       0.00671
  25     40.54        0.2237        0.0000        3.4671        3.4671       3.243413       0.00785
  24     48.69        0.2237        0.0000        3.4582        3.4583       3.234518       0.00920
  23     57.69        0.2237        0.0000        3.4472        3.4472       3.223471       0.01036
  22     68.43        0.2237        0.0000        3.4329        3.4329       3.209212       0.01121
  21     81.20        0.2237        0.0000        3.4152        3.4152       3.191485       0.01171
  20     96.49        0.2237        0.0000        3.3940        3.3941       3.170343       0.01167
  19     114.6        0.2237        0.0000        3.3692        3.3692       3.145456       0.01162
  18     136.5        0.2238        0.0001        3.3419        3.3420       3.118242       0.01046
  17     162.9        0.2238        0.0001        3.3129        3.3129       3.089172       0.00929
  16     196.4        0.2238        0.0001        3.2793        3.2794       3.055606       0.00845
  15     218.7        0.2238        0.0001        3.2578        3.2578       3.033995       0.00820
  14     243.0        0.2239        0.0001        3.2320        3.2320       3.008132       0.00897
  13     269.0        0.2240        0.0001        3.1968        3.1969       2.972897       0.01143
  12     297.5        0.2242        0.0001        3.1489        3.1490       2.924835       0.01425
  11     328.5        0.2245        0.0001        3.0821        3.0822       2.857683       0.01826
  10     361.9        0.2249        0.0001        2.9902        2.9904       2.765463       0.02333
   9     398.1        0.2255        0.0001        2.8715        2.8716       2.646147       0.02780
   8     437.6        0.2263        0.0001        2.7276        2.7278       2.501501       0.03093
   7     480.5        0.2275        0.0001        2.5595        2.5597       2.332175       0.03326
   6     533.0        0.2295        0.0001        2.3617        2.3619       2.132414       0.03214
   5     589.8        0.2323        0.0002        2.1649        2.1651       1.932744       0.02964
   4     651.6        0.2365        0.0002        1.9608        1.9609       1.724465       0.02848
   3     718.7        0.2421        0.0002        1.7593        1.7595       1.517416       0.02602
   2     792.3        0.2494        0.0002        1.5761        1.5762       1.326822       0.02186
   1     891.5        0.2620        0.0002        1.3714        1.3716       1.109607       0.01848
   0    1013.0        0.2847        0.0002        1.1584        1.1586       0.873817       0.01637



 Wavenumbers:  3250. -  4000. cm-1, ATM      1
 LEVEL PRESSURE   UPWARD FLUX   DIFDOWN FLUX  DIRDOWN FLUX  DOWNWARD FLUX   NET FLUX    HEATING RATE
          mb          W/m2          W/m2          W/m2        W/m2          W/m2       degree/day
  51    .06700        0.0004        0.0000        5.9117        5.9117       5.911216       0.00000
  50    .07753        0.0004        0.0000        5.9075        5.9075       5.907026       3.35808
  49    .09103        0.0004        0.0000        5.9050        5.9050       5.904584       1.52677
  48    0.1069        0.0004        0.0000        5.9032        5.9032       5.902717       0.99346
  47    0.1255        0.0004        0.0000        5.9014        5.9014       5.900959       0.79708
  46    0.1487        0.0004        0.0000        5.8995        5.8995       5.899070       0.68848
  45    0.1794        0.0004        0.0000        5.8974        5.8974       5.896922       0.58983
  44    0.2165        0.0004        0.0000        5.8952        5.8952       5.894805       0.48155
  43    0.2613        0.0004        0.0000        5.8931        5.8931       5.892646       0.40696
  42    0.3336        0.0004        0.0000        5.8899        5.8899       5.889488       0.36820
  41    0.4307        0.0004        0.0000        5.8861        5.8861       5.885651       0.33365
  40    0.5894        0.0004        0.0000        5.8803        5.8803       5.879848       0.30857
  39     1.339        0.0004        0.0000        5.8597        5.8597       5.859251       0.23189
  38     1.782        0.0004        0.0000        5.8513        5.8513       5.850826       0.16039
  37     2.292        0.0004        0.0000        5.8431        5.8431       5.842655       0.13533
  36     2.964        0.0004        0.0000        5.8334        5.8334       5.833015       0.12100
  35     3.853        0.0004        0.0000        5.8213        5.8213       5.820840       0.11555
  34     5.035        0.0004        0.0000        5.8052        5.8052       5.804745       0.11498
  33     6.613        0.0004        0.0000        5.7833        5.7834       5.782923       0.11666
  32     8.786        0.0004        0.0000        5.7531        5.7531       5.752722       0.11729
  31     11.80        0.0004        0.0000        5.7090        5.7090       5.708553       0.12366
  30     15.07        0.0004        0.0000        5.6615        5.6615       5.661088       0.12254
  29     18.79        0.0004        0.0000        5.6093        5.6094       5.608953       0.11821
  28     23.16        0.0004        0.0000        5.5524        5.5524       5.552027       0.11008
  27     28.12        0.0004        0.0000        5.4935        5.4935       5.493148       0.10009
  26     33.73        0.0004        0.0000        5.4348        5.4349       5.434459       0.08824
  25     40.54        0.0004        0.0001        5.3707        5.3708       5.370398       0.07948
  24     48.69        0.0004        0.0001        5.2985        5.2985       5.298165       0.07475
  23     57.69        0.0004        0.0001        5.2215        5.2216       5.221226       0.07212
  22     68.43        0.0003        0.0001        5.1318        5.1319       5.131566       0.07048
  21     81.20        0.0003        0.0001        5.0284        5.0285       5.028136       0.06834
  20     96.49        0.0003        0.0001        4.9122        4.9123       4.912002       0.06410
  19     114.6        0.0003        0.0001        4.7780        4.7782       4.777891       0.06262
  18     136.5        0.0003        0.0002        4.6285        4.6287       4.628413       0.05748
  17     162.9        0.0002        0.0002        4.4406        4.4407       4.440500       0.06006
  16     196.4        0.0002        0.0002        4.1548        4.1550       4.154827       0.07191
  15     218.7        0.0002        0.0002        3.9564        3.9566       3.956446       0.07532
  14     243.0        0.0002        0.0002        3.7055        3.7058       3.705612       0.08700
  13     269.0        0.0001        0.0002        3.3399        3.3401       3.339973       0.11861
  12     297.5        0.0001        0.0002        2.8954        2.8956       2.895483       0.13183
  11     328.5        0.0001        0.0002        2.4388        2.4390       2.438942       0.12413
  10     361.9        0.0001        0.0002        2.0269        2.0271       2.027003       0.10422
   9     398.1        0.0001        0.0002        1.6753        1.6755       1.675415       0.08191
   8     437.6        0.0001        0.0002        1.3592        1.3594       1.359296       0.06759
   7     480.5        0.0001        0.0002        1.0616        1.0618       1.061713       0.05844
   6     533.0        0.0001        0.0001        0.7543        0.7544       0.754377       0.04944
   5     589.8        0.0001        0.0001        0.4951        0.4952       0.495181       0.03847
   4     651.6        0.0001        0.0001        0.2943        0.2943       0.294278       0.02747
   3     718.7        0.0001        0.0001        0.1528        0.1529       0.152770       0.01778
   2     792.3        0.0001        0.0000        0.0658        0.0658       0.065710       0.00998
   1     891.5        0.0003        0.0000        0.0157        0.0157       0.015360       0.00428
   0    1013.0        0.0013        0.0000        0.0013        0.0013       0.000051       0.00106



 Wavenumbers:  4000. -  4650. cm-1, ATM      1
 LEVEL PRESSURE   UPWARD FLUX   DIFDOWN FLUX  DIRDOWN FLUX  DOWNWARD FLUX   NET FLUX    HEATING RATE
          mb          W/m2          W/m2          W/m2        W/m2          W/m2       degree/day
  51    .06700        0.6293        0.0000        6.9421        6.9421       6.312720       0.00000
  50    .07753        0.6293        0.0000        6.9421        6.9421       6.312719       0.00079
  49    .09103        0.6293        0.0000        6.9421        6.9421       6.312717       0.00078
  48    0.1069        0.6293        0.0000        6.9421        6.9421       6.312716       0.00076
  47    0.1255        0.6293        0.0000        6.9421        6.9421       6.312714       0.00074
  46    0.1487        0.6293        0.0000        6.9421        6.9421       6.312712       0.00075
  45    0.1794        0.6293        0.0000        6.9421        6.9421       6.312709       0.00077
  44    0.2165        0.6293        0.0000        6.9421        6.9421       6.312706       0.00076
  43    0.2613        0.6293        0.0000        6.9420        6.9420       6.312702       0.00074
  42    0.3336        0.6293        0.0000        6.9420        6.9420       6.312696       0.00076
  41    0.4307        0.6293        0.0000        6.9420        6.9420       6.312687       0.00077
  40    0.5894        0.6293        0.0000        6.9420        6.9420       6.312672       0.00079
  39     1.339        0.6293        0.0000        6.9419        6.9419       6.312583       0.00100
  38     1.782        0.6293        0.0000        6.9418        6.9419       6.312514       0.00132
  37     2.292        0.6293        0.0000        6.9418        6.9418       6.312420       0.00155
  36     2.964        0.6293        0.0000        6.9416        6.9416       6.312281       0.00175
  35     3.853        0.6293        0.0000        6.9414        6.9414       6.312074       0.00196
  34     5.035        0.6293        0.0000        6.9411        6.9411       6.311770       0.00218
  33     6.613        0.6293        0.0000        6.9406        6.9406       6.311322       0.00239
  32     8.786        0.6293        0.0000        6.9399        6.9400       6.310662       0.00256
  31     11.80        0.6293        0.0000        6.9389        6.9389       6.309628       0.00290
  30     15.07        0.6293        0.0001        6.9377        6.9377       6.308419       0.00312
  29     18.79        0.6293        0.0001        6.9362        6.9362       6.306962       0.00330
  28     23.16        0.6293        0.0001        6.9343        6.9344       6.305160       0.00348
  27     28.12        0.6293        0.0001        6.9321        6.9322       6.302988       0.00369
  26     33.73        0.6292        0.0001        6.9294        6.9296       6.300324       0.00400
  25     40.54        0.6292        0.0001        6.9258        6.9260       6.296734       0.00445
  24     48.69        0.6292        0.0002        6.9210        6.9212       6.291982       0.00492
  23     57.69        0.6292        0.0002        6.9154        6.9156       6.286394       0.00524
  22     68.43        0.6291        0.0002        6.9083        6.9086       6.279450       0.00546
  21     81.20        0.6291        0.0003        6.8998        6.9001       6.270964       0.00561
  20     96.49        0.6291        0.0004        6.8894        6.8898       6.260720       0.00565
  19     114.6        0.6290        0.0004        6.8765        6.8770       6.247907       0.00598
  18     136.5        0.6290        0.0005        6.8610        6.8615       6.232463       0.00594
  17     162.9        0.6290        0.0006        6.8417        6.8423       6.213276       0.00613
  16     196.4        0.6290        0.0007        6.8147        6.8154       6.186399       0.00677
  15     218.7        0.6290        0.0008        6.7948        6.7956       6.166631       0.00751
  14     243.0        0.6291        0.0009        6.7698        6.7707       6.141591       0.00868
  13     269.0        0.6292        0.0010        6.7349        6.7358       6.106614       0.01135
  12     297.5        0.6294        0.0011        6.6869        6.6879       6.058470       0.01428
  11     328.5        0.6298        0.0012        6.6194        6.6205       5.990709       0.01842
  10     361.9        0.6303        0.0013        6.5295        6.5307       5.900391       0.02285
   9     398.1        0.6310        0.0014        6.4202        6.4216       5.790558       0.02559
   8     437.6        0.6320        0.0015        6.2962        6.2977       5.665699       0.02670
   7     480.5        0.6332        0.0016        6.1555        6.1571       5.523851       0.02786
   6     533.0        0.6353        0.0017        5.9675        5.9693       5.333937       0.03055
   5     589.8        0.6384        0.0019        5.7368        5.7386       5.100249       0.03469
   4     651.6        0.6428        0.0020        5.4662        5.4682       4.825414       0.03758
   3     718.7        0.6489        0.0021        5.1912        5.1933       4.544410       0.03531
   2     792.3        0.6567        0.0022        4.9395        4.9417       4.284961       0.02976
   1     891.5        0.6702        0.0024        4.6486        4.6510       3.980774       0.02588
   0    1013.0        0.6945        0.0025        4.3179        4.3204       3.625951       0.02464



 Wavenumbers:  4650. -  5150. cm-1, ATM      1
 LEVEL PRESSURE   UPWARD FLUX   DIFDOWN FLUX  DIRDOWN FLUX  DOWNWARD FLUX   NET FLUX    HEATING RATE
          mb          W/m2          W/m2          W/m2        W/m2          W/m2       degree/day
  51    .06700        0.4410        0.0000        6.5710        6.5710       6.130036       0.00000
  50    .07753        0.4410        0.0000        6.5708        6.5708       6.129801       0.18887
  49    .09103        0.4410        0.0000        6.5705        6.5705       6.129507       0.18362
  48    0.1069        0.4410        0.0000        6.5701        6.5701       6.129172       0.17806
  47    0.1255        0.4410        0.0000        6.5697        6.5697       6.128792       0.17238
  46    0.1487        0.4410        0.0000        6.5693        6.5693       6.128318       0.17268
  45    0.1794        0.4410        0.0000        6.5686        6.5686       6.127682       0.17473
  44    0.2165        0.4410        0.0000        6.5679        6.5679       6.126944       0.16788
  43    0.2613        0.4410        0.0000        6.5670        6.5670       6.126091       0.16078
  42    0.3336        0.4410        0.0000        6.5657        6.5657       6.124728       0.15894
  41    0.4307        0.4410        0.0000        6.5640        6.5640       6.123006       0.14971
  40    0.5894        0.4410        0.0000        6.5613        6.5613       6.120390       0.13913
  39     1.339        0.4410        0.0000        6.5516        6.5516       6.110612       0.11008
  38     1.782        0.4409        0.0000        6.5473        6.5473       6.106396       0.08026
  37     2.292        0.4409        0.0000        6.5434        6.5435       6.102509       0.06438
  36     2.964        0.4409        0.0000        6.5395        6.5395       6.098555       0.04964
  35     3.853        0.4409        0.0000        6.5355        6.5356       6.094612       0.03742
  34     5.035        0.4409        0.0000        6.5315        6.5315       6.090611       0.02859
  33     6.613        0.4409        0.0000        6.5271        6.5271       6.086217       0.02349
  32     8.786        0.4409        0.0000        6.5216        6.5216       6.080723       0.02134
  31     11.80        0.4409        0.0001        6.5135        6.5135       6.072645       0.02261
  30     15.07        0.4409        0.0001        6.5041        6.5042       6.063279       0.02418
  29     18.79        0.4409        0.0001        6.4925        6.4926       6.051766       0.02610
  28     23.16        0.4408        0.0001        6.4779        6.4780       6.037178       0.02821
  27     28.12        0.4408        0.0002        6.4599        6.4600       6.019208       0.03055
  26     33.73        0.4408        0.0002        6.4384        6.4386       5.997784       0.03221
  25     40.54        0.4408        0.0002        6.4112        6.4114       5.970670       0.03364
  24     48.69        0.4407        0.0003        6.3775        6.3778       5.937049       0.03479
  23     57.69        0.4407        0.0003        6.3404        6.3407       5.899977       0.03475
  22     68.43        0.4407        0.0004        6.2971        6.2975       5.856816       0.03393
  21     81.20        0.4407        0.0004        6.2483        6.2487       5.808042       0.03223
  20     96.49        0.4406        0.0005        6.1948        6.1953       5.754727       0.02943
  19     114.6        0.4406        0.0006        6.1381        6.1388       5.698169       0.02641
  18     136.5        0.4406        0.0007        6.0790        6.0797       5.639167       0.02269
  17     162.9        0.4405        0.0009        6.0160        6.0169       5.576355       0.02008
  16     196.4        0.4406        0.0010        5.9399        5.9409       5.500339       0.01913
  15     218.7        0.4406        0.0011        5.8896        5.8908       5.450180       0.01904
  14     243.0        0.4406        0.0012        5.8322        5.8334       5.392779       0.01991
  13     269.0        0.4408        0.0014        5.7624        5.7638       5.322983       0.02264
  12     297.5        0.4410        0.0015        5.6767        5.6782       5.237206       0.02544
  11     328.5        0.4414        0.0016        5.5726        5.5742       5.132842       0.02838
  10     361.9        0.4419        0.0018        5.4473        5.4491       5.007190       0.03179
   9     398.1        0.4426        0.0019        5.2995        5.3014       4.858745       0.03458
   8     437.6        0.4437        0.0020        5.1275        5.1295       4.685839       0.03697
   7     480.5        0.4451        0.0022        4.9290        4.9311       4.486046       0.03924
   6     533.0        0.4474        0.0023        4.6794        4.6817       4.234304       0.04050
   5     589.8        0.4506        0.0024        4.4188        4.4212       3.970610       0.03914
   4     651.6        0.4552        0.0025        4.1521        4.1546       3.699472       0.03708
   3     718.7        0.4613        0.0027        3.8929        3.8956       3.434332       0.03332
   2     792.3        0.4692        0.0028        3.6469        3.6496       3.180439       0.02912
   1     891.5        0.4828        0.0029        3.3535        3.3564       2.873609       0.02611
   0    1013.0        0.5061        0.0030        3.0383        3.0414       2.535312       0.02349



 Wavenumbers:  5150. -  6150. cm-1, ATM      1
 LEVEL PRESSURE   UPWARD FLUX   DIFDOWN FLUX  DIRDOWN FLUX  DOWNWARD FLUX   NET FLUX    HEATING RATE
          mb          W/m2          W/m2          W/m2        W/m2          W/m2       degree/day
  51    .06700        1.2368        0.0000       16.4735       16.4735      15.236726       0.00000
  50    .07753        1.2368        0.0000       16.4735       16.4735      15.236692       0.02761
  49    .09103        1.2368        0.0000       16.4734       16.4734      15.236647       0.02810
  48    0.1069        1.2368        0.0000       16.4734       16.4734      15.236593       0.02859
  47    0.1255        1.2368        0.0000       16.4733       16.4733      15.236529       0.02904
  46    0.1487        1.2368        0.0000       16.4732       16.4732      15.236445       0.03059
  45    0.1794        1.2368        0.0000       16.4731       16.4731      15.236326       0.03269
  44    0.2165        1.2368        0.0000       16.4730       16.4730      15.236180       0.03331
  43    0.2613        1.2368        0.0000       16.4728       16.4728      15.236001       0.03376
  42    0.3336        1.2368        0.0000       16.4725       16.4725      15.235695       0.03564
  41    0.4307        1.2368        0.0000       16.4720       16.4720      15.235276       0.03645
  40    0.5894        1.2368        0.0000       16.4713       16.4713      15.234575       0.03728
  39     1.339        1.2368        0.0000       16.4679       16.4679      15.231166       0.03837
  38     1.782        1.2367        0.0000       16.4659       16.4659      15.229167       0.03806
  37     2.292        1.2367        0.0001       16.4635       16.4636      15.226876       0.03795
  36     2.964        1.2367        0.0001       16.4605       16.4606      15.223907       0.03727
  35     3.853        1.2367        0.0001       16.4567       16.4567      15.220054       0.03656
  34     5.035        1.2367        0.0001       16.4516       16.4517      15.215058       0.03569
  33     6.613        1.2366        0.0002       16.4451       16.4452      15.208599       0.03453
  32     8.786        1.2366        0.0002       16.4367       16.4369      15.200288       0.03227
  31     11.80        1.2365        0.0003       16.4254       16.4257      15.189140       0.03121
  30     15.07        1.2365        0.0004       16.4141       16.4145      15.178056       0.02862
  29     18.79        1.2364        0.0005       16.4024       16.4029      15.166539       0.02611
  28     23.16        1.2363        0.0006       16.3900       16.3906      15.154282       0.02370
  27     28.12        1.2362        0.0007       16.3771       16.3778      15.141624       0.02152
  26     33.73        1.2361        0.0009       16.3641       16.3650      15.128905       0.01912
  25     40.54        1.2359        0.0010       16.3502       16.3512      15.115275       0.01691
  24     48.69        1.2358        0.0012       16.3354       16.3366      15.100815       0.01496
  23     57.69        1.2356        0.0015       16.3211       16.3225      15.086933       0.01301
  22     68.43        1.2354        0.0017       16.3062       16.3080      15.072567       0.01129
  21     81.20        1.2352        0.0021       16.2903       16.2924      15.057203       0.01015
  20     96.49        1.2349        0.0024       16.2726       16.2751      15.040164       0.00940
  19     114.6        1.2346        0.0029       16.2521       16.2550      15.020394       0.00923
  18     136.5        1.2342        0.0034       16.2245       16.2280      14.993786       0.01023
  17     162.9        1.2338        0.0041       16.1747       16.1788      14.945068       0.01557
  16     196.4        1.2332        0.0049       16.0518       16.0568      14.823554       0.03059
  15     218.7        1.2328        0.0054       15.8984       15.9038      14.670966       0.05793
  14     243.0        1.2325        0.0060       15.6153       15.6212      14.388733       0.09789
  13     269.0        1.2321        0.0064       15.1390       15.1454      13.913308       0.15423
  12     297.5        1.2318        0.0069       14.5779       14.5848      13.352993       0.16618
  11     328.5        1.2316        0.0073       13.8780       13.8854      12.653808       0.19011
  10     361.9        1.2314        0.0077       13.0814       13.0892      11.857758       0.20141
   9     398.1        1.2314        0.0080       12.2728       12.2809      11.049505       0.18830
   8     437.6        1.2316        0.0083       11.4776       11.4859      10.254330       0.17001
   7     480.5        1.2321        0.0086       10.7300       10.7385       9.506471       0.14688
   6     533.0        1.2332        0.0089       10.0326       10.0415       8.808284       0.11232
   5     589.8        1.2352        0.0093        9.5050        9.5143       8.279115       0.07855
   4     651.6        1.2385        0.0098        9.0814        9.0912       7.852656       0.05832
   3     718.7        1.2435        0.0104        8.7024        8.7128       7.469360       0.04817
   2     792.3        1.2503        0.0110        8.3379        8.3490       7.098656       0.04252
   1     891.5        1.2632        0.0119        7.9064        7.9182       6.655027       0.03775
   0    1013.0        1.2900        0.0128        7.4741        7.4869       6.196831       0.03181



 Wavenumbers:  6150. -  7700. cm-1, ATM      1
 LEVEL PRESSURE   UPWARD FLUX   DIFDOWN FLUX  DIRDOWN FLUX  DOWNWARD FLUX   NET FLUX    HEATING RATE
          mb          W/m2          W/m2          W/m2        W/m2          W/m2       degree/day
  51    .06700        1.8630        0.0000       30.4684       30.4684      28.605396       0.00000
  50    .07753        1.8630        0.0000       30.4683       30.4683      28.605344       0.04144
  49    .09103        1.8630        0.0000       30.4683       30.4683      28.605277       0.04174
  48    0.1069        1.8630        0.0000       30.4682       30.4682      28.605198       0.04202
  47    0.1255        1.8630        0.0000       30.4681       30.4681      28.605105       0.04227
  46    0.1487        1.8630        0.0000       30.4680       30.4680      28.604984       0.04411
  45    0.1794        1.8630        0.0000       30.4678       30.4678      28.604814       0.04669
  44    0.2165        1.8630        0.0000       30.4676       30.4676      28.604607       0.04715
  43    0.2613        1.8630        0.0000       30.4673       30.4673      28.604355       0.04744
  42    0.3336        1.8630        0.0000       30.4669       30.4669      28.603928       0.04974
  41    0.4307        1.8630        0.0000       30.4663       30.4663      28.603347       0.05052
  40    0.5894        1.8629        0.0001       30.4653       30.4653      28.602380       0.05146
  39     1.339        1.8629        0.0001       30.4604       30.4606      28.597696       0.05273
  38     1.782        1.8628        0.0002       30.4576       30.4578      28.594946       0.05235
  37     2.292        1.8628        0.0002       30.4543       30.4545      28.591788       0.05231
  36     2.964        1.8627        0.0003       30.4501       30.4504      28.587681       0.05156
  35     3.853        1.8626        0.0004       30.4445       30.4449      28.582323       0.05084
  34     5.035        1.8625        0.0005       30.4373       30.4378      28.575324       0.05000
  33     6.613        1.8623        0.0007       30.4278       30.4285      28.566176       0.04890
  32     8.786        1.8621        0.0009       30.4154       30.4163      28.554224       0.04642
  31     11.80        1.8618        0.0013       30.3984       30.3996      28.537838       0.04587
  30     15.07        1.8615        0.0016       30.3810       30.3826      28.521125       0.04315
  29     18.79        1.8611        0.0020       30.3623       30.3643      28.503224       0.04059
  28     23.16        1.8606        0.0025       30.3417       30.3442      28.483541       0.03806
  27     28.12        1.8601        0.0030       30.3196       30.3226      28.462442       0.03587
  26     33.73        1.8596        0.0036       30.2965       30.3001      28.440523       0.03295
  25     40.54        1.8589        0.0043       30.2708       30.2751      28.416187       0.03019
  24     48.69        1.8581        0.0052       30.2423       30.2475      28.389411       0.02771
  23     57.69        1.8572        0.0062       30.2139       30.2200      28.362846       0.02490
  22     68.43        1.8561        0.0073       30.1834       30.1907      28.334572       0.02223
  21     81.20        1.8548        0.0087       30.1500       30.1587      28.303844       0.02030
  20     96.49        1.8533        0.0103       30.1126       30.1229      28.269628       0.01888
  19     114.6        1.8515        0.0122       30.0695       30.0817      28.230246       0.01839
  18     136.5        1.8493        0.0145       30.0139       30.0284      28.179096       0.01967
  17     162.9        1.8467        0.0172       29.9225       29.9397      28.092927       0.02754
  16     196.4        1.8434        0.0206       29.7333       29.7540      27.910559       0.04590
  15     218.7        1.8413        0.0229       29.5259       29.5487      27.707450       0.07711
  14     243.0        1.8390        0.0252       29.1375       29.1626      27.323659       0.13311
  13     269.0        1.8366        0.0274       28.3800       28.4074      26.570757       0.24424
  12     297.5        1.8343        0.0294       27.3895       27.4190      25.584726       0.29245
  11     328.5        1.8319        0.0314       26.2257       26.2571      24.425138       0.31529
  10     361.9        1.8298        0.0331       24.8453       24.8785      23.048657       0.34826
   9     398.1        1.8280        0.0346       23.3471       23.3817      21.553718       0.34829
   8     437.6        1.8266        0.0359       21.7966       21.8325      20.005855       0.33094
   7     480.5        1.8262        0.0368       20.1977       20.2345      18.408289       0.31376
   6     533.0        1.8274        0.0377       18.4969       18.5346      16.707247       0.27364
   5     589.8        1.8311        0.0386       16.9754       17.0140      15.182877       0.22627
   4     651.6        1.8387        0.0395       15.6022       15.6416      13.802895       0.18872
   3     718.7        1.8512        0.0405       14.4232       14.4637      12.612490       0.14960
   2     792.3        1.8693        0.0417       13.4386       13.4803      11.611086       0.11485
   1     891.5        1.9039        0.0435       12.3736       12.4171      10.513196       0.09343
   0    1013.0        1.9753        0.0454       11.2911       11.3365       9.361178       0.07999



 Wavenumbers:  7700. -  8050. cm-1, ATM      1
 LEVEL PRESSURE   UPWARD FLUX   DIFDOWN FLUX  DIRDOWN FLUX  DOWNWARD FLUX   NET FLUX    HEATING RATE
          mb          W/m2          W/m2          W/m2        W/m2          W/m2       degree/day
  51    .06700        0.9872        0.0000        7.2006        7.2006       6.213355       0.00000
  50    .07753        0.9872        0.0000        7.2006        7.2006       6.213337       0.01472
  49    .09103        0.9872        0.0000        7.2005        7.2005       6.213314       0.01442
  48    0.1069        0.9872        0.0000        7.2005        7.2005       6.213287       0.01412
  47    0.1255        0.9872        0.0000        7.2005        7.2005       6.213257       0.01382
  46    0.1487        0.9872        0.0000        7.2004        7.2005       6.213218       0.01402
  45    0.1794        0.9872        0.0000        7.2004        7.2004       6.213166       0.01443
  44    0.2165        0.9872        0.0000        7.2003        7.2003       6.213104       0.01415
  43    0.2613        0.9872        0.0000        7.2003        7.2003       6.213030       0.01388
  42    0.3336        0.9872        0.0000        7.2001        7.2001       6.212908       0.01421
  41    0.4307        0.9872        0.0000        7.2000        7.2000       6.212746       0.01405
  40    0.5894        0.9872        0.0000        7.1997        7.1997       6.212483       0.01403
  39     1.339        0.9873        0.0001        7.1984        7.1985       6.211234       0.01405
  38     1.782        0.9873        0.0001        7.1977        7.1978       6.210502       0.01395
  37     2.292        0.9873        0.0001        7.1968        7.1969       6.209654       0.01404
  36     2.964        0.9873        0.0001        7.1957        7.1958       6.208541       0.01397
  35     3.853        0.9873        0.0002        7.1942        7.1944       6.207072       0.01394
  34     5.035        0.9873        0.0002        7.1922        7.1924       6.205121       0.01393
  33     6.613        0.9874        0.0003        7.1896        7.1899       6.202519       0.01391
  32     8.786        0.9874        0.0004        7.1860        7.1864       6.199017       0.01360
  31     11.80        0.9875        0.0005        7.1810        7.1815       6.194020       0.01399
  30     15.07        0.9875        0.0006        7.1755        7.1762       6.188670       0.01381
  29     18.79        0.9876        0.0008        7.1694        7.1702       6.182648       0.01365
  28     23.16        0.9877        0.0010        7.1623        7.1633       6.175642       0.01355
  27     28.12        0.9878        0.0012        7.1542        7.1555       6.167667       0.01356
  26     33.73        0.9879        0.0014        7.1452        7.1467       6.158792       0.01334
  25     40.54        0.9880        0.0017        7.1344        7.1362       6.148136       0.01322
  24     48.69        0.9882        0.0021        7.1215        7.1236       6.135390       0.01319
  23     57.69        0.9884        0.0025        7.1074        7.1099       6.121514       0.01301
  22     68.43        0.9886        0.0029        7.0909        7.0938       6.105157       0.01286
  21     81.20        0.9889        0.0034        7.0713        7.0748       6.085905       0.01272
  20     96.49        0.9892        0.0041        7.0484        7.0525       6.063293       0.01248
  19     114.6        0.9896        0.0048        7.0217        7.0265       6.036892       0.01233
  18     136.5        0.9901        0.0057        6.9906        6.9963       6.006204       0.01180
  17     162.9        0.9907        0.0068        6.9544        6.9612       5.970466       0.01142
  16     196.4        0.9915        0.0081        6.9087        6.9169       5.925359       0.01135
  15     218.7        0.9921        0.0090        6.8794        6.8885       5.896386       0.01100
  14     243.0        0.9927        0.0100        6.8481        6.8581       5.865423       0.01074
  13     269.0        0.9934        0.0111        6.8147        6.8258       5.832366       0.01072
  12     297.5        0.9942        0.0122        6.7791        6.7913       5.797050       0.01047
  11     328.5        0.9951        0.0134        6.7409        6.7543       5.759213       0.01029
  10     361.9        0.9962        0.0147        6.7002        6.7148       5.718655       0.01026
   9     398.1        0.9974        0.0161        6.6563        6.6724       5.674910       0.01019
   8     437.6        0.9989        0.0176        6.6089        6.6264       5.627499       0.01014
   7     480.5        1.0007        0.0191        6.5570        6.5761       5.575431       0.01023
   6     533.0        1.0032        0.0211        6.4915        6.5126       5.509324       0.01063
   5     589.8        1.0064        0.0231        6.4182        6.4414       5.434989       0.01103
   4     651.6        1.0104        0.0253        6.3359        6.3612       5.350843       0.01151
   3     718.7        1.0153        0.0276        6.2441        6.2718       5.256496       0.01186
   2     792.3        1.0212        0.0301        6.1437        6.1738       5.152583       0.01192
   1     891.5        1.0304        0.0333        6.0042        6.0375       5.007057       0.01238
   0    1013.0        1.0439        0.0370        5.8249        5.8619       4.817986       0.01313



 Wavenumbers:  8050. - 12850. cm-1, ATM      1
 LEVEL PRESSURE   UPWARD FLUX   DIFDOWN FLUX  DIRDOWN FLUX  DOWNWARD FLUX   NET FLUX    HEATING RATE
          mb          W/m2          W/m2          W/m2        W/m2          W/m2       degree/day
  51    .06700       16.9601        0.0000      100.8135      100.8135      83.853420       0.00000
  50    .07753       16.9601        0.0000      100.8135      100.8135      83.853420       0.00000
  49    .09103       16.9601        0.0001      100.8134      100.8135      83.853420       0.00000
  48    0.1069       16.9600        0.0001      100.8134      100.8134      83.853420      -0.00000
  47    0.1255       16.9600        0.0001      100.8133      100.8134      83.853420       0.00000
  46    0.1487       16.9599        0.0002      100.8132      100.8134      83.853420      -0.00000
  45    0.1794       16.9599        0.0002      100.8131      100.8133      83.853420       0.00000
  44    0.2165       16.9598        0.0003      100.8129      100.8132      83.853420       0.00000
  43    0.2613       16.9597        0.0004      100.8127      100.8132      83.853420       0.00000
  42    0.3336       16.9596        0.0006      100.8125      100.8130      83.853420       0.00000
  41    0.4307       16.9594        0.0008      100.8121      100.8129      83.853420       0.00000
  40    0.5894       16.9591        0.0011      100.8115      100.8126      83.853420      -0.00000
  39     1.339       16.9578        0.0027      100.8085      100.8112      83.853420       0.00000
  38     1.782       16.9570        0.0036      100.8068      100.8104      83.853420       0.00000
  37     2.292       16.9561        0.0047      100.8047      100.8095      83.853420       0.00000
  36     2.964       16.9548        0.0062      100.8021      100.8083      83.853420       0.00000
  35     3.853       16.9532        0.0080      100.7986      100.8067      83.853420      -0.00000
  34     5.035       16.9511        0.0105      100.7940      100.8045      83.853420      -0.00000
  33     6.613       16.9482        0.0139      100.7878      100.8017      83.853420       0.00000
  32     8.786       16.9444        0.0184      100.7794      100.7978      83.853420       0.00000
  31     11.80       16.9389        0.0249      100.7674      100.7923      83.853420       0.00000
  30     15.07       16.9330        0.0318      100.7546      100.7864      83.853420       0.00000
  29     18.79       16.9263        0.0397      100.7400      100.7797      83.853420       0.00000
  28     23.16       16.9184        0.0489      100.7230      100.7718      83.853420      -0.00000
  27     28.12       16.9094        0.0594      100.7035      100.7629      83.853420       0.00000
  26     33.73       16.8994        0.0712      100.6817      100.7528      83.853420       0.00000
  25     40.54       16.8872        0.0854      100.6552      100.7406      83.853420       0.00000
  24     48.69       16.8725        0.1026      100.6234      100.7260      83.853420       0.00000
  23     57.69       16.8564        0.1215      100.5883      100.7098      83.853420       0.00000
  22     68.43       16.8371        0.1441      100.5464      100.6905      83.853420       0.00000
  21     81.20       16.8141        0.1710      100.4965      100.6675      83.853420       0.00000
  20     96.49       16.7867        0.2031      100.4370      100.6401      83.853420       0.00000
  19     114.6       16.7540        0.2413      100.3585      100.5998      83.845749       0.00358
  18     136.5       16.7153        0.2866      100.2634      100.5500      83.834707       0.00425
  17     162.9       16.6691        0.3407      100.1407      100.4814      83.812290       0.00717
  16     196.4       16.6091        0.4109       99.9505      100.3614      83.752356       0.01509
  15     218.7       16.5696        0.4570       99.7889      100.2460      83.676385       0.02884
  14     243.0       16.5267        0.5070       99.5472      100.0542      83.527541       0.05162
  13     269.0       16.4805        0.5609       99.1452       99.7061      83.225624       0.09794
  12     297.5       16.4312        0.6187       98.5975       99.2161      82.784912       0.13071
  11     328.5       16.3789        0.6804       97.8659       98.5463      82.167334       0.16792
  10     361.9       16.3243        0.7459       96.8848       97.6307      81.306429       0.21782
   9     398.1       16.2678        0.8149       95.6330       96.4479      80.180104       0.26241
   8     437.6       16.2109        0.8870       94.0655       94.9525      78.741541       0.30757
   7     480.5       16.1563        0.9611       92.0807       93.0418      76.885559       0.36451
   6     533.0       16.0996        1.0482       89.4449       90.4931      74.393461       0.40090
   5     589.8       16.0539        1.1377       86.5544       87.6921      71.638204       0.40897
   4     651.6       16.0271        1.2290       83.4174       84.6464      68.619329       0.41284
   3     718.7       16.0239        1.3229       80.2037       81.5266      65.502730       0.39167
   2     792.3       16.0485        1.4200       77.0811       78.5011      62.452588       0.34982
   1     891.5       16.1405        1.5447       73.2645       74.8092      58.668742       0.32199
   0    1013.0       16.4029        1.6823       68.9425       70.6247      54.221886       0.30877



 Wavenumbers: 12850. - 16000. cm-1, ATM      1
 LEVEL PRESSURE   UPWARD FLUX   DIFDOWN FLUX  DIRDOWN FLUX  DOWNWARD FLUX   NET FLUX    HEATING RATE
          mb          W/m2          W/m2          W/m2        W/m2          W/m2       degree/day
  51    .06700       25.2692        0.0000       63.1686       63.1686      37.899398       0.00000
  50    .07753       25.2691        0.0001       63.1677       63.1678      37.898621       0.62302
  49    .09103       25.2691        0.0001       63.1666       63.1668      37.897653       0.60518
  48    0.1069       25.2691        0.0002       63.1654       63.1656      37.896551       0.58649
  47    0.1255       25.2690        0.0003       63.1640       63.1643      37.895299       0.56770
  46    0.1487       25.2690        0.0004       63.1623       63.1627      37.893738       0.56878
  45    0.1794       25.2689        0.0006       63.1600       63.1605      37.891648       0.57388
  44    0.2165       25.2688        0.0007       63.1573       63.1580      37.889233       0.54928
  43    0.2613       25.2687        0.0010       63.1542       63.1552      37.886452       0.52427
  42    0.3336       25.2686        0.0013       63.1493       63.1506      37.882028       0.51573
  41    0.4307       25.2684        0.0018       63.1431       63.1449      37.876509       0.47991
  40    0.5894       25.2682        0.0026       63.1338       63.1364      37.868177       0.44305
  39     1.339       25.2682        0.0062       63.0956       63.1018      37.833645       0.38877
  38     1.782       25.2688        0.0084       63.0740       63.0824      37.813606       0.38152
  37     2.292       25.2702        0.0109       63.0477       63.0585      37.788358       0.41816
  36     2.964       25.2729        0.0141       63.0095       63.0237      37.750719       0.47249
  35     3.853       25.2780        0.0184       62.9533       62.9717      37.693746       0.54068
  34     5.035       25.2860        0.0242       62.8725       62.8967      37.610716       0.59313
  33     6.613       25.2973        0.0318       62.7621       62.7939      37.496541       0.61038
  32     8.786       25.3119        0.0421       62.6182       62.6603      37.348385       0.57538
  31     11.80       25.3302        0.0567       62.4284       62.4851      37.154888       0.54173
  30     15.07       25.3467        0.0724       62.2426       62.3150      36.968292       0.48175
  29     18.79       25.3626        0.0900       62.0493       62.1393      36.776743       0.43430
  28     23.16       25.3780        0.1106       61.8424       61.9531      36.575079       0.38995
  27     28.12       25.3919        0.1341       61.6278       61.7619      36.370029       0.34857
  26     33.73       25.4021        0.1603       61.4177       61.5780      36.175859       0.29194
  25     40.54       25.4084        0.1919       61.1983       61.3902      35.981868       0.24067
  24     48.69       25.4099        0.2300       60.9680       61.1979      35.788040       0.20058
  23     57.69       25.4058        0.2717       60.7478       61.0195      35.613642       0.16347
  22     68.43       25.3947        0.3213       60.5202       60.8415      35.446743       0.13120
  21     81.20       25.3729        0.3803       60.2938       60.6742      35.301211       0.09617
  20     96.49       25.3391        0.4506       60.0643       60.5149      35.175815       0.06921
  19     114.6       25.2995        0.5345       59.8078       60.3423      35.042770       0.06212
  18     136.5       25.2490        0.6337       59.5157       60.1494      34.900425       0.05474
  17     162.9       25.1855        0.7514       59.1770       59.9285      34.742986       0.05032
  16     196.4       25.0961        0.9036       58.7604       59.6641      34.567973       0.04405
  15     218.7       25.0349        1.0033       58.4948       59.4981      34.463211       0.03977
  14     243.0       24.9672        1.1113       58.2089       59.3202      34.353014       0.03822
  13     269.0       24.8929        1.2281       57.9006       59.1287      34.235757       0.03804
  12     297.5       24.8119        1.3539       57.5668       58.9207      34.108794       0.03766
  11     328.5       24.7246        1.4895       57.2005       58.6899      33.965334       0.03901
  10     361.9       24.6313        1.6348       56.7963       58.4312      33.799839       0.04187
   9     398.1       24.5323        1.7906       56.3475       58.1381      33.605821       0.04520
   8     437.6       24.4285        1.9569       55.8422       57.7991      33.370646       0.05028
   7     480.5       24.3219        2.1338       55.2625       57.3964      33.074453       0.05817
   6     533.0       24.1987        2.3494       54.4972       56.8466      32.647895       0.06862
   5     589.8       24.0759        2.5784       53.6307       56.2090      32.133191       0.07640
   4     651.6       23.9575        2.8198       52.6606       55.4803      31.522832       0.08347
   3     718.7       23.8455        3.0738       51.6100       54.6839      30.838403       0.08601
   2     792.3       23.7424        3.3404       50.5019       53.8422      30.099816       0.08471
   1     891.5       23.6374        3.6907       49.0197       52.7104      29.073033       0.08737
   0    1013.0       23.5799        4.0954       47.2289       51.3243      27.744371       0.09226



 Wavenumbers: 16000. - 22650. cm-1, ATM      1
 LEVEL PRESSURE   UPWARD FLUX   DIFDOWN FLUX  DIRDOWN FLUX  DOWNWARD FLUX   NET FLUX    HEATING RATE
          mb          W/m2          W/m2          W/m2        W/m2          W/m2       degree/day
  51    .06700       67.5337        0.0000      100.7153      100.7153      33.181631       0.00000
  50    .07753       67.5335        0.0003      100.7147      100.7151      33.181517       0.09087
  49    .09103       67.5334        0.0007      100.7140      100.7147      33.181352       0.10307
  48    0.1069       67.5332        0.0012      100.7131      100.7143      33.181132       0.11753
  47    0.1255       67.5330        0.0017      100.7121      100.7138      33.180836       0.13397
  46    0.1487       67.5327        0.0024      100.7108      100.7131      33.180401       0.15875
  45    0.1794       67.5324        0.0033      100.7089      100.7122      33.179720       0.18692
  44    0.2165       67.5321        0.0043      100.7066      100.7109      33.178796       0.21007
  43    0.2613       67.5318        0.0056      100.7037      100.7093      33.177543       0.23617
  42    0.3336       67.5313        0.0077      100.6987      100.7064      33.175161       0.27772
  41    0.4307       67.5307        0.0105      100.6918      100.7023      33.171571       0.31218
  40    0.5894       67.5301        0.0151      100.6797      100.6948      33.164724       0.36413
  39     1.339       67.5321        0.0367      100.6095      100.6462      33.114146       0.56941
  38     1.782       67.5368        0.0494      100.5585      100.6078      33.071074       0.82001
  37     2.292       67.5456        0.0641      100.4903      100.5543      33.008749       1.03227
  36     2.964       67.5622        0.0833      100.3868      100.4701      32.907834       1.26680
  35     3.853       67.5915        0.1087      100.2306      100.3393      32.747832       1.51844
  34     5.035       67.6375        0.1424      100.0045      100.1469      32.509406       1.70322
  33     6.613       67.7026        0.1873       99.6939       99.8812      32.178621       1.76838
  32     8.786       67.7866        0.2477       99.2881       99.5357      31.749163       1.66786
  31     11.80       67.8928        0.3337       98.7496       99.0833      31.190486       1.56412
  30     15.07       67.9908        0.4258       98.2198       98.6456      30.654841       1.38293
  29     18.79       68.0868        0.5294       97.6651       98.1945      30.107688       1.24056
  28     23.16       68.1823        0.6499       97.0671       97.7171      29.534795       1.10779
  27     28.12       68.2719        0.7873       96.4406       97.2278      28.955937       0.98402
  26     33.73       68.3440        0.9404       95.8179       96.7583      28.414235       0.81446
  25     40.54       68.3987        1.1247       95.1548       96.2795      27.880836       0.66174
  24     48.69       68.4331        1.3460       94.4420       95.7879      27.354815       0.54435
  23     57.69       68.4407        1.5880       93.7416       95.3296      26.888940       0.43669
  22     68.43       68.4171        1.8750       92.9954       94.8703      26.453281       0.34249
  21     81.20       68.3443        2.2154       92.2231       94.4386      26.094267       0.23723
  20     96.49       68.2166        2.6192       91.4110       94.0301      25.813589       0.15491
  19     114.6       68.0448        3.0950       90.5070       93.6020      25.557260       0.11969
  18     136.5       67.8282        3.6541       89.4803       93.1344      25.306145       0.09656
  17     162.9       67.5593        4.3129       88.3022       92.6151      25.055767       0.08003
  16     196.4       67.1857        5.1569       86.8606       92.0175      24.831756       0.05639
  15     218.7       66.9321        5.7048       85.9492       91.6540      24.721913       0.04170
  14     243.0       66.6534        6.2947       84.9789       91.2736      24.620257       0.03526
  13     269.0       66.3485        6.9274       83.9493       90.8767      24.528213       0.02986
  12     297.5       66.0167        7.6037       82.8589       90.4626      24.445886       0.02442
  11     328.5       65.6589        8.3258       81.6982       90.0240      24.365077       0.02197
  10     361.9       65.2749        9.0932       80.4669       89.5602      24.285280       0.02019
   9     398.1       64.8637        9.9079       79.1611       89.0690      24.205334       0.01863
   8     437.6       64.4255       10.7698       77.7777       88.5476      24.122073       0.01780
   7     480.5       63.9603       11.6792       76.3136       87.9928      24.032497       0.01759
   6     533.0       63.3949       12.7781       74.5359       87.3140      23.919073       0.01825
   5     589.8       62.7954       13.9377       72.6469       86.5847      23.789265       0.01927
   4     651.6       62.1636       15.1558       70.6456       85.8013      23.637780       0.02072
   3     718.7       61.4996       16.4297       68.5367       84.9664      23.466785       0.02149
   2     792.3       60.8061       17.7540       66.3287       84.0827      23.276619       0.02181
   1     891.5       59.9010       19.4769       63.4246       82.9015      23.000511       0.02350
   0    1013.0       58.8641       21.4483       60.0483       81.4966      22.632521       0.02555



 Wavenumbers: 22650. - 29000. cm-1, ATM      1
 LEVEL PRESSURE   UPWARD FLUX   DIFDOWN FLUX  DIRDOWN FLUX  DOWNWARD FLUX   NET FLUX    HEATING RATE
          mb          W/m2          W/m2          W/m2        W/m2          W/m2       degree/day
  51    .06700       31.9718        0.0000       38.0063       38.0063       6.034453       0.00000
  50    .07753       31.9717        0.0004       38.0057       38.0061       6.034453      -0.00000
  49    .09103       31.9714        0.0009       38.0050       38.0059       6.034453       0.00000
  48    0.1069       31.9712        0.0014       38.0042       38.0056       6.034453       0.00000
  47    0.1255       31.9709        0.0020       38.0033       38.0054       6.034453      -0.00000
  46    0.1487       31.9705        0.0028       38.0022       38.0050       6.034453      -0.00000
  45    0.1794       31.9700        0.0039       38.0006       38.0045       6.034453       0.00000
  44    0.2165       31.9695        0.0052       37.9987       38.0039       6.034453      -0.00000
  43    0.2613       31.9688        0.0067       37.9965       38.0032       6.034453       0.00000
  42    0.3336       31.9676        0.0092       37.9928       38.0021       6.034453       0.00000
  41    0.4307       31.9661        0.0125       37.9880       38.0005       6.034453       0.00000
  40    0.5894       31.9636        0.0180       37.9800       37.9980       6.034453       0.00000
  39     1.339       31.9517        0.0437       37.9425       37.9862       6.034453      -0.00000
  38     1.782       31.9448        0.0588       37.9204       37.9792       6.034453       0.00000
  37     2.292       31.9367        0.0763       37.8949       37.9712       6.034453       0.00000
  36     2.964       31.9262        0.0992       37.8614       37.9606       6.034453      -0.00000
  35     3.853       31.9122        0.1295       37.8172       37.9467       6.034453      -0.00000
  34     5.035       31.8937        0.1696       37.7586       37.9282       6.034453       0.00000
  33     6.613       31.8691        0.2232       37.6803       37.9035       6.034453      -0.00000
  32     8.786       31.8358        0.2952       37.5750       37.8703       6.034453       0.00000
  31     11.80       31.7884        0.3980       37.4249       37.8229       6.034453       0.00000
  30     15.07       31.7377        0.5080       37.2642       37.7721       6.034453       0.00000
  29     18.79       31.6805        0.6317       37.0833       37.7150       6.034453      -0.00000
  28     23.16       31.6140        0.7755       36.8730       37.6485       6.034453       0.00000
  27     28.12       31.5383        0.9390       36.6338       37.5728       6.034453      -0.00000
  26     33.73       31.4541        1.1208       36.3677       37.4885       6.034453       0.00000
  25     40.54       31.3529        1.3388       36.0486       37.3873       6.034453       0.00000
  24     48.69       31.2319        1.5991       35.6672       37.2663       6.034453      -0.00000
  23     57.69       31.1001        1.8819       35.2527       37.1346       6.034453       0.00000
  22     68.43       30.9448        2.2143       34.7649       36.9793       6.034453      -0.00000
  21     81.20       30.7621        2.6043       34.1922       36.7966       6.034453       0.00000
  20     96.49       30.5477        3.0604       33.5217       36.5822       6.034453      -0.00000
  19     114.6       30.2978        3.5899       32.7424       36.3322       6.034453      -0.00000
  18     136.5       30.0079        4.2007       31.8416       36.0423       6.034453       0.00000
  17     162.9       29.6715        4.9051       30.8008       35.7059       6.034453       0.00000
  16     196.4       29.2489        5.7827       29.5007       35.2834       6.034453       0.00000
  15     218.7       28.9796        6.3374       28.6767       35.0141       6.034453      -0.00000
  14     243.0       28.6941        6.9217       27.8068       34.7285       6.034453       0.00000
  13     269.0       28.3926        7.5338       26.8933       34.4271       6.034453       0.00000
  12     297.5       28.0760        8.1712       25.9393       34.1105       6.034453       0.00000
  11     328.5       27.7440        8.8333       24.9451       33.7784       6.034453      -0.00000
  10     361.9       27.3978        9.5163       23.9160       33.4323       6.034453      -0.00000
   9     398.1       27.0378       10.2181       22.8541       33.0722       6.034453       0.00000
   8     437.6       26.6649       10.9349       21.7645       32.6994       6.034453       0.00000
   7     480.5       26.2804       11.6628       20.6521       32.3149       6.034453      -0.00000
   6     533.0       25.8272       12.5048       19.3569       31.8617       6.034453       0.00000
   5     589.8       25.3620       13.3497       18.0467       31.3964       6.034453       0.00000
   4     651.6       24.8869       14.1897       16.7316       30.9213       6.034453       0.00000
   3     718.7       24.4043       15.0173       15.4214       30.4387       6.034453       0.00000
   2     792.3       23.9169       15.8237       14.1276       29.9513       6.034453       0.00000
   1     891.5       23.3032       16.7918       12.5459       29.3377       6.034453      -0.00000
   0    1013.0       22.6263       17.7890       10.8717       28.6607       6.034453      -0.00000



 Wavenumbers: 29000. - 38000. cm-1, ATM      1
 LEVEL PRESSURE   UPWARD FLUX   DIFDOWN FLUX  DIRDOWN FLUX  DOWNWARD FLUX   NET FLUX    HEATING RATE
          mb          W/m2          W/m2          W/m2        W/m2          W/m2       degree/day
  51    .06700        4.5983        0.0000       13.4026       13.4026       8.804300       0.00000
  50    .07753        4.5981        0.0003       13.3983       13.3986       8.800502       3.04412
  49    .09103        4.5978        0.0007       13.3921       13.3928       8.794984       3.44935
  48    0.1069        4.5975        0.0011       13.3840       13.3851       8.787607       3.92640
  47    0.1255        4.5971        0.0016       13.3733       13.3749       8.777764       4.46276
  46    0.1487        4.5967        0.0022       13.3579       13.3600       8.763323       5.26388
  45    0.1794        4.5961        0.0030       13.3340       13.3370       8.740925       6.14866
  44    0.2165        4.5954        0.0040       13.3024       13.3064       8.710909       6.82807
  43    0.2613        4.5947        0.0051       13.2604       13.2655       8.670859       7.54931
  42    0.3336        4.5934        0.0070       13.1833       13.1903       8.596861       8.62747
  41    0.4307        4.5918        0.0094       13.0729       13.0823       8.490501       9.24770
  40    0.5894        4.5894        0.0133       12.8796       12.8929       8.303483       9.94540
  39     1.339        4.5806        0.0294       11.9165       11.9460       7.365334      10.56186
  38     1.782        4.5771        0.0377       11.4399       11.4776       6.900513       8.84944
  37     2.292        4.5743        0.0465       10.9796       11.0261       6.451807       7.43174
  36     2.964        4.5724        0.0573       10.4786       10.5359       5.963534       6.12930
  35     3.853        4.5723        0.0706        9.9429       10.0135       5.441232       4.95674
  34     5.035        4.5746        0.0872        9.4007        9.4879       4.913313       3.77123
  33     6.613        4.5795        0.1083        8.8752        8.9835       4.404038       2.72259
  32     8.786        4.5863        0.1354        8.3786        8.5140       3.927750       1.84973
  31     11.80        4.5943        0.1727        7.8897        8.0623       3.467982       1.28721
  30     15.07        4.6010        0.2111        7.5108        7.7219       3.120896       0.89611
  29     18.79        4.6068        0.2529        7.1776        7.4305       2.823712       0.67381
  28     23.16        4.6116        0.3000        6.8664        7.1664       2.554771       0.52005
  27     28.12        4.6147        0.3519        6.5780        6.9300       2.315240       0.40719
  26     33.73        4.6139        0.4086        6.3195        6.7280       2.114150       0.30234
  25     40.54        4.6077        0.4753        6.0663        6.5416       1.933899       0.22362
  24     48.69        4.5955        0.5534        5.8128        6.3663       1.770803       0.16878
  23     57.69        4.5776        0.6368        5.5777        6.2145       1.636871       0.12554
  22     68.43        4.5515        0.7332        5.3379        6.0710       1.519544       0.09223
  21     81.20        4.5130        0.8449        5.0965        5.9414       1.428340       0.06027
  20     96.49        4.4609        0.9738        4.8476        5.8214       1.360512       0.03744
  19     114.6        4.3980        1.1196        4.5799        5.6995       1.301551       0.02753
  18     136.5        4.3250        1.2823        4.2891        5.5714       1.246374       0.02122
  17     162.9        4.2416        1.4623        3.9732        5.4355       1.193871       0.01678
  16     196.4        4.1362        1.6773        3.6080        5.2853       1.149092       0.01127
  15     218.7        4.0697        1.8078        3.3898        5.1976       1.127819       0.00808
  14     243.0        4.0004        1.9404        3.1686        5.1090       1.108556       0.00668
  13     269.0        3.9285        2.0741        2.9461        5.0201       1.091598       0.00550
  12     297.5        3.8545        2.2075        2.7239        4.9315       1.076957       0.00434
  11     328.5        3.7790        2.3394        2.5029        4.8423       1.063236       0.00373
  10     361.9        3.7026        2.4685        2.2846        4.7530       1.050455       0.00323
   9     398.1        3.6255        2.5933        2.0708        4.6641       1.038606       0.00276
   8     437.6        3.5482        2.7130        1.8626        4.5756       1.027435       0.00239
   7     480.5        3.4710        2.8260        1.6621        4.4881       1.017060       0.00204
   6     533.0        3.3833        2.9457        1.4437        4.3893       1.006015       0.00178
   5     589.8        3.2968        3.0534        1.2390        4.2924       0.995586       0.00155
   4     651.6        3.2120        3.1476        1.0500        4.1976       0.985631       0.00136
   3     718.7        3.1291        3.2274        0.8778        4.1052       0.976117       0.00120
   2     792.3        3.0483        3.2916        0.7237        4.0153       0.967025       0.00104
   1     891.5        2.9500        3.3498        0.5563        3.9061       0.956097       0.00093
   0    1013.0        2.8447        3.3852        0.4039        3.7891       0.944400       0.00081



 Wavenumbers: 38000. - 50000. cm-1, ATM      1
 LEVEL PRESSURE   UPWARD FLUX   DIFDOWN FLUX  DIRDOWN FLUX  DOWNWARD FLUX   NET FLUX    HEATING RATE
          mb          W/m2          W/m2          W/m2        W/m2          W/m2       degree/day
  51    .06700        0.0051        0.0000        0.8267        0.8267       0.821528       0.00000
  50    .07753        0.0051        0.0001        0.8242        0.8243       0.819196       1.86936
  49    .09103        0.0050        0.0002        0.8207        0.8209       0.815872       2.07705
  48    0.1069        0.0049        0.0002        0.8162        0.8164       0.811514       2.31984
  47    0.1255        0.0048        0.0004        0.8103        0.8106       0.805801       2.59006
  46    0.1487        0.0047        0.0005        0.8018        0.8023       0.797567       3.00143
  45    0.1794        0.0045        0.0007        0.7889        0.7896       0.785013       3.44648
  44    0.2165        0.0044        0.0009        0.7720        0.7729       0.768507       3.75474
  43    0.2613        0.0042        0.0011        0.7500        0.7511       0.746955       4.06246
  42    0.3336        0.0039        0.0015        0.7106        0.7121       0.708267       4.51071
  41    0.4307        0.0035        0.0019        0.6566        0.6584       0.654972       4.63387
  40    0.5894        0.0029        0.0024        0.5680        0.5704       0.567464       4.65357
  39     1.339        0.0015        0.0030        0.2422        0.2452       0.243720       3.64476
  38     1.782        0.0010        0.0026        0.1493        0.1519       0.150889       1.76735
  37     2.292        0.0007        0.0022        0.0924        0.0946       0.093932       0.94336
  36     2.964        0.0005        0.0018        0.0539        0.0557       0.055224       0.48589
  35     3.853        0.0003        0.0013        0.0295        0.0308       0.030502       0.23462
  34     5.035        0.0002        0.0010        0.0154        0.0164       0.016181       0.10230
  33     6.613        0.0001        0.0007        0.0073        0.0080       0.007912       0.04420
  32     8.786        0.0000        0.0004        0.0030        0.0034       0.003390       0.01756
  31     11.80        0.0000        0.0003        0.0010        0.0012       0.001199       0.00613
  30     15.07        0.0000        0.0001        0.0003        0.0005       0.000463       0.00190
  29     18.79        0.0000        0.0001        0.0001        0.0002       0.000182       0.00064
  28     23.16        0.0000        0.0000        0.0000        0.0001       0.000071       0.00022
  27     28.12        0.0000        0.0000        0.0000        0.0000       0.000028       0.00007
  26     33.73        0.0000        0.0000        0.0000        0.0000       0.000011       0.00002
  25     40.54        0.0000        0.0000        0.0000        0.0000       0.000005       0.00001
  24     48.69        0.0000        0.0000        0.0000        0.0000       0.000002       0.00000
  23     57.69        0.0000        0.0000        0.0000        0.0000       0.000001       0.00000
  22     68.43        0.0000        0.0000        0.0000        0.0000       0.000000       0.00000
  21     81.20        0.0000        0.0000        0.0000        0.0000       0.000000       0.00000
  20     96.49        0.0000        0.0000        0.0000        0.0000       0.000000       0.00000
  19     114.6        0.0000        0.0000        0.0000        0.0000       0.000000       0.00000
  18     136.5        0.0000        0.0000        0.0000        0.0000       0.000000       0.00000
  17     162.9        0.0000        0.0000        0.0000        0.0000       0.000000       0.00000
  16     196.4        0.0000        0.0000        0.0000        0.0000       0.000000       0.00000
  15     218.7        0.0000        0.0000        0.0000        0.0000       0.000000       0.00000
  14     243.0        0.0000        0.0000        0.0000        0.0000       0.000000       0.00000
  13     269.0        0.0000        0.0000        0.0000        0.0000       0.000000       0.00000
  12     297.5        0.0000        0.0000        0.0000        0.0000       0.000000       0.00000
  11     328.5        0.0000        0.0000        0.0000        0.0000       0.000000       0.00000
  10     361.9        0.0000        0.0000        0.0000        0.0000       0.000000       0.00000
   9     398.1        0.0000        0.0000        0.0000        0.0000       0.000000       0.00000
   8     437.6        0.0000        0.0000        0.0000        0.0000       0.000000       0.00000
   7     480.5        0.0000        0.0000        0.0000        0.0000       0.000000       0.00000
   6     533.0        0.0000        0.0000        0.0000        0.0000       0.000000       0.00000
   5     589.8        0.0000        0.0000        0.0000        0.0000       0.000000       0.00000
   4     651.6        0.0000        0.0000        0.0000        0.0000       0.000000       0.00000
   3     718.7        0.0000        0.0000        0.0000        0.0000       0.000000       0.00000
   2     792.3        0.0000        0.0000        0.0000        0.0000       0.000000       0.00000
   1     891.5        0.0000        0.0000        0.0000        0.0000       0.000000       0.00000
   0    1013.0        0.0000        0.0000        0.0000        0.0000       0.000000       0.00000



 Wavenumbers:   820. -  2600. cm-1, ATM      1
 LEVEL PRESSURE   UPWARD FLUX   DIFDOWN FLUX  DIRDOWN FLUX  DOWNWARD FLUX   NET FLUX    HEATING RATE
          mb          W/m2          W/m2          W/m2        W/m2          W/m2       degree/day
  51    .06700        0.1274        0.0000        3.8670        3.8670       3.739658       0.00000
  50    .07753        0.1274        0.0000        3.8643        3.8643       3.736941       2.17769
  49    .09103        0.1274        0.0000        3.8635        3.8635       3.736131       0.50638
  48    0.1069        0.1274        0.0000        3.8626        3.8626       3.735240       0.47415
  47    0.1255        0.1274        0.0000        3.8616        3.8616       3.734279       0.43559
  46    0.1487        0.1274        0.0000        3.8605        3.8605       3.733170       0.40437
  45    0.1794        0.1274        0.0000        3.8592        3.8592       3.731835       0.36647
  44    0.2165        0.1274        0.0000        3.8578        3.8578       3.730457       0.31346
  43    0.2613        0.1274        0.0000        3.8564        3.8564       3.728997       0.27522
  42    0.3336        0.1274        0.0000        3.8541        3.8541       3.726766       0.26012
  41    0.4307        0.1274        0.0000        3.8512        3.8512       3.723883       0.25063
  40    0.5894        0.1274        0.0000        3.8465        3.8465       3.719157       0.25133
  39     1.339        0.1274        0.0000        3.8251        3.8251       3.697782       0.24064
  38     1.782        0.1274        0.0000        3.8133        3.8133       3.685969       0.22489
  37     2.292        0.1274        0.0000        3.8003        3.8003       3.672908       0.21632
  36     2.964        0.1274        0.0000        3.7841        3.7841       3.656780       0.20246
  35     3.853        0.1274        0.0000        3.7642        3.7642       3.636865       0.18899
  34     5.035        0.1274        0.0000        3.7395        3.7395       3.612175       0.17638
  33     6.613        0.1274        0.0000        3.7090        3.7090       3.581640       0.16324
  32     8.786        0.1274        0.0000        3.6726        3.6726       3.545247       0.14133
  31     11.80        0.1274        0.0000        3.6320        3.6320       3.504654       0.11365
  30     15.07        0.1274        0.0000        3.6016        3.6016       3.474271       0.07844
  29     18.79        0.1274        0.0000        3.5777        3.5777       3.450374       0.05418
  28     23.16        0.1274        0.0000        3.5564        3.5564       3.429022       0.04129
  27     28.12        0.1274        0.0000        3.5348        3.5348       3.407477       0.03662
  26     33.73        0.1274        0.0000        3.5118        3.5118       3.384446       0.03463
  25     40.54        0.1274        0.0000        3.4849        3.4849       3.357560       0.03335
  24     48.69        0.1274        0.0000        3.4537        3.4537       3.326311       0.03234
  23     57.69        0.1274        0.0000        3.4210        3.4210       3.293640       0.03062
  22     68.43        0.1274        0.0000        3.3844        3.3844       3.257057       0.02876
  21     81.20        0.1274        0.0000        3.3441        3.3441       3.216761       0.02663
  20     96.49        0.1274        0.0000        3.2998        3.2998       3.172400       0.02448
  19     114.6        0.1274        0.0000        3.2506        3.2506       3.123255       0.02295
  18     136.5        0.1274        0.0000        3.1936        3.1936       3.066209       0.02194
  17     162.9        0.1274        0.0000        3.1181        3.1181       2.990711       0.02413
  16     196.4        0.1274        0.0000        3.0090        3.0090       2.881530       0.02748
  15     218.7        0.1275        0.0000        2.9420        2.9420       2.814531       0.02544
  14     243.0        0.1275        0.0000        2.8605        2.8605       2.732975       0.02829
  13     269.0        0.1276        0.0000        2.7419        2.7420       2.614404       0.03846
  12     297.5        0.1277        0.0000        2.5729        2.5729       2.445213       0.05018
  11     328.5        0.1279        0.0000        2.3602        2.3602       2.232345       0.05788
  10     361.9        0.1281        0.0000        2.1524        2.1524       2.024300       0.05264
   9     398.1        0.1285        0.0000        1.9974        1.9974       1.868887       0.03621
   8     437.6        0.1291        0.0000        1.8835        1.8835       1.754396       0.02448
   7     480.5        0.1300        0.0000        1.7734        1.7734       1.643466       0.02179
   6     533.0        0.1314        0.0000        1.6397        1.6398       1.508355       0.02174
   5     589.8        0.1335        0.0000        1.5068        1.5069       1.373375       0.02004
   4     651.6        0.1366        0.0000        1.3807        1.3807       1.244160       0.01767
   3     718.7        0.1407        0.0000        1.2680        1.2680       1.127377       0.01468
   2     792.3        0.1457        0.0000        1.1659        1.1660       1.020264       0.01228
   1     891.5        0.1542        0.0000        1.0372        1.0373       0.883066       0.01167
   0    1013.0        0.1696        0.0000        0.8716        0.8717       0.702049       0.01257

  Modules and versions used in this calculation:

       rrtmg_sw.1col.f90:  $Revision$                    rrtmg_sw_init.f90:  $Revision$        
     rrtmgsw_cldprop.f90:  $Revision$                  rrtmgsw_cldprmc.f90:  NOT USED          
     rrtmg_sw_reftra.f90:  $Revision$                  rrtmg_sw_spcvrt.f90:  NOT USED          
     rrtmg_sw_spcvmc.f90:  NOT USED                    rrtmgsw_setcoef.f90:  NOT USED          
     rrtmg_sw_taumol.f90:  $Revision$                  rrtmg_sw_vrtqdr.f90:  NOT USED          
                rrtatm.f:  NOT USED                             util_xxx.f:  NOT USED          
                 extra.f:  NOT USED                       rrtmg_sw_k_g.f90:  $Revision$        

