

 Wavenumbers:   820. - 50000. cm-1, ATM      1
 LEVEL PRESSURE   UPWARD FLUX   DIFDOWN FLUX  DIRDOWN FLUX  DOWNWARD FLUX   NET FLUX    HEATING RATE
          mb          W/m2          W/m2          W/m2        W/m2          W/m2       degree/day
  51    .06700      167.5633        0.0000      397.8738      397.8738     230.310497       0.00000
  50    .07753      167.5627        0.0012      397.8577      397.8589     230.296216      11.44619
  49    .09103      167.5619        0.0026      397.8418      397.8444     230.282543       8.54639
  48    0.1069      167.5610        0.0043      397.8230      397.8272     230.266214       8.69175
  47    0.1255      167.5600        0.0062      397.7997      397.8058     230.245797       9.25617
  46    0.1487      167.5588        0.0086      397.7676      397.7762     230.217377      10.35957
  45    0.1794      167.5572        0.0118      397.7205      397.7323     230.175142      11.59446
  44    0.2165      167.5554        0.0157      397.6602      397.6759     230.120570      12.41404
  43    0.2613      167.5533        0.0202      397.5829      397.6031     230.049877      13.32543
  42    0.3336      167.5500        0.0277      397.4449      397.4726     229.922633      14.83535
  41    0.4307      167.5459        0.0375      397.2524      397.2899     229.744057      15.52682
  40    0.5894      167.5397        0.0533      396.9253      396.9786     229.438894      16.22818
  39     1.339      167.5209        0.1238      395.4254      395.5491     228.028189      15.88198
  38     1.782      167.5167        0.1632      394.7288      394.8920     227.375337      12.42925
  37     2.292      167.5176        0.2081      394.0572      394.2653     226.747652      10.39610
  36     2.964      167.5277        0.2664      393.3007      393.5671     226.039437       8.89023
  35     3.853      167.5530        0.3426      392.4318      392.7744     225.221374       7.76357
  34     5.035      167.5987        0.4428      391.4441      391.8869     224.288168       6.66644
  33     6.613      167.6664        0.5755      390.3268      390.9023     223.235862       5.62563
  32     8.786      167.7531        0.7530      389.0624      389.8154     222.062317       4.55763
  31     11.80      167.8572        1.0048      387.5500      388.5548     220.697659       3.82061
  30     15.07      167.9456        1.2730      386.1556      387.4286     219.482998       3.13602
  29     18.79      168.0247        1.5734      384.7502      386.3236     218.298916       2.68468
  28     23.16      168.0932        1.9215      383.2686      385.1901     217.096901       2.32431
  27     28.12      168.1435        2.3161      381.7329      384.0490     215.905482       2.02533
  26     33.73      168.1588        2.7545      380.1982      382.9527     214.793890       1.67131
  25     40.54      168.1296        3.2801      378.5384      381.8185     213.688912       1.37085
  24     48.69      168.0489        3.9080      376.7214      380.6295     212.580557       1.14697
  23     57.69      167.9168        4.5911      374.8959      379.4870     211.570191       0.94707
  22     68.43      167.7129        5.3962      372.8999      378.2961     210.583191       0.77591
  21     81.20      167.4055        6.3447      370.7496      377.0943     209.688793       0.59100
  20     96.49      166.9816        7.4603      368.4056      375.8659     208.884285       0.44403
  19     114.6      166.4603        8.7627      365.7513      374.5139     208.053592       0.38788
  18     136.5      165.8318       10.2745      362.7231      372.9976     207.165755       0.34139
  17     162.9      165.0793       12.0308      359.1748      371.2056     206.126251       0.33227
  16     196.4      164.0839       14.2436      354.5718      368.8155     204.731571       0.35106
  15     218.7      163.4288       15.6579      351.4437      367.1016     203.672810       0.40197
  14     243.0      162.7223       17.1613      347.7111      364.8725     202.150135       0.52811
  13     269.0      161.9644       18.7519      342.9441      361.6960     199.731635       0.78455
  12     297.5      161.1557       20.4272      337.4137      357.8409     196.685195       0.90354
  11     328.5      160.2993       22.1886      331.1302      353.3188     193.019586       0.99667
  10     361.9      159.3982       24.0305      324.1219      348.1524     188.754110       1.07921
   9     398.1      158.4540       25.9518      316.6066      342.5584     184.104405       1.08328
   8     437.6      157.4720       27.9478      308.5895      336.5373     179.065312       1.07739
   7     480.5      156.4610       30.0124      299.9349      329.9473     173.486317       1.09569
   6     533.0      155.2779       32.4542      289.7021      322.1564     166.878423       1.06300
   5     589.8      154.0814       34.9701      279.3388      314.3089     160.227502       0.98721
   4     651.6      152.8946       37.5475      268.7786      306.3261     153.431506       0.92937
   3     718.7      151.7308       40.1770      258.2837      298.4606     146.729820       0.84222
   2     792.3      150.6061       42.8439      248.0774      290.9213     140.315201       0.73568
   1     891.5      149.3127       46.2158      235.5216      281.7374     132.424698       0.67144
   0    1013.0      148.2234       49.9415      221.4731      271.4146     123.191177       0.64113



 Wavenumbers:  2600. -  3250. cm-1, ATM      1
 LEVEL PRESSURE   UPWARD FLUX   DIFDOWN FLUX  DIRDOWN FLUX  DOWNWARD FLUX   NET FLUX    HEATING RATE
          mb          W/m2          W/m2          W/m2        W/m2          W/m2       degree/day
  51    .06700        0.2237        0.0000        3.5066        3.5066       3.282877       0.00000
  50    .07753        0.2237        0.0000        3.5066        3.5066       3.282869       0.00640
  49    .09103        0.2237        0.0000        3.5066        3.5066       3.282859       0.00627
  48    0.1069        0.2237        0.0000        3.5066        3.5066       3.282847       0.00613
  47    0.1255        0.2237        0.0000        3.5066        3.5066       3.282834       0.00599
  46    0.1487        0.2237        0.0000        3.5066        3.5066       3.282818       0.00607
  45    0.1794        0.2237        0.0000        3.5065        3.5065       3.282795       0.00624
  44    0.2165        0.2237        0.0000        3.5065        3.5065       3.282768       0.00611
  43    0.2613        0.2237        0.0000        3.5065        3.5065       3.282736       0.00598
  42    0.3336        0.2237        0.0000        3.5064        3.5064       3.282683       0.00615
  41    0.4307        0.2237        0.0000        3.5064        3.5064       3.282612       0.00618
  40    0.5894        0.2237        0.0000        3.5062        3.5062       3.282493       0.00633
  39     1.339        0.2237        0.0000        3.5055        3.5055       3.281795       0.00787
  38     1.782        0.2237        0.0000        3.5050        3.5050       3.281264       0.01011
  37     2.292        0.2237        0.0000        3.5043        3.5043       3.280571       0.01147
  36     2.964        0.2237        0.0000        3.5033        3.5033       3.279580       0.01245
  35     3.853        0.2237        0.0000        3.5019        3.5019       3.278203       0.01307
  34     5.035        0.2237        0.0000        3.5001        3.5001       3.276342       0.01329
  33     6.613        0.2237        0.0000        3.4977        3.4977       3.273932       0.01288
  32     8.786        0.2237        0.0000        3.4947        3.4947       3.270961       0.01154
  31     11.80        0.2237        0.0000        3.4911        3.4911       3.267326       0.01018
  30     15.07        0.2237        0.0000        3.4878        3.4878       3.264105       0.00832
  29     18.79        0.2237        0.0000        3.4848        3.4848       3.261042       0.00695
  28     23.16        0.2237        0.0000        3.4816        3.4816       3.257822       0.00623
  27     28.12        0.2237        0.0000        3.4779        3.4779       3.254204       0.00615
  26     33.73        0.2237        0.0000        3.4735        3.4735       3.249738       0.00671
  25     40.54        0.2237        0.0000        3.4671        3.4671       3.243413       0.00785
  24     48.69        0.2237        0.0000        3.4582        3.4583       3.234518       0.00920
  23     57.69        0.2237        0.0000        3.4472        3.4472       3.223471       0.01036
  22     68.43        0.2237        0.0000        3.4329        3.4329       3.209212       0.01121
  21     81.20        0.2237        0.0000        3.4152        3.4152       3.191485       0.01171
  20     96.49        0.2237        0.0000        3.3940        3.3941       3.170343       0.01167
  19     114.6        0.2237        0.0000        3.3692        3.3692       3.145456       0.01162
  18     136.5        0.2238        0.0001        3.3419        3.3420       3.118242       0.01046
  17     162.9        0.2238        0.0001        3.3129        3.3129       3.089172       0.00929
  16     196.4        0.2238        0.0001        3.2793        3.2794       3.055606       0.00845
  15     218.7        0.2238        0.0001        3.2578        3.2578       3.033995       0.00820
  14     243.0        0.2239        0.0001        3.2320        3.2320       3.008132       0.00897
  13     269.0        0.2240        0.0001        3.1968        3.1969       2.972897       0.01143
  12     297.5        0.2242        0.0001        3.1489        3.1490       2.924835       0.01425
  11     328.5        0.2245        0.0001        3.0821        3.0822       2.857683       0.01826
  10     361.9        0.2249        0.0001        2.9902        2.9904       2.765463       0.02333
   9     398.1        0.2255        0.0001        2.8715        2.8716       2.646147       0.02780
   8     437.6        0.2263        0.0001        2.7276        2.7278       2.501501       0.03093
   7     480.5        0.2275        0.0001        2.5595        2.5597       2.332175       0.03326
   6     533.0        0.2295        0.0001        2.3617        2.3619       2.132414       0.03214
   5     589.8        0.2323        0.0002        2.1649        2.1651       1.932744       0.02964
   4     651.6        0.2365        0.0002        1.9608        1.9609       1.724465       0.02848
   3     718.7        0.2421        0.0002        1.7593        1.7595       1.517416       0.02602
   2     792.3        0.2494        0.0002        1.5761        1.5762       1.326822       0.02186
   1     891.5        0.2620        0.0002        1.3714        1.3716       1.109607       0.01848
   0    1013.0        0.2847        0.0002        1.1584        1.1586       0.873817       0.01637



 Wavenumbers:  3250. -  4000. cm-1, ATM      1
 LEVEL PRESSURE   UPWARD FLUX   DIFDOWN FLUX  DIRDOWN FLUX  DOWNWARD FLUX   NET FLUX    HEATING RATE
          mb          W/m2          W/m2          W/m2        W/m2          W/m2       degree/day
  51    .06700        0.0004        0.0000        5.9117        5.9117       5.911216       0.00000
  50    .07753        0.0004        0.0000        5.9075        5.9075       5.907026       3.35808
  49    .09103        0.0004        0.0000        5.9050        5.9050       5.904584       1.52677
  48    0.1069        0.0004        0.0000        5.9032        5.9032       5.902717       0.99346
  47    0.1255        0.0004        0.0000        5.9014        5.9014       5.900959       0.79708
  46    0.1487        0.0004        0.0000        5.8995        5.8995       5.899070       0.68848
  45    0.1794        0.0004        0.0000        5.8974        5.8974       5.896922       0.58983
  44    0.2165        0.0004        0.0000        5.8952        5.8952       5.894805       0.48155
  43    0.2613        0.0004        0.0000        5.8931        5.8931       5.892646       0.40696
  42    0.3336        0.0004        0.0000        5.8899        5.8899       5.889488       0.36820
  41    0.4307        0.0004        0.0000        5.8861        5.8861       5.885651       0.33365
  40    0.5894        0.0004        0.0000        5.8803        5.8803       5.879848       0.30857
  39     1.339        0.0004        0.0000        5.8597        5.8597       5.859251       0.23189
  38     1.782        0.0004        0.0000        5.8513        5.8513       5.850826       0.16039
  37     2.292        0.0004        0.0000        5.8431        5.8431       5.842655       0.13533
  36     2.964        0.0004        0.0000        5.8334        5.8334       5.833015       0.12100
  35     3.853        0.0004        0.0000        5.8213        5.8213       5.820840       0.11555
  34     5.035        0.0004        0.0000        5.8052        5.8052       5.804745       0.11498
  33     6.613        0.0004        0.0000        5.7833        5.7834       5.782923       0.11666
  32     8.786        0.0004        0.0000        5.7531        5.7531       5.752722       0.11729
  31     11.80        0.0004        0.0000        5.7090        5.7090       5.708553       0.12366
  30     15.07        0.0004        0.0000        5.6615        5.6615       5.661088       0.12254
  29     18.79        0.0004        0.0000        5.6093        5.6094       5.608953       0.11821
  28     23.16        0.0004        0.0000        5.5524        5.5524       5.552027       0.11008
  27     28.12        0.0004        0.0000        5.4935        5.4935       5.493148       0.10009
  26     33.73        0.0004        0.0000        5.4348        5.4349       5.434459       0.08824
  25     40.54        0.0004        0.0001        5.3707        5.3708       5.370398       0.07948
  24     48.69        0.0004        0.0001        5.2985        5.2985       5.298165       0.07475
  23     57.69        0.0004        0.0001        5.2215        5.2216       5.221226       0.07212
  22     68.43        0.0003        0.0001        5.1318        5.1319       5.131566       0.07048
  21     81.20        0.0003        0.0001        5.0284        5.0285       5.028136       0.06834
  20     96.49        0.0003        0.0001        4.9122        4.9123       4.912002       0.06410
  19     114.6        0.0003        0.0001        4.7780        4.7782       4.777891       0.06262
  18     136.5        0.0003        0.0002        4.6285        4.6287       4.628413       0.05748
  17     162.9        0.0002        0.0002        4.4406        4.4407       4.440500       0.06006
  16     196.4        0.0002        0.0002        4.1548        4.1550       4.154827       0.07191
  15     218.7        0.0002        0.0002        3.9564        3.9566       3.956446       0.07532
  14     243.0        0.0002        0.0002        3.7055        3.7058       3.705612       0.08700
  13     269.0        0.0001        0.0002        3.3399        3.3401       3.339973       0.11861
  12     297.5        0.0001        0.0002        2.8954        2.8956       2.895483       0.13183
  11     328.5        0.0001        0.0002        2.4388        2.4390       2.438942       0.12413
  10     361.9        0.0001        0.0002        2.0269        2.0271       2.027003       0.10422
   9     398.1        0.0001        0.0002        1.6753        1.6755       1.675415       0.08191
   8     437.6        0.0001        0.0002        1.3592        1.3594       1.359296       0.06759
   7     480.5        0.0001        0.0002        1.0616        1.0618       1.061713       0.05844
   6     533.0        0.0001        0.0001        0.7543        0.7544       0.754377       0.04944
   5     589.8        0.0001        0.0001        0.4951        0.4952       0.495181       0.03847
   4     651.6        0.0001        0.0001        0.2943        0.2943       0.294278       0.02747
   3     718.7        0.0001        0.0001        0.1528        0.1529       0.152770       0.01778
   2     792.3        0.0001        0.0000        0.0658        0.0658       0.065710       0.00998
   1     891.5        0.0003        0.0000        0.0157        0.0157       0.015360       0.00428
   0    1013.0        0.0013        0.0000        0.0013        0.0013       0.000051       0.00106



 Wavenumbers:  4000. -  4650. cm-1, ATM      1
 LEVEL PRESSURE   UPWARD FLUX   DIFDOWN FLUX  DIRDOWN FLUX  DOWNWARD FLUX   NET FLUX    HEATING RATE
          mb          W/m2          W/m2          W/m2        W/m2          W/m2       degree/day
  51    .06700        0.6305        0.0000        6.9421        6.9421       6.311550       0.00000
  50    .07753        0.6305        0.0000        6.9421        6.9421       6.311549       0.00079
  49    .09103        0.6305        0.0000        6.9421        6.9421       6.311548       0.00078
  48    0.1069        0.6305        0.0000        6.9421        6.9421       6.311547       0.00076
  47    0.1255        0.6305        0.0000        6.9421        6.9421       6.311545       0.00074
  46    0.1487        0.6305        0.0000        6.9421        6.9421       6.311543       0.00075
  45    0.1794        0.6305        0.0000        6.9421        6.9421       6.311540       0.00077
  44    0.2165        0.6305        0.0000        6.9421        6.9421       6.311537       0.00076
  43    0.2613        0.6305        0.0000        6.9420        6.9420       6.311533       0.00074
  42    0.3336        0.6305        0.0000        6.9420        6.9420       6.311526       0.00076
  41    0.4307        0.6305        0.0000        6.9420        6.9420       6.311518       0.00077
  40    0.5894        0.6305        0.0000        6.9420        6.9420       6.311503       0.00079
  39     1.339        0.6305        0.0000        6.9419        6.9419       6.311414       0.00100
  38     1.782        0.6305        0.0000        6.9418        6.9419       6.311345       0.00132
  37     2.292        0.6305        0.0000        6.9418        6.9418       6.311251       0.00155
  36     2.964        0.6305        0.0000        6.9416        6.9416       6.311112       0.00175
  35     3.853        0.6305        0.0000        6.9414        6.9414       6.310905       0.00196
  34     5.035        0.6305        0.0000        6.9411        6.9411       6.310601       0.00218
  33     6.613        0.6305        0.0000        6.9406        6.9406       6.310153       0.00239
  32     8.786        0.6305        0.0000        6.9399        6.9400       6.309493       0.00256
  31     11.80        0.6305        0.0000        6.9389        6.9389       6.308459       0.00290
  30     15.07        0.6305        0.0001        6.9377        6.9377       6.307250       0.00312
  29     18.79        0.6305        0.0001        6.9362        6.9362       6.305792       0.00330
  28     23.16        0.6304        0.0001        6.9343        6.9344       6.303990       0.00348
  27     28.12        0.6304        0.0001        6.9321        6.9322       6.301819       0.00369
  26     33.73        0.6304        0.0001        6.9294        6.9296       6.299155       0.00400
  25     40.54        0.6304        0.0001        6.9258        6.9260       6.295565       0.00445
  24     48.69        0.6304        0.0002        6.9210        6.9212       6.290813       0.00492
  23     57.69        0.6303        0.0002        6.9154        6.9156       6.285225       0.00524
  22     68.43        0.6303        0.0002        6.9083        6.9086       6.278281       0.00546
  21     81.20        0.6303        0.0003        6.8998        6.9001       6.269795       0.00561
  20     96.49        0.6302        0.0004        6.8894        6.8898       6.259551       0.00565
  19     114.6        0.6302        0.0004        6.8765        6.8770       6.246738       0.00598
  18     136.5        0.6302        0.0005        6.8610        6.8615       6.231294       0.00594
  17     162.9        0.6302        0.0006        6.8417        6.8423       6.212106       0.00613
  16     196.4        0.6301        0.0007        6.8147        6.8154       6.185229       0.00677
  15     218.7        0.6302        0.0008        6.7948        6.7956       6.165461       0.00751
  14     243.0        0.6302        0.0009        6.7698        6.7707       6.140421       0.00868
  13     269.0        0.6304        0.0010        6.7349        6.7358       6.105444       0.01135
  12     297.5        0.6306        0.0011        6.6869        6.6879       6.057298       0.01428
  11     328.5        0.6310        0.0012        6.6194        6.6205       5.989537       0.01842
  10     361.9        0.6315        0.0013        6.5295        6.5307       5.899218       0.02285
   9     398.1        0.6322        0.0014        6.4202        6.4216       5.789383       0.02559
   8     437.6        0.6331        0.0015        6.2962        6.2977       5.664522       0.02670
   7     480.5        0.6344        0.0016        6.1555        6.1571       5.522671       0.02786
   6     533.0        0.6365        0.0017        5.9675        5.9693       5.332754       0.03055
   5     589.8        0.6396        0.0019        5.7368        5.7386       5.099059       0.03469
   4     651.6        0.6440        0.0020        5.4662        5.4682       4.824216       0.03759
   3     718.7        0.6501        0.0021        5.1912        5.1933       4.543201       0.03532
   2     792.3        0.6580        0.0022        4.9395        4.9417       4.283736       0.02976
   1     891.5        0.6715        0.0024        4.6486        4.6510       3.979524       0.02589
   0    1013.0        0.6957        0.0025        4.3179        4.3204       3.624655       0.02464



 Wavenumbers:  4650. -  5150. cm-1, ATM      1
 LEVEL PRESSURE   UPWARD FLUX   DIFDOWN FLUX  DIRDOWN FLUX  DOWNWARD FLUX   NET FLUX    HEATING RATE
          mb          W/m2          W/m2          W/m2        W/m2          W/m2       degree/day
  51    .06700        0.4412        0.0000        6.5710        6.5710       6.129774       0.00000
  50    .07753        0.4412        0.0000        6.5708        6.5708       6.129538       0.18887
  49    .09103        0.4412        0.0000        6.5705        6.5705       6.129244       0.18362
  48    0.1069        0.4412        0.0000        6.5701        6.5701       6.128910       0.17806
  47    0.1255        0.4412        0.0000        6.5697        6.5697       6.128529       0.17238
  46    0.1487        0.4412        0.0000        6.5693        6.5693       6.128056       0.17268
  45    0.1794        0.4412        0.0000        6.5686        6.5686       6.127419       0.17473
  44    0.2165        0.4412        0.0000        6.5679        6.5679       6.126681       0.16788
  43    0.2613        0.4412        0.0000        6.5670        6.5670       6.125828       0.16078
  42    0.3336        0.4412        0.0000        6.5657        6.5657       6.124465       0.15894
  41    0.4307        0.4412        0.0000        6.5640        6.5640       6.122743       0.14971
  40    0.5894        0.4412        0.0000        6.5613        6.5613       6.120127       0.13913
  39     1.339        0.4412        0.0000        6.5516        6.5516       6.110349       0.11008
  38     1.782        0.4412        0.0000        6.5473        6.5473       6.106134       0.08026
  37     2.292        0.4412        0.0000        6.5434        6.5435       6.102247       0.06438
  36     2.964        0.4412        0.0000        6.5395        6.5395       6.098292       0.04964
  35     3.853        0.4412        0.0000        6.5355        6.5356       6.094350       0.03742
  34     5.035        0.4412        0.0000        6.5315        6.5315       6.090348       0.02859
  33     6.613        0.4412        0.0000        6.5271        6.5271       6.085954       0.02349
  32     8.786        0.4412        0.0000        6.5216        6.5216       6.080460       0.02134
  31     11.80        0.4412        0.0001        6.5135        6.5135       6.072383       0.02261
  30     15.07        0.4411        0.0001        6.5041        6.5042       6.063016       0.02418
  29     18.79        0.4411        0.0001        6.4925        6.4926       6.051503       0.02610
  28     23.16        0.4411        0.0001        6.4779        6.4780       6.036915       0.02821
  27     28.12        0.4411        0.0002        6.4599        6.4600       6.018945       0.03055
  26     33.73        0.4411        0.0002        6.4384        6.4386       5.997522       0.03221
  25     40.54        0.4410        0.0002        6.4112        6.4114       5.970407       0.03364
  24     48.69        0.4410        0.0003        6.3775        6.3778       5.936786       0.03479
  23     57.69        0.4410        0.0003        6.3404        6.3407       5.899715       0.03475
  22     68.43        0.4409        0.0004        6.2971        6.2975       5.856553       0.03393
  21     81.20        0.4409        0.0004        6.2483        6.2487       5.807779       0.03223
  20     96.49        0.4409        0.0005        6.1948        6.1953       5.754464       0.02943
  19     114.6        0.4408        0.0006        6.1381        6.1388       5.697906       0.02641
  18     136.5        0.4408        0.0007        6.0790        6.0797       5.638904       0.02269
  17     162.9        0.4408        0.0009        6.0160        6.0169       5.576092       0.02008
  16     196.4        0.4408        0.0010        5.9399        5.9409       5.500076       0.01913
  15     218.7        0.4408        0.0011        5.8896        5.8908       5.449917       0.01904
  14     243.0        0.4409        0.0012        5.8322        5.8334       5.392516       0.01991
  13     269.0        0.4410        0.0014        5.7624        5.7638       5.322719       0.02264
  12     297.5        0.4413        0.0015        5.6767        5.6782       5.236943       0.02544
  11     328.5        0.4416        0.0016        5.5726        5.5742       5.132578       0.02838
  10     361.9        0.4422        0.0018        5.4473        5.4491       5.006925       0.03179
   9     398.1        0.4429        0.0019        5.2995        5.3014       4.858480       0.03458
   8     437.6        0.4439        0.0020        5.1275        5.1295       4.685573       0.03697
   7     480.5        0.4453        0.0022        4.9290        4.9311       4.485780       0.03924
   6     533.0        0.4476        0.0023        4.6794        4.6817       4.234036       0.04050
   5     589.8        0.4509        0.0024        4.4188        4.4212       3.970340       0.03914
   4     651.6        0.4554        0.0025        4.1521        4.1546       3.699199       0.03708
   3     718.7        0.4615        0.0027        3.8929        3.8956       3.434055       0.03332
   2     792.3        0.4695        0.0028        3.6469        3.6496       3.180157       0.02912
   1     891.5        0.4830        0.0029        3.3535        3.3564       2.873319       0.02611
   0    1013.0        0.5064        0.0030        3.0383        3.0414       2.535008       0.02349



 Wavenumbers:  5150. -  6150. cm-1, ATM      1
 LEVEL PRESSURE   UPWARD FLUX   DIFDOWN FLUX  DIRDOWN FLUX  DOWNWARD FLUX   NET FLUX    HEATING RATE
          mb          W/m2          W/m2          W/m2        W/m2          W/m2       degree/day
  51    .06700        1.2396        0.0000       16.4735       16.4735      15.233895       0.00000
  50    .07753        1.2396        0.0000       16.4735       16.4735      15.233860       0.02761
  49    .09103        1.2396        0.0000       16.4734       16.4734      15.233815       0.02810
  48    0.1069        1.2396        0.0000       16.4734       16.4734      15.233761       0.02859
  47    0.1255        1.2396        0.0000       16.4733       16.4733      15.233697       0.02904
  46    0.1487        1.2396        0.0000       16.4732       16.4732      15.233613       0.03059
  45    0.1794        1.2396        0.0000       16.4731       16.4731      15.233494       0.03269
  44    0.2165        1.2396        0.0000       16.4730       16.4730      15.233348       0.03331
  43    0.2613        1.2396        0.0000       16.4728       16.4728      15.233169       0.03376
  42    0.3336        1.2396        0.0000       16.4725       16.4725      15.232863       0.03564
  41    0.4307        1.2396        0.0000       16.4720       16.4720      15.232444       0.03645
  40    0.5894        1.2396        0.0000       16.4713       16.4713      15.231743       0.03728
  39     1.339        1.2396        0.0000       16.4679       16.4679      15.228334       0.03837
  38     1.782        1.2396        0.0000       16.4659       16.4659      15.226335       0.03806
  37     2.292        1.2396        0.0001       16.4635       16.4636      15.224044       0.03795
  36     2.964        1.2395        0.0001       16.4605       16.4606      15.221075       0.03727
  35     3.853        1.2395        0.0001       16.4567       16.4567      15.217222       0.03656
  34     5.035        1.2395        0.0001       16.4516       16.4517      15.212226       0.03569
  33     6.613        1.2395        0.0002       16.4451       16.4452      15.205767       0.03453
  32     8.786        1.2394        0.0002       16.4367       16.4369      15.197456       0.03227
  31     11.80        1.2394        0.0003       16.4254       16.4257      15.186308       0.03121
  30     15.07        1.2393        0.0004       16.4141       16.4145      15.175224       0.02862
  29     18.79        1.2392        0.0005       16.4024       16.4029      15.163707       0.02611
  28     23.16        1.2391        0.0006       16.3900       16.3906      15.151450       0.02370
  27     28.12        1.2390        0.0007       16.3771       16.3778      15.138792       0.02152
  26     33.73        1.2389        0.0009       16.3641       16.3650      15.126073       0.01912
  25     40.54        1.2388        0.0010       16.3502       16.3512      15.112442       0.01691
  24     48.69        1.2386        0.0012       16.3354       16.3366      15.097983       0.01496
  23     57.69        1.2384        0.0015       16.3211       16.3225      15.084100       0.01301
  22     68.43        1.2382        0.0017       16.3062       16.3080      15.069735       0.01129
  21     81.20        1.2380        0.0021       16.2903       16.2924      15.054370       0.01015
  20     96.49        1.2377        0.0024       16.2726       16.2751      15.037331       0.00940
  19     114.6        1.2374        0.0029       16.2521       16.2550      15.017561       0.00923
  18     136.5        1.2370        0.0034       16.2245       16.2280      14.990953       0.01023
  17     162.9        1.2366        0.0041       16.1747       16.1788      14.942234       0.01557
  16     196.4        1.2360        0.0049       16.0518       16.0568      14.820719       0.03059
  15     218.7        1.2357        0.0054       15.8984       15.9038      14.668132       0.05793
  14     243.0        1.2353        0.0060       15.6153       15.6212      14.385898       0.09789
  13     269.0        1.2350        0.0064       15.1390       15.1454      13.910473       0.15423
  12     297.5        1.2346        0.0069       14.5779       14.5848      13.350157       0.16618
  11     328.5        1.2344        0.0073       13.8780       13.8854      12.650971       0.19011
  10     361.9        1.2342        0.0077       13.0814       13.0892      11.854920       0.20141
   9     398.1        1.2342        0.0080       12.2728       12.2809      11.046666       0.18831
   8     437.6        1.2344        0.0083       11.4776       11.4859      10.251489       0.17001
   7     480.5        1.2349        0.0086       10.7300       10.7385       9.503628       0.14688
   6     533.0        1.2361        0.0089       10.0326       10.0415       8.805436       0.11232
   5     589.8        1.2381        0.0093        9.5050        9.5143       8.276260       0.07855
   4     651.6        1.2414        0.0098        9.0814        9.0912       7.849792       0.05832
   3     718.7        1.2463        0.0104        8.7024        8.7128       7.466482       0.04817
   2     792.3        1.2532        0.0110        8.3379        8.3490       7.095761       0.04252
   1     891.5        1.2661        0.0119        7.9064        7.9182       6.652099       0.03775
   0    1013.0        1.2930        0.0128        7.4741        7.4869       6.193838       0.03182



 Wavenumbers:  6150. -  7700. cm-1, ATM      1
 LEVEL PRESSURE   UPWARD FLUX   DIFDOWN FLUX  DIRDOWN FLUX  DOWNWARD FLUX   NET FLUX    HEATING RATE
          mb          W/m2          W/m2          W/m2        W/m2          W/m2       degree/day
  51    .06700        1.8713        0.0000       30.4684       30.4684      28.597129       0.00000
  50    .07753        1.8713        0.0000       30.4683       30.4683      28.597077       0.04144
  49    .09103        1.8713        0.0000       30.4683       30.4683      28.597011       0.04174
  48    0.1069        1.8713        0.0000       30.4682       30.4682      28.596932       0.04202
  47    0.1255        1.8712        0.0000       30.4681       30.4681      28.596838       0.04227
  46    0.1487        1.8712        0.0000       30.4680       30.4680      28.596717       0.04411
  45    0.1794        1.8712        0.0000       30.4678       30.4678      28.596547       0.04669
  44    0.2165        1.8712        0.0000       30.4676       30.4676      28.596340       0.04715
  43    0.2613        1.8712        0.0000       30.4673       30.4673      28.596088       0.04744
  42    0.3336        1.8712        0.0000       30.4669       30.4669      28.595662       0.04974
  41    0.4307        1.8712        0.0000       30.4663       30.4663      28.595081       0.05052
  40    0.5894        1.8712        0.0001       30.4653       30.4653      28.594113       0.05146
  39     1.339        1.8711        0.0001       30.4604       30.4606      28.589429       0.05273
  38     1.782        1.8711        0.0002       30.4576       30.4578      28.586680       0.05235
  37     2.292        1.8710        0.0002       30.4543       30.4545      28.583521       0.05231
  36     2.964        1.8710        0.0003       30.4501       30.4504      28.579414       0.05156
  35     3.853        1.8709        0.0004       30.4445       30.4449      28.574057       0.05084
  34     5.035        1.8707        0.0005       30.4373       30.4378      28.567057       0.05000
  33     6.613        1.8706        0.0007       30.4278       30.4285      28.557909       0.04890
  32     8.786        1.8704        0.0009       30.4154       30.4163      28.545957       0.04642
  31     11.80        1.8701        0.0013       30.3984       30.3996      28.529571       0.04587
  30     15.07        1.8697        0.0016       30.3810       30.3826      28.512858       0.04315
  29     18.79        1.8694        0.0020       30.3623       30.3643      28.494958       0.04059
  28     23.16        1.8689        0.0025       30.3417       30.3442      28.475275       0.03806
  27     28.12        1.8684        0.0030       30.3196       30.3226      28.454175       0.03587
  26     33.73        1.8678        0.0036       30.2965       30.3001      28.432257       0.03295
  25     40.54        1.8672        0.0043       30.2708       30.2751      28.407920       0.03019
  24     48.69        1.8663        0.0052       30.2423       30.2475      28.381144       0.02771
  23     57.69        1.8654        0.0062       30.2139       30.2200      28.354579       0.02490
  22     68.43        1.8644        0.0073       30.1834       30.1907      28.326305       0.02223
  21     81.20        1.8631        0.0087       30.1500       30.1587      28.295578       0.02030
  20     96.49        1.8615        0.0103       30.1126       30.1229      28.261362       0.01888
  19     114.6        1.8597        0.0122       30.0695       30.0817      28.221979       0.01839
  18     136.5        1.8576        0.0145       30.0139       30.0284      28.170829       0.01967
  17     162.9        1.8550        0.0172       29.9225       29.9397      28.084660       0.02754
  16     196.4        1.8517        0.0207       29.7333       29.7540      27.902292       0.04590
  15     218.7        1.8495        0.0229       29.5259       29.5487      27.699183       0.07711
  14     243.0        1.8473        0.0252       29.1375       29.1626      27.315392       0.13311
  13     269.0        1.8449        0.0274       28.3800       28.4074      26.562490       0.24424
  12     297.5        1.8425        0.0294       27.3895       27.4190      25.576457       0.29245
  11     328.5        1.8402        0.0314       26.2257       26.2571      24.416869       0.31529
  10     361.9        1.8381        0.0331       24.8453       24.8785      23.040385       0.34826
   9     398.1        1.8362        0.0346       23.3471       23.3817      21.545442       0.34829
   8     437.6        1.8349        0.0359       21.7966       21.8325      19.997573       0.33094
   7     480.5        1.8345        0.0368       20.1977       20.2345      18.399996       0.31376
   6     533.0        1.8357        0.0377       18.4969       18.5346      16.698935       0.27365
   5     589.8        1.8394        0.0386       16.9754       17.0140      15.174534       0.22627
   4     651.6        1.8471        0.0395       15.6022       15.6416      13.794503       0.18872
   3     718.7        1.8597        0.0405       14.4232       14.4637      12.604026       0.14961
   2     792.3        1.8778        0.0417       13.4386       13.4804      11.602525       0.11486
   1     891.5        1.9126        0.0435       12.3736       12.4171      10.504457       0.09344
   0    1013.0        1.9844        0.0454       11.2911       11.3365       9.352088       0.08001



 Wavenumbers:  7700. -  8050. cm-1, ATM      1
 LEVEL PRESSURE   UPWARD FLUX   DIFDOWN FLUX  DIRDOWN FLUX  DOWNWARD FLUX   NET FLUX    HEATING RATE
          mb          W/m2          W/m2          W/m2        W/m2          W/m2       degree/day
  51    .06700        1.0065        0.0000        7.2006        7.2006       6.194079       0.00000
  50    .07753        1.0065        0.0000        7.2006        7.2006       6.194060       0.01473
  49    .09103        1.0065        0.0000        7.2005        7.2005       6.194037       0.01443
  48    0.1069        1.0065        0.0000        7.2005        7.2005       6.194011       0.01413
  47    0.1255        1.0065        0.0000        7.2005        7.2005       6.193980       0.01383
  46    0.1487        1.0065        0.0000        7.2004        7.2005       6.193942       0.01403
  45    0.1794        1.0065        0.0000        7.2004        7.2004       6.193889       0.01443
  44    0.2165        1.0065        0.0000        7.2003        7.2003       6.193827       0.01416
  43    0.2613        1.0065        0.0000        7.2003        7.2003       6.193753       0.01389
  42    0.3336        1.0065        0.0000        7.2001        7.2001       6.193631       0.01422
  41    0.4307        1.0065        0.0000        7.2000        7.2000       6.193470       0.01406
  40    0.5894        1.0065        0.0000        7.1997        7.1997       6.193205       0.01404
  39     1.339        1.0065        0.0001        7.1984        7.1985       6.191957       0.01406
  38     1.782        1.0065        0.0001        7.1977        7.1978       6.191223       0.01396
  37     2.292        1.0066        0.0001        7.1968        7.1969       6.190375       0.01405
  36     2.964        1.0066        0.0001        7.1957        7.1958       6.189261       0.01398
  35     3.853        1.0066        0.0002        7.1942        7.1944       6.187791       0.01395
  34     5.035        1.0066        0.0002        7.1922        7.1924       6.185839       0.01394
  33     6.613        1.0066        0.0003        7.1896        7.1899       6.183235       0.01392
  32     8.786        1.0067        0.0004        7.1860        7.1864       6.179731       0.01361
  31     11.80        1.0067        0.0005        7.1810        7.1815       6.174730       0.01400
  30     15.07        1.0068        0.0006        7.1755        7.1762       6.169377       0.01382
  29     18.79        1.0069        0.0008        7.1694        7.1702       6.163351       0.01366
  28     23.16        1.0070        0.0010        7.1623        7.1633       6.156340       0.01356
  27     28.12        1.0071        0.0012        7.1542        7.1555       6.148360       0.01357
  26     33.73        1.0072        0.0014        7.1452        7.1467       6.139478       0.01335
  25     40.54        1.0074        0.0017        7.1344        7.1362       6.128815       0.01323
  24     48.69        1.0075        0.0021        7.1215        7.1236       6.116060       0.01320
  23     57.69        1.0077        0.0025        7.1074        7.1099       6.102173       0.01302
  22     68.43        1.0080        0.0029        7.0909        7.0938       6.085804       0.01287
  21     81.20        1.0083        0.0034        7.0713        7.0748       6.066537       0.01273
  20     96.49        1.0086        0.0041        7.0484        7.0525       6.043908       0.01249
  19     114.6        1.0090        0.0048        7.0217        7.0265       6.017486       0.01234
  18     136.5        1.0095        0.0057        6.9906        6.9963       5.986773       0.01181
  17     162.9        1.0102        0.0068        6.9544        6.9612       5.951005       0.01143
  16     196.4        1.0110        0.0082        6.9087        6.9169       5.905858       0.01136
  15     218.7        1.0116        0.0091        6.8794        6.8885       5.876858       0.01101
  14     243.0        1.0123        0.0100        6.8481        6.8581       5.845865       0.01075
  13     269.0        1.0130        0.0111        6.8147        6.8258       5.812777       0.01073
  12     297.5        1.0138        0.0122        6.7791        6.7913       5.777424       0.01049
  11     328.5        1.0148        0.0134        6.7409        6.7543       5.739548       0.01030
  10     361.9        1.0159        0.0147        6.7002        6.7149       5.698945       0.01027
   9     398.1        1.0172        0.0161        6.6563        6.6724       5.655150       0.01020
   8     437.6        1.0188        0.0176        6.6089        6.6264       5.607683       0.01015
   7     480.5        1.0206        0.0192        6.5570        6.5762       5.555551       0.01024
   6     533.0        1.0232        0.0211        6.4915        6.5126       5.489358       0.01065
   5     589.8        1.0265        0.0232        6.4182        6.4414       5.414921       0.01105
   4     651.6        1.0306        0.0254        6.3359        6.3612       5.330654       0.01152
   3     718.7        1.0357        0.0277        6.2441        6.2718       5.236164       0.01187
   2     792.3        1.0418        0.0301        6.1437        6.1738       5.132084       0.01194
   1     891.5        1.0512        0.0333        6.0042        6.0375       4.986310       0.01240
   0    1013.0        1.0650        0.0370        5.8249        5.8619       4.796890       0.01315



 Wavenumbers:  8050. - 12850. cm-1, ATM      1
 LEVEL PRESSURE   UPWARD FLUX   DIFDOWN FLUX  DIRDOWN FLUX  DOWNWARD FLUX   NET FLUX    HEATING RATE
          mb          W/m2          W/m2          W/m2        W/m2          W/m2       degree/day
  51    .06700       19.8444        0.0000      100.8135      100.8135      80.969106       0.00000
  50    .07753       19.8444        0.0000      100.8135      100.8135      80.969106       0.00000
  49    .09103       19.8444        0.0001      100.8134      100.8135      80.969106       0.00000
  48    0.1069       19.8443        0.0001      100.8134      100.8134      80.969106       0.00000
  47    0.1255       19.8443        0.0001      100.8133      100.8134      80.969106       0.00000
  46    0.1487       19.8443        0.0002      100.8132      100.8134      80.969106       0.00000
  45    0.1794       19.8442        0.0002      100.8131      100.8133      80.969106       0.00000
  44    0.2165       19.8441        0.0003      100.8129      100.8132      80.969106      -0.00000
  43    0.2613       19.8441        0.0004      100.8127      100.8132      80.969106       0.00000
  42    0.3336       19.8439        0.0006      100.8125      100.8130      80.969106      -0.00000
  41    0.4307       19.8438        0.0008      100.8121      100.8129      80.969106       0.00000
  40    0.5894       19.8435        0.0011      100.8115      100.8126      80.969106      -0.00000
  39     1.339       19.8421        0.0027      100.8085      100.8112      80.969106       0.00000
  38     1.782       19.8413        0.0037      100.8068      100.8105      80.969106       0.00000
  37     2.292       19.8404        0.0048      100.8047      100.8095      80.969106       0.00000
  36     2.964       19.8392        0.0062      100.8021      100.8083      80.969106      -0.00000
  35     3.853       19.8377        0.0081      100.7986      100.8068      80.969106       0.00000
  34     5.035       19.8355        0.0107      100.7940      100.8047      80.969106       0.00000
  33     6.613       19.8327        0.0141      100.7878      100.8018      80.969106       0.00000
  32     8.786       19.8289        0.0186      100.7794      100.7980      80.969106       0.00000
  31     11.80       19.8235        0.0252      100.7674      100.7926      80.969106      -0.00000
  30     15.07       19.8177        0.0322      100.7546      100.7868      80.969106       0.00000
  29     18.79       19.8111        0.0402      100.7400      100.7802      80.969106       0.00000
  28     23.16       19.8033        0.0495      100.7230      100.7725      80.969106      -0.00000
  27     28.12       19.7945        0.0601      100.7035      100.7636      80.969106       0.00000
  26     33.73       19.7846        0.0721      100.6817      100.7537      80.969106       0.00000
  25     40.54       19.7726        0.0865      100.6552      100.7417      80.969106       0.00000
  24     48.69       19.7581        0.1039      100.6234      100.7273      80.969106       0.00000
  23     57.69       19.7422        0.1231      100.5883      100.7113      80.969106      -0.00000
  22     68.43       19.7232        0.1459      100.5464      100.6923      80.969106       0.00000
  21     81.20       19.7006        0.1732      100.4965      100.6697      80.969106       0.00000
  20     96.49       19.6735        0.2057      100.4370      100.6426      80.969106      -0.00000
  19     114.6       19.6414        0.2443      100.3585      100.6028      80.961429       0.00358
  18     136.5       19.6032        0.2903      100.2634      100.5536      80.950377       0.00425
  17     162.9       19.5577        0.3450      100.1407      100.4857      80.927945       0.00717
  16     196.4       19.4986        0.4161       99.9505      100.3666      80.867983       0.01509
  15     218.7       19.4597        0.4628       99.7889      100.2517      80.791993       0.02885
  14     243.0       19.4175        0.5135       99.5472      100.0607      80.643117       0.05164
  13     269.0       19.3721        0.5680       99.1452       99.7133      80.341121       0.09797
  12     297.5       19.3238        0.6265       98.5975       99.2240      79.900243       0.13076
  11     328.5       19.2726        0.6891       97.8659       98.5550      79.282342       0.16801
  10     361.9       19.2194        0.7555       96.8848       97.6403      78.420855       0.21796
   9     398.1       19.1649        0.8255       95.6330       96.4585      77.293552       0.26264
   8     437.6       19.1107        0.8986       94.0655       94.9640      75.853371       0.30792
   7     480.5       19.0599        0.9738       92.0807       93.0545      73.994655       0.36504
   6     533.0       19.0096        1.0623       89.4449       90.5071      71.497484       0.40172
   5     589.8       18.9734        1.1532       86.5544       87.7076      68.734191       0.41016
   4     651.6       18.9607        1.2462       83.4174       84.6635      65.702827       0.41455
   3     718.7       18.9771        1.3418       80.2037       81.5455      62.568343       0.39392
   2     792.3       19.0277        1.4407       77.0811       78.5218      59.494070       0.35258
   1     891.5       19.1654        1.5679       73.2645       74.8324      55.666951       0.32567
   0    1013.0       19.5111        1.7084       68.9425       70.6509      51.139773       0.31435



 Wavenumbers: 12850. - 16000. cm-1, ATM      1
 LEVEL PRESSURE   UPWARD FLUX   DIFDOWN FLUX  DIRDOWN FLUX  DOWNWARD FLUX   NET FLUX    HEATING RATE
          mb          W/m2          W/m2          W/m2        W/m2          W/m2       degree/day
  51    .06700       30.0818        0.0000       63.1686       63.1686      33.086761       0.00000
  50    .07753       30.0818        0.0001       63.1677       63.1678      33.085983       0.62386
  49    .09103       30.0817        0.0001       63.1666       63.1668      33.085013       0.60614
  48    0.1069       30.0817        0.0002       63.1654       63.1656      33.083909       0.58759
  47    0.1255       30.0817        0.0003       63.1640       63.1643      33.082654       0.56895
  46    0.1487       30.0816        0.0004       63.1623       63.1627      33.081090       0.57026
  45    0.1794       30.0816        0.0006       63.1600       63.1605      33.078993       0.57562
  44    0.2165       30.0815        0.0008       63.1573       63.1581      33.076570       0.55125
  43    0.2613       30.0814        0.0010       63.1542       63.1552      33.073777       0.52647
  42    0.3336       30.0813        0.0013       63.1493       63.1506      33.069331       0.51833
  41    0.4307       30.0812        0.0018       63.1431       63.1450      33.063778       0.48283
  40    0.5894       30.0811        0.0026       63.1338       63.1365      33.055383       0.44646
  39     1.339       30.0816        0.0064       63.0956       63.1020      33.020377       0.39410
  38     1.782       30.0827        0.0086       63.0740       63.0826      32.999934       0.38920
  37     2.292       30.0847        0.0112       63.0477       63.0588      32.974103       0.42783
  36     2.964       30.0885        0.0145       63.0095       63.0240      32.935517       0.48437
  35     3.853       30.0952        0.0190       62.9533       62.9722      32.877042       0.55494
  34     5.035       30.1056        0.0248       62.8725       62.8973      32.791768       0.60917
  33     6.613       30.1203        0.0327       62.7621       62.7947      32.674467       0.62709
  32     8.786       30.1392        0.0432       62.6182       62.6615      32.522233       0.59122
  31     11.80       30.1632        0.0583       62.4284       62.4866      32.323395       0.55668
  30     15.07       30.1854        0.0744       62.2426       62.3170      32.131639       0.49508
  29     18.79       30.2071        0.0925       62.0493       62.1418      31.934778       0.44634
  28     23.16       30.2286        0.1137       61.8424       61.9562      31.727506       0.40080
  27     28.12       30.2489        0.1378       61.6278       61.7657      31.516739       0.35829
  26     33.73       30.2653        0.1648       61.4177       61.5825      31.317169       0.30006
  25     40.54       30.2778        0.1973       61.1983       61.3956      31.117808       0.24733
  24     48.69       30.2858        0.2365       60.9680       61.2044      30.918633       0.20612
  23     57.69       30.2877        0.2794       60.7478       61.0272      30.739453       0.16795
  22     68.43       30.2826        0.3304       60.5202       60.8506      30.568046       0.13475
  21     81.20       30.2662        0.3912       60.2938       60.6850      30.418768       0.09864
  20     96.49       30.2374        0.4636       60.0643       60.5278      30.290415       0.07084
  19     114.6       30.2040        0.5500       59.8078       60.3577      30.153721       0.06383
  18     136.5       30.1601        0.6521       59.5157       60.1679      30.007768       0.05612
  17     162.9       30.1038        0.7735       59.1770       59.9505      29.846699       0.05148
  16     196.4       30.0224        0.9303       58.7604       59.6908      29.668386       0.04488
  15     218.7       29.9659        1.0331       58.4948       59.5279      29.561971       0.04040
  14     243.0       29.9032        1.1445       58.2089       59.3534      29.450203       0.03876
  13     269.0       29.8341        1.2649       57.9006       59.1655      29.331449       0.03852
  12     297.5       29.7585        1.3948       57.5668       58.9615      29.203024       0.03809
  11     328.5       29.6772        1.5346       57.2005       58.7351      29.057951       0.03944
  10     361.9       29.5904        1.6847       56.7963       58.4810      28.890586       0.04234
   9     398.1       29.4988        1.8456       56.3475       58.1931      28.694292       0.04573
   8     437.6       29.4035        2.0174       55.8422       57.8596      28.456156       0.05091
   7     480.5       29.3071        2.2003       55.2625       57.4629      28.155830       0.05898
   6     533.0       29.1980        2.4234       54.4972       56.9206      27.722547       0.06970
   5     589.8       29.0926        2.6605       53.6307       56.2911      27.198534       0.07778
   4     651.6       28.9959        2.9106       52.6606       55.5712      26.575306       0.08523
   3     718.7       28.9103        3.1742       51.6100       54.7842      25.873932       0.08814
   2     792.3       28.8391        3.4509       50.5019       53.9528      25.113676       0.08719
   1     891.5       28.7844        3.8151       49.0197       52.8348      24.050405       0.09048
   0    1013.0       28.8025        4.2365       47.2289       51.4654      22.662978       0.09634



 Wavenumbers: 16000. - 22650. cm-1, ATM      1
 LEVEL PRESSURE   UPWARD FLUX   DIFDOWN FLUX  DIRDOWN FLUX  DOWNWARD FLUX   NET FLUX    HEATING RATE
          mb          W/m2          W/m2          W/m2        W/m2          W/m2       degree/day
  51    .06700       73.4234        0.0000      100.7153      100.7153      27.291856       0.00000
  50    .07753       73.4233        0.0003      100.7147      100.7151      27.291740       0.09304
  49    .09103       73.4232        0.0007      100.7140      100.7147      27.291571       0.10553
  48    0.1069       73.4230        0.0012      100.7131      100.7143      27.291345       0.12034
  47    0.1255       73.4228        0.0017      100.7121      100.7138      27.291043       0.13717
  46    0.1487       73.4226        0.0024      100.7108      100.7132      27.290597       0.16254
  45    0.1794       73.4223        0.0033      100.7089      100.7122      27.289900       0.19138
  44    0.2165       73.4220        0.0044      100.7066      100.7110      27.288954       0.21509
  43    0.2613       73.4217        0.0057      100.7037      100.7094      27.287671       0.24181
  42    0.3336       73.4213        0.0079      100.6987      100.7066      27.285232       0.28436
  41    0.4307       73.4210        0.0107      100.6918      100.7025      27.281556       0.31964
  40    0.5894       73.4206        0.0154      100.6797      100.6951      27.274545       0.37283
  39     1.339       73.4242        0.0374      100.6095      100.6469      27.222759       0.58302
  38     1.782       73.4302        0.0504      100.5585      100.6088      27.178657       0.83963
  37     2.292       73.4408        0.0653      100.4903      100.5556      27.114840       1.05698
  36     2.964       73.4602        0.0850      100.3868      100.4717      27.011505       1.29716
  35     3.853       73.4938        0.1109      100.2306      100.3415      26.847661       1.55491
  34     5.035       73.5462        0.1453      100.0045      100.1497      26.603493       1.74424
  33     6.613       73.6202        0.1911       99.6939       99.8849      26.264707       1.81115
  32     8.786       73.7159        0.2527       99.2881       99.5407      25.824805       1.70842
  31     11.80       73.8376        0.3405       98.7496       99.0901      25.252445       1.60243
  30     15.07       73.9507        0.4344       98.2198       98.6542      24.703572       1.41708
  29     18.79       74.0625        0.5402       97.6651       98.2053      24.142798       1.27145
  28     23.16       74.1748        0.6632       97.0671       97.7303      23.555520       1.13560
  27     28.12       74.2819        0.8034       96.4406       97.2439      22.961996       1.00895
  26     33.73       74.3711        0.9597       95.8179       96.7776      22.406445       0.83529
  25     40.54       74.4435        1.1479       95.1548       96.3028      21.859286       0.67881
  24     48.69       74.4963        1.3739       94.4420       95.8159      21.319567       0.55852
  23     57.69       74.5213        1.6212       93.7416       95.3627      20.841447       0.44817
  22     68.43       74.5155        1.9143       92.9954       94.9097      20.394230       0.35157
  21     81.20       74.4598        2.2623       92.2231       94.4854      20.025606       0.24358
  20     96.49       74.3485        2.6749       91.4110       94.0859      19.737346       0.15910
  19     114.6       74.1944        3.1614       90.5070       93.6684      19.474003       0.12296
  18     136.5       73.9974        3.7331       89.4803       93.2133      19.215948       0.09923
  17     162.9       73.7506        4.4070       88.3022       92.7092      18.958574       0.08227
  16     196.4       73.4030        5.2706       86.8606       92.1313      18.728221       0.05798
  15     218.7       73.1655        5.8316       85.9492       91.7808      18.615234       0.04290
  14     243.0       72.9039        6.4356       84.9789       91.4146      18.510644       0.03628
  13     269.0       72.6172        7.0838       83.9493       91.0331      18.415926       0.03073
  12     297.5       72.3046        7.7768       82.8589       90.6358      18.331198       0.02513
  11     328.5       71.9672        8.5170       81.6982       90.2153      18.248029       0.02261
  10     361.9       71.6052        9.3042       80.4669       89.7711      18.165906       0.02078
   9     398.1       71.2176       10.1401       79.1611       89.3013      18.083643       0.01917
   8     437.6       70.8048       11.0250       77.7777       88.8028      17.997989       0.01831
   7     480.5       70.3670       11.9592       76.3136       88.2728      17.905877       0.01809
   6     533.0       69.8355       13.0889       74.5359       87.6248      17.789276       0.01876
   5     589.8       69.2731       14.2820       72.6469       86.9290      17.655832       0.01981
   4     651.6       68.6820       15.5364       70.6456       86.1820      17.500045       0.02130
   3     718.7       68.0625       16.8498       68.5367       85.3865      17.324046       0.02212
   2     792.3       67.4174       18.2168       66.3287       84.5455      17.128045       0.02248
   1     891.5       66.5796       19.9979       63.4246       83.4225      16.842929       0.02426
   0    1013.0       65.6266       22.0402       60.0483       82.0885      16.461966       0.02645



 Wavenumbers: 22650. - 29000. cm-1, ATM      1
 LEVEL PRESSURE   UPWARD FLUX   DIFDOWN FLUX  DIRDOWN FLUX  DOWNWARD FLUX   NET FLUX    HEATING RATE
          mb          W/m2          W/m2          W/m2        W/m2          W/m2       degree/day
  51    .06700       33.8460        0.0000       38.0063       38.0063       4.160287       0.00000
  50    .07753       33.8458        0.0004       38.0057       38.0061       4.160287       0.00000
  49    .09103       33.8456        0.0009       38.0050       38.0059       4.160287       0.00000
  48    0.1069       33.8454        0.0014       38.0042       38.0057       4.160287      -0.00000
  47    0.1255       33.8451        0.0021       38.0033       38.0054       4.160287       0.00000
  46    0.1487       33.8447        0.0029       38.0022       38.0050       4.160287       0.00000
  45    0.1794       33.8443        0.0040       38.0006       38.0046       4.160287       0.00000
  44    0.2165       33.8437        0.0053       37.9987       38.0040       4.160287       0.00000
  43    0.2613       33.8430        0.0068       37.9965       38.0033       4.160287      -0.00000
  42    0.3336       33.8419        0.0094       37.9928       38.0022       4.160287       0.00000
  41    0.4307       33.8404        0.0127       37.9880       38.0007       4.160287       0.00000
  40    0.5894       33.8380        0.0183       37.9800       37.9983       4.160287       0.00000
  39     1.339       33.8266        0.0444       37.9425       37.9869       4.160287      -0.00000
  38     1.782       33.8199        0.0597       37.9204       37.9801       4.160287      -0.00000
  37     2.292       33.8121        0.0775       37.8949       37.9724       4.160287       0.00000
  36     2.964       33.8019        0.1007       37.8614       37.9622       4.160287      -0.00000
  35     3.853       33.7884        0.1315       37.8172       37.9487       4.160287       0.00000
  34     5.035       33.7706        0.1723       37.7586       37.9308       4.160287      -0.00000
  33     6.613       33.7467        0.2267       37.6803       37.9070       4.160287       0.00000
  32     8.786       33.7146        0.2999       37.5750       37.8749       4.160287       0.00000
  31     11.80       33.6688        0.4043       37.4249       37.8291       4.160287      -0.00000
  30     15.07       33.6198        0.5160       37.2642       37.7801       4.160287       0.00000
  29     18.79       33.5647        0.6416       37.0833       37.7249       4.160287       0.00000
  28     23.16       33.5005        0.7878       36.8730       37.6608       4.160287       0.00000
  27     28.12       33.4274        0.9539       36.6338       37.5877       4.160287      -0.00000
  26     33.73       33.3461        1.1387       36.3677       37.5064       4.160287       0.00000
  25     40.54       33.2485        1.3603       36.0486       37.4088       4.160287       0.00000
  24     48.69       33.1318        1.6249       35.6672       37.2921       4.160287       0.00000
  23     57.69       33.0048        1.9124       35.2527       37.1651       4.160287      -0.00000
  22     68.43       32.8552        2.2506       34.7649       37.0155       4.160287       0.00000
  21     81.20       32.6793        2.6474       34.1922       36.8396       4.160287       0.00000
  20     96.49       32.4730        3.1116       33.5217       36.6333       4.160287       0.00000
  19     114.6       32.2327        3.6506       32.7424       36.3930       4.160287      -0.00000
  18     136.5       31.9543        4.2730       31.8416       36.1146       4.160287       0.00000
  17     162.9       31.6315        4.9910       30.8008       35.7918       4.160287      -0.00000
  16     196.4       31.2268        5.8864       29.5007       35.3871       4.160287      -0.00000
  15     218.7       30.9693        6.4529       28.6767       35.1296       4.160287       0.00000
  14     243.0       30.6965        7.0500       27.8068       34.8568       4.160287      -0.00000
  13     269.0       30.4090        7.6760       26.8933       34.5693       4.160287       0.00000
  12     297.5       30.1075        8.3285       25.9393       34.2678       4.160287       0.00000
  11     328.5       29.7918        9.0070       24.9451       33.9521       4.160287      -0.00000
  10     361.9       29.4634        9.7077       23.9160       33.6237       4.160287       0.00000
   9     398.1       29.1225       10.4287       22.8541       33.2828       4.160287       0.00000
   8     437.6       28.7704       11.1662       21.7645       32.9307       4.160287       0.00000
   7     480.5       28.4083       11.9164       20.6521       32.5686       4.160287      -0.00000
   6     533.0       27.9828       12.7862       19.3569       32.1431       4.160287       0.00000
   5     589.8       27.5477       13.6613       18.0467       31.7080       4.160287      -0.00000
   4     651.6       27.1054       14.5341       16.7316       31.2657       4.160287       0.00000
   3     718.7       26.6583       15.3972       15.4214       30.8186       4.160287       0.00000
   2     792.3       26.2093       16.2420       14.1276       30.3696       4.160287       0.00000
   1     891.5       25.6482       17.2626       12.5459       29.8085       4.160287      -0.00000
   0    1013.0       25.0353       18.3238       10.8717       29.1956       4.160287      -0.00000



 Wavenumbers: 29000. - 38000. cm-1, ATM      1
 LEVEL PRESSURE   UPWARD FLUX   DIFDOWN FLUX  DIRDOWN FLUX  DOWNWARD FLUX   NET FLUX    HEATING RATE
          mb          W/m2          W/m2          W/m2        W/m2          W/m2       degree/day
  51    .06700        4.8218        0.0000       13.4026       13.4026       8.580846       0.00000
  50    .07753        4.8215        0.0003       13.3983       13.3986       8.577048       3.04432
  49    .09103        4.8213        0.0007       13.3921       13.3928       8.571529       3.44959
  48    0.1069        4.8210        0.0011       13.3840       13.3851       8.564152       3.92668
  47    0.1255        4.8206        0.0016       13.3733       13.3749       8.554308       4.46308
  46    0.1487        4.8202        0.0022       13.3579       13.3600       8.539866       5.26426
  45    0.1794        4.8196        0.0030       13.3340       13.3371       8.517466       6.14912
  44    0.2165        4.8189        0.0040       13.3024       13.3064       8.487448       6.82860
  43    0.2613        4.8182        0.0051       13.2604       13.2656       8.447395       7.54991
  42    0.3336        4.8169        0.0070       13.1833       13.1903       8.373390       8.62819
  41    0.4307        4.8154        0.0095       13.0729       13.0824       8.267021       9.24853
  40    0.5894        4.8130        0.0134       12.8796       12.8930       8.079984       9.94639
  39     1.339        4.8044        0.0296       11.9165       11.9461       7.141693      10.56346
  38     1.782        4.8011        0.0379       11.4399       11.4778       6.676752       8.85172
  37     2.292        4.7985        0.0468       10.9796       11.0264       6.227876       7.43456
  36     2.964        4.7969        0.0576       10.4786       10.5363       5.739333       6.13270
  35     3.853        4.7974        0.0711        9.9429       10.0140       5.216608       4.96075
  34     5.035        4.8005        0.0879        9.4007        9.4885       4.688067       3.77568
  33     6.613        4.8064        0.1091        8.8752        8.9843       4.177935       2.72717
  32     8.786        4.8146        0.1365        8.3786        8.5151       3.700533       1.85405
  31     11.80        4.8245        0.1742        7.8897        8.0638       3.239307       1.29129
  30     15.07        4.8330        0.2130        7.5108        7.7238       2.890805       0.89976
  29     18.79        4.8408        0.2553        7.1776        7.4329       2.592150       0.67714
  28     23.16        4.8477        0.3030        6.8664        7.1694       2.321634       0.52309
  27     28.12        4.8532        0.3556        6.5780        6.9336       2.080470       0.40996
  26     33.73        4.8546        0.4130        6.3195        6.7324       1.877809       0.30471
  25     40.54        4.8509        0.4806        6.0663        6.5469       1.695964       0.22560
  24     48.69        4.8414        0.5598        5.8128        6.3727       1.531248       0.17046
  23     57.69        4.8263        0.6444        5.5777        6.2221       1.395832       0.12693
  22     68.43        4.8030        0.7422        5.3379        6.0801       1.277073       0.09336
  21     81.20        4.7676        0.8557        5.0965        5.9522       1.184649       0.06107
  20     96.49        4.7186        0.9868        4.8476        5.8344       1.115835       0.03798
  19     114.6        4.6591        1.1352        4.5799        5.7150       1.055945       0.02796
  18     136.5        4.5902        1.3009        4.2891        5.5900       0.999822       0.02158
  17     162.9        4.5114        1.4846        3.9732        5.4578       0.946332       0.01710
  16     196.4        4.4118        1.7044        3.6080        5.3124       0.900622       0.01151
  15     218.7        4.3489        1.8380        3.3898        5.2278       0.878867       0.00826
  14     243.0        4.2835        1.9741        3.1686        5.1427       0.859138       0.00684
  13     269.0        4.2159        2.1116        2.9461        5.0576       0.841742       0.00564
  12     297.5        4.1464        2.2491        2.7239        4.9731       0.826696       0.00446
  11     328.5        4.0758        2.3855        2.5029        4.8884       0.812569       0.00384
  10     361.9        4.0046        2.5194        2.2846        4.8040       0.799381       0.00334
   9     398.1        3.9332        2.6496        2.0708        4.7203       0.787126       0.00286
   8     437.6        3.8620        2.7750        1.8626        4.6375       0.775543       0.00248
   7     480.5        3.7914        2.8941        1.6621        4.5562       0.764756       0.00212
   6     533.0        3.7119        3.0214        1.4437        4.4651       0.753233       0.00185
   5     589.8        3.6342        3.1375        1.2390        4.3765       0.742312       0.00162
   4     651.6        3.5590        3.2408        1.0500        4.2908       0.731843       0.00143
   3     718.7        3.4865        3.3304        0.8778        4.2082       0.721792       0.00126
   2     792.3        3.4169        3.4053        0.7237        4.1291       0.712138       0.00111
   1     891.5        3.3340        3.4782        0.5563        4.0345       0.700462       0.00099
   0    1013.0        3.2477        3.5316        0.4039        3.9355       0.687863       0.00087



 Wavenumbers: 38000. - 50000. cm-1, ATM      1
 LEVEL PRESSURE   UPWARD FLUX   DIFDOWN FLUX  DIRDOWN FLUX  DOWNWARD FLUX   NET FLUX    HEATING RATE
          mb          W/m2          W/m2          W/m2        W/m2          W/m2       degree/day
  51    .06700        0.0051        0.0000        0.8267        0.8267       0.821528       0.00000
  50    .07753        0.0051        0.0001        0.8242        0.8243       0.819196       1.86936
  49    .09103        0.0050        0.0002        0.8207        0.8209       0.815872       2.07705
  48    0.1069        0.0049        0.0002        0.8162        0.8164       0.811514       2.31984
  47    0.1255        0.0048        0.0004        0.8103        0.8106       0.805801       2.59006
  46    0.1487        0.0047        0.0005        0.8018        0.8023       0.797567       3.00143
  45    0.1794        0.0045        0.0007        0.7889        0.7896       0.785013       3.44648
  44    0.2165        0.0044        0.0009        0.7720        0.7729       0.768507       3.75474
  43    0.2613        0.0042        0.0011        0.7500        0.7511       0.746955       4.06246
  42    0.3336        0.0039        0.0015        0.7106        0.7121       0.708267       4.51071
  41    0.4307        0.0035        0.0019        0.6566        0.6584       0.654972       4.63387
  40    0.5894        0.0029        0.0024        0.5680        0.5704       0.567464       4.65357
  39     1.339        0.0015        0.0030        0.2422        0.2452       0.243720       3.64476
  38     1.782        0.0010        0.0026        0.1493        0.1519       0.150889       1.76735
  37     2.292        0.0007        0.0022        0.0924        0.0946       0.093932       0.94336
  36     2.964        0.0005        0.0018        0.0539        0.0557       0.055224       0.48589
  35     3.853        0.0003        0.0013        0.0295        0.0308       0.030502       0.23462
  34     5.035        0.0002        0.0010        0.0154        0.0164       0.016181       0.10230
  33     6.613        0.0001        0.0007        0.0073        0.0080       0.007912       0.04420
  32     8.786        0.0000        0.0004        0.0030        0.0034       0.003390       0.01756
  31     11.80        0.0000        0.0003        0.0010        0.0012       0.001199       0.00613
  30     15.07        0.0000        0.0001        0.0003        0.0005       0.000463       0.00190
  29     18.79        0.0000        0.0001        0.0001        0.0002       0.000182       0.00064
  28     23.16        0.0000        0.0000        0.0000        0.0001       0.000071       0.00022
  27     28.12        0.0000        0.0000        0.0000        0.0000       0.000028       0.00007
  26     33.73        0.0000        0.0000        0.0000        0.0000       0.000011       0.00002
  25     40.54        0.0000        0.0000        0.0000        0.0000       0.000005       0.00001
  24     48.69        0.0000        0.0000        0.0000        0.0000       0.000002       0.00000
  23     57.69        0.0000        0.0000        0.0000        0.0000       0.000001       0.00000
  22     68.43        0.0000        0.0000        0.0000        0.0000       0.000000       0.00000
  21     81.20        0.0000        0.0000        0.0000        0.0000       0.000000       0.00000
  20     96.49        0.0000        0.0000        0.0000        0.0000       0.000000       0.00000
  19     114.6        0.0000        0.0000        0.0000        0.0000       0.000000       0.00000
  18     136.5        0.0000        0.0000        0.0000        0.0000       0.000000       0.00000
  17     162.9        0.0000        0.0000        0.0000        0.0000       0.000000       0.00000
  16     196.4        0.0000        0.0000        0.0000        0.0000       0.000000       0.00000
  15     218.7        0.0000        0.0000        0.0000        0.0000       0.000000       0.00000
  14     243.0        0.0000        0.0000        0.0000        0.0000       0.000000       0.00000
  13     269.0        0.0000        0.0000        0.0000        0.0000       0.000000       0.00000
  12     297.5        0.0000        0.0000        0.0000        0.0000       0.000000       0.00000
  11     328.5        0.0000        0.0000        0.0000        0.0000       0.000000       0.00000
  10     361.9        0.0000        0.0000        0.0000        0.0000       0.000000       0.00000
   9     398.1        0.0000        0.0000        0.0000        0.0000       0.000000       0.00000
   8     437.6        0.0000        0.0000        0.0000        0.0000       0.000000       0.00000
   7     480.5        0.0000        0.0000        0.0000        0.0000       0.000000       0.00000
   6     533.0        0.0000        0.0000        0.0000        0.0000       0.000000       0.00000
   5     589.8        0.0000        0.0000        0.0000        0.0000       0.000000       0.00000
   4     651.6        0.0000        0.0000        0.0000        0.0000       0.000000       0.00000
   3     718.7        0.0000        0.0000        0.0000        0.0000       0.000000       0.00000
   2     792.3        0.0000        0.0000        0.0000        0.0000       0.000000       0.00000
   1     891.5        0.0000        0.0000        0.0000        0.0000       0.000000       0.00000
   0    1013.0        0.0000        0.0000        0.0000        0.0000       0.000000       0.00000



 Wavenumbers:   820. -  2600. cm-1, ATM      1
 LEVEL PRESSURE   UPWARD FLUX   DIFDOWN FLUX  DIRDOWN FLUX  DOWNWARD FLUX   NET FLUX    HEATING RATE
          mb          W/m2          W/m2          W/m2        W/m2          W/m2       degree/day
  51    .06700        0.1274        0.0000        3.8670        3.8670       3.739592       0.00000
  50    .07753        0.1274        0.0000        3.8643        3.8643       3.736875       2.17769
  49    .09103        0.1274        0.0000        3.8635        3.8635       3.736065       0.50638
  48    0.1069        0.1274        0.0000        3.8626        3.8626       3.735175       0.47415
  47    0.1255        0.1274        0.0000        3.8616        3.8616       3.734214       0.43559
  46    0.1487        0.1274        0.0000        3.8605        3.8605       3.733104       0.40437
  45    0.1794        0.1274        0.0000        3.8592        3.8592       3.731769       0.36647
  44    0.2165        0.1274        0.0000        3.8578        3.8578       3.730391       0.31346
  43    0.2613        0.1274        0.0000        3.8564        3.8564       3.728931       0.27522
  42    0.3336        0.1274        0.0000        3.8541        3.8541       3.726700       0.26012
  41    0.4307        0.1274        0.0000        3.8512        3.8512       3.723818       0.25063
  40    0.5894        0.1274        0.0000        3.8465        3.8465       3.719092       0.25133
  39     1.339        0.1274        0.0000        3.8251        3.8251       3.697717       0.24064
  38     1.782        0.1274        0.0000        3.8133        3.8133       3.685904       0.22489
  37     2.292        0.1274        0.0000        3.8003        3.8003       3.672843       0.21632
  36     2.964        0.1274        0.0000        3.7841        3.7841       3.656714       0.20246
  35     3.853        0.1274        0.0000        3.7642        3.7642       3.636800       0.18899
  34     5.035        0.1274        0.0000        3.7395        3.7395       3.612109       0.17638
  33     6.613        0.1274        0.0000        3.7090        3.7090       3.581574       0.16324
  32     8.786        0.1274        0.0000        3.6726        3.6726       3.545182       0.14133
  31     11.80        0.1274        0.0000        3.6320        3.6320       3.504588       0.11365
  30     15.07        0.1274        0.0000        3.6016        3.6016       3.474205       0.07844
  29     18.79        0.1274        0.0000        3.5777        3.5777       3.450309       0.05418
  28     23.16        0.1274        0.0000        3.5564        3.5564       3.428957       0.04129
  27     28.12        0.1274        0.0000        3.5348        3.5348       3.407412       0.03662
  26     33.73        0.1274        0.0000        3.5118        3.5118       3.384381       0.03463
  25     40.54        0.1274        0.0000        3.4849        3.4849       3.357495       0.03335
  24     48.69        0.1274        0.0000        3.4537        3.4537       3.326245       0.03234
  23     57.69        0.1274        0.0000        3.4210        3.4210       3.293574       0.03062
  22     68.43        0.1274        0.0000        3.3844        3.3844       3.256991       0.02876
  21     81.20        0.1274        0.0000        3.3441        3.3441       3.216696       0.02663
  20     96.49        0.1275        0.0000        3.2998        3.2998       3.172334       0.02448
  19     114.6        0.1275        0.0000        3.2506        3.2506       3.123190       0.02295
  18     136.5        0.1275        0.0000        3.1936        3.1936       3.066144       0.02194
  17     162.9        0.1275        0.0000        3.1181        3.1181       2.990645       0.02413
  16     196.4        0.1275        0.0000        3.0090        3.0090       2.881465       0.02748
  15     218.7        0.1275        0.0000        2.9420        2.9420       2.814465       0.02544
  14     243.0        0.1276        0.0000        2.8605        2.8605       2.732910       0.02829
  13     269.0        0.1276        0.0000        2.7419        2.7420       2.614339       0.03846
  12     297.5        0.1277        0.0000        2.5729        2.5729       2.445148       0.05018
  11     328.5        0.1279        0.0000        2.3602        2.3602       2.232280       0.05788
  10     361.9        0.1282        0.0000        2.1524        2.1524       2.024234       0.05264
   9     398.1        0.1286        0.0000        1.9974        1.9974       1.868821       0.03621
   8     437.6        0.1292        0.0000        1.8835        1.8835       1.754329       0.02448
   7     480.5        0.1300        0.0000        1.7734        1.7734       1.643399       0.02179
   6     533.0        0.1315        0.0000        1.6397        1.6398       1.508287       0.02174
   5     589.8        0.1335        0.0000        1.5068        1.5069       1.373306       0.02004
   4     651.6        0.1366        0.0000        1.3807        1.3807       1.244089       0.01767
   3     718.7        0.1407        0.0000        1.2680        1.2680       1.127304       0.01468
   2     792.3        0.1458        0.0000        1.1659        1.1660       1.020189       0.01228
   1     891.5        0.1543        0.0000        1.0372        1.0373       0.882986       0.01168
   0    1013.0        0.1697        0.0000        0.8716        0.8717       0.701962       0.01257

  Modules and versions used in this calculation:

       rrtmg_sw.1col.f90:  $Revision$                    rrtmg_sw_init.f90:  $Revision$        
     rrtmgsw_cldprop.f90:  $Revision$                  rrtmgsw_cldprmc.f90:  NOT USED          
     rrtmg_sw_reftra.f90:  $Revision$                  rrtmg_sw_spcvrt.f90:  NOT USED          
     rrtmg_sw_spcvmc.f90:  NOT USED                    rrtmgsw_setcoef.f90:  NOT USED          
     rrtmg_sw_taumol.f90:  $Revision$                  rrtmg_sw_vrtqdr.f90:  NOT USED          
                rrtatm.f:  NOT USED                             util_xxx.f:  NOT USED          
                 extra.f:  NOT USED                       rrtmg_sw_k_g.f90:  $Revision$        

