

 Wavenumbers:   820. - 50000. cm-1, ATM      1
 LEVEL PRESSURE   UPWARD FLUX   DIFDOWN FLUX  DIRDOWN FLUX  DOWNWARD FLUX   NET FLUX    HEATING RATE
          mb          W/m2          W/m2          W/m2        W/m2          W/m2       degree/day
  51    .06700      156.9355        0.0000      397.8738      397.8738     240.938270       0.00000
  50    .07753      156.9349        0.0011      397.8577      397.8589     240.923993      11.44361
  49    .09103      156.9341        0.0025      397.8418      397.8444     240.910324       8.54343
  48    0.1069      156.9331        0.0042      397.8230      397.8271     240.894002       8.68832
  47    0.1255      156.9321        0.0060      397.7997      397.8057     240.873593       9.25222
  46    0.1487      156.9308        0.0084      397.7676      397.7760     240.845186      10.35485
  45    0.1794      156.9292        0.0116      397.7205      397.7321     240.802971      11.58887
  44    0.2165      156.9272        0.0154      397.6602      397.6756     240.748428      12.40771
  43    0.2613      156.9250        0.0199      397.5829      397.6028     240.677772      13.31826
  42    0.3336      156.9215        0.0272      397.4449      397.4721     240.550601      14.82686
  41    0.4307      156.9171        0.0368      397.2524      397.2892     240.372135      15.51722
  40    0.5894      156.9104        0.0523      396.9253      396.9776     240.067184      16.21691
  39     1.339      156.8886        0.1213      395.4254      395.5467     238.658061      15.86417
  38     1.782      156.8821        0.1599      394.7288      394.8887     238.006560      12.40352
  37     2.292      156.8802        0.2038      394.0572      394.2610     237.380829      10.36373
  36     2.964      156.8857        0.2608      393.3007      393.5615     236.675778       8.85053
  35     3.853      156.9044        0.3353      392.4318      392.7671     235.862733       7.71595
  34     5.035      156.9403        0.4332      391.4441      391.8773     234.937015       6.61294
  33     6.613      156.9945        0.5629      390.3268      390.8896     233.895126       5.56994
  32     8.786      157.0635        0.7363      389.0624      389.7987     232.735167       4.50486
  31     11.80      157.1439        0.9822      387.5500      388.5322     231.388301       3.77080
  30     15.07      157.2088        1.2440      386.1556      387.3996     230.190840       3.09161
  29     18.79      157.2630        1.5373      384.7502      386.2875     229.024480       2.64450
  28     23.16      157.3044        1.8770      383.2686      385.1456     227.841201       2.28808
  27     28.12      157.3260        2.2620      381.7329      383.9949     226.668913       1.99281
  26     33.73      157.3124        2.6896      380.1982      382.8878     225.575406       1.64412
  25     40.54      157.2522        3.2022      378.5384      381.7406     224.488415       1.34854
  24     48.69      157.1378        3.8143      376.7214      380.5358     223.397979       1.12843
  23     57.69      156.9722        4.4800      374.8959      379.3759     222.403633       0.93205
  22     68.43      156.7324        5.2642      372.8999      378.1641     221.431736       0.76404
  21     81.20      156.3877        6.1879      370.7496      376.9375     220.549826       0.58275
  20     96.49      155.9242        7.2737      368.4056      375.6792     219.755048       0.43866
  19     114.6      155.3582        8.5405      365.7513      374.2918     218.933610       0.38355
  18     136.5      154.6783       10.0101      362.7231      372.7332     218.054847       0.33791
  17     162.9      153.8664       11.7160      359.1748      370.8907     217.024388       0.32938
  16     196.4      152.7972       13.8629      354.5718      368.4348     215.637592       0.34907
  15     218.7      152.0950       15.2338      351.4437      366.6775     214.582553       0.40056
  14     243.0      151.3378       16.6899      347.7111      364.4010     213.063209       0.52696
  13     269.0      150.5255       18.2289      342.9441      361.1730     210.647518       0.78364
  12     297.5      149.6587       19.8483      337.4137      357.2620     207.603307       0.90288
  11     328.5      148.7396       21.5490      331.1302      352.6793     203.939644       0.99614
  10     361.9      147.7713       23.3252      324.1219      347.4471     199.675814       1.07879
   9     398.1      146.7546       25.1754      316.6066      341.7820     195.027449       1.08296
   8     437.6      145.6946       27.0946      308.5895      335.6841     189.989463       1.07715
   7     480.5      144.5998       29.0763      299.9349      329.0112     184.411347       1.09552
   6     533.0      143.3132       31.4152      289.7021      321.1173     177.804146       1.06289
   5     589.8      142.0045       33.8191      279.3388      313.1579     171.153371       0.98719
   4     651.6      140.6969       36.2749      268.7786      305.0535     164.356629       0.92947
   3     718.7      139.4030       38.7724      258.2837      297.0561     157.653006       0.84246
   2     792.3      138.1388       41.2966      248.0774      289.3740     151.235238       0.73605
   1     891.5      136.6571       44.4737      235.5216      279.9953     143.338111       0.67201
   0    1013.0      135.3489       47.9616      221.4731      269.4347     134.085799       0.64244



 Wavenumbers:  2600. -  3250. cm-1, ATM      1
 LEVEL PRESSURE   UPWARD FLUX   DIFDOWN FLUX  DIRDOWN FLUX  DOWNWARD FLUX   NET FLUX    HEATING RATE
          mb          W/m2          W/m2          W/m2        W/m2          W/m2       degree/day
  51    .06700        0.2354        0.0000        3.5066        3.5066       3.271226       0.00000
  50    .07753        0.2354        0.0000        3.5066        3.5066       3.271218       0.00640
  49    .09103        0.2354        0.0000        3.5066        3.5066       3.271208       0.00627
  48    0.1069        0.2354        0.0000        3.5066        3.5066       3.271196       0.00613
  47    0.1255        0.2354        0.0000        3.5066        3.5066       3.271183       0.00599
  46    0.1487        0.2354        0.0000        3.5066        3.5066       3.271166       0.00607
  45    0.1794        0.2354        0.0000        3.5065        3.5065       3.271144       0.00624
  44    0.2165        0.2354        0.0000        3.5065        3.5065       3.271117       0.00611
  43    0.2613        0.2354        0.0000        3.5065        3.5065       3.271085       0.00598
  42    0.3336        0.2354        0.0000        3.5064        3.5064       3.271032       0.00615
  41    0.4307        0.2354        0.0000        3.5064        3.5064       3.270961       0.00618
  40    0.5894        0.2354        0.0000        3.5062        3.5062       3.270842       0.00633
  39     1.339        0.2354        0.0000        3.5055        3.5055       3.270143       0.00787
  38     1.782        0.2354        0.0000        3.5050        3.5050       3.269613       0.01011
  37     2.292        0.2354        0.0000        3.5043        3.5043       3.268920       0.01147
  36     2.964        0.2354        0.0000        3.5033        3.5033       3.267929       0.01245
  35     3.853        0.2354        0.0000        3.5019        3.5019       3.266552       0.01307
  34     5.035        0.2354        0.0000        3.5001        3.5001       3.264691       0.01329
  33     6.613        0.2354        0.0000        3.4977        3.4977       3.262281       0.01288
  32     8.786        0.2354        0.0000        3.4947        3.4947       3.259310       0.01154
  31     11.80        0.2354        0.0000        3.4911        3.4911       3.255675       0.01018
  30     15.07        0.2354        0.0000        3.4878        3.4878       3.252454       0.00832
  29     18.79        0.2354        0.0000        3.4848        3.4848       3.249391       0.00695
  28     23.16        0.2354        0.0000        3.4816        3.4816       3.246171       0.00623
  27     28.12        0.2354        0.0000        3.4779        3.4779       3.242553       0.00615
  26     33.73        0.2354        0.0000        3.4735        3.4735       3.238087       0.00671
  25     40.54        0.2354        0.0000        3.4671        3.4671       3.231761       0.00785
  24     48.69        0.2354        0.0000        3.4582        3.4583       3.222867       0.00920
  23     57.69        0.2354        0.0000        3.4472        3.4472       3.211820       0.01036
  22     68.43        0.2354        0.0000        3.4329        3.4329       3.197561       0.01121
  21     81.20        0.2354        0.0000        3.4152        3.4152       3.179833       0.01171
  20     96.49        0.2354        0.0000        3.3940        3.3941       3.158691       0.01167
  19     114.6        0.2354        0.0000        3.3692        3.3692       3.133803       0.01162
  18     136.5        0.2354        0.0001        3.3419        3.3420       3.106588       0.01046
  17     162.9        0.2354        0.0001        3.3129        3.3129       3.077516       0.00929
  16     196.4        0.2355        0.0001        3.2793        3.2794       3.043948       0.00845
  15     218.7        0.2355        0.0001        3.2578        3.2578       3.022335       0.00821
  14     243.0        0.2356        0.0001        3.2320        3.2320       2.996467       0.00897
  13     269.0        0.2357        0.0001        3.1968        3.1969       2.961226       0.01143
  12     297.5        0.2359        0.0001        3.1489        3.1490       2.913155       0.01426
  11     328.5        0.2362        0.0001        3.0821        3.0822       2.845988       0.01826
  10     361.9        0.2366        0.0001        2.9902        2.9904       2.753746       0.02334
   9     398.1        0.2372        0.0001        2.8715        2.8716       2.634400       0.02781
   8     437.6        0.2381        0.0001        2.7276        2.7278       2.489710       0.03094
   7     480.5        0.2393        0.0001        2.5595        2.5597       2.320321       0.03327
   6     533.0        0.2414        0.0001        2.3617        2.3619       2.120456       0.03215
   5     589.8        0.2444        0.0002        2.1649        2.1651       1.920636       0.02966
   4     651.6        0.2488        0.0002        1.9608        1.9609       1.712142       0.02851
   3     718.7        0.2547        0.0002        1.7593        1.7595       1.504800       0.02606
   2     792.3        0.2624        0.0002        1.5761        1.5762       1.313824       0.02190
   1     891.5        0.2757        0.0002        1.3714        1.3716       1.095950       0.01854
   0    1013.0        0.2996        0.0002        1.1584        1.1586       0.858973       0.01645



 Wavenumbers:  3250. -  4000. cm-1, ATM      1
 LEVEL PRESSURE   UPWARD FLUX   DIFDOWN FLUX  DIRDOWN FLUX  DOWNWARD FLUX   NET FLUX    HEATING RATE
          mb          W/m2          W/m2          W/m2        W/m2          W/m2       degree/day
  51    .06700        0.0004        0.0000        5.9117        5.9117       5.911238       0.00000
  50    .07753        0.0004        0.0000        5.9075        5.9075       5.907048       3.35808
  49    .09103        0.0004        0.0000        5.9050        5.9050       5.904605       1.52677
  48    0.1069        0.0004        0.0000        5.9032        5.9032       5.902739       0.99346
  47    0.1255        0.0004        0.0000        5.9014        5.9014       5.900981       0.79708
  46    0.1487        0.0004        0.0000        5.8995        5.8995       5.899092       0.68848
  45    0.1794        0.0004        0.0000        5.8974        5.8974       5.896943       0.58983
  44    0.2165        0.0004        0.0000        5.8952        5.8952       5.894826       0.48155
  43    0.2613        0.0004        0.0000        5.8931        5.8931       5.892667       0.40696
  42    0.3336        0.0004        0.0000        5.8899        5.8899       5.889509       0.36820
  41    0.4307        0.0004        0.0000        5.8861        5.8861       5.885672       0.33365
  40    0.5894        0.0004        0.0000        5.8803        5.8803       5.879870       0.30857
  39     1.339        0.0004        0.0000        5.8597        5.8597       5.859272       0.23189
  38     1.782        0.0004        0.0000        5.8513        5.8513       5.850848       0.16039
  37     2.292        0.0004        0.0000        5.8431        5.8431       5.842676       0.13533
  36     2.964        0.0004        0.0000        5.8334        5.8334       5.833037       0.12100
  35     3.853        0.0004        0.0000        5.8213        5.8213       5.820861       0.11555
  34     5.035        0.0004        0.0000        5.8052        5.8052       5.804766       0.11498
  33     6.613        0.0004        0.0000        5.7833        5.7834       5.782945       0.11666
  32     8.786        0.0004        0.0000        5.7531        5.7531       5.752743       0.11729
  31     11.80        0.0004        0.0000        5.7090        5.7090       5.708575       0.12366
  30     15.07        0.0004        0.0000        5.6615        5.6615       5.661110       0.12254
  29     18.79        0.0004        0.0000        5.6093        5.6094       5.608974       0.11821
  28     23.16        0.0004        0.0000        5.5524        5.5524       5.552048       0.11008
  27     28.12        0.0004        0.0000        5.4935        5.4935       5.493169       0.10009
  26     33.73        0.0004        0.0000        5.4348        5.4349       5.434481       0.08824
  25     40.54        0.0004        0.0001        5.3707        5.3708       5.370419       0.07948
  24     48.69        0.0004        0.0001        5.2985        5.2985       5.298186       0.07475
  23     57.69        0.0003        0.0001        5.2215        5.2216       5.221247       0.07212
  22     68.43        0.0003        0.0001        5.1318        5.1319       5.131587       0.07048
  21     81.20        0.0003        0.0001        5.0284        5.0285       5.028158       0.06834
  20     96.49        0.0003        0.0001        4.9122        4.9123       4.912023       0.06410
  19     114.6        0.0003        0.0001        4.7780        4.7782       4.777912       0.06262
  18     136.5        0.0002        0.0002        4.6285        4.6287       4.628434       0.05748
  17     162.9        0.0002        0.0002        4.4406        4.4407       4.440522       0.06006
  16     196.4        0.0002        0.0002        4.1548        4.1550       4.154848       0.07191
  15     218.7        0.0002        0.0002        3.9564        3.9566       3.956468       0.07532
  14     243.0        0.0001        0.0002        3.7055        3.7058       3.705633       0.08700
  13     269.0        0.0001        0.0002        3.3399        3.3401       3.339994       0.11861
  12     297.5        0.0001        0.0002        2.8954        2.8956       2.895505       0.13183
  11     328.5        0.0001        0.0002        2.4388        2.4390       2.438964       0.12413
  10     361.9        0.0001        0.0002        2.0269        2.0271       2.027025       0.10422
   9     398.1        0.0001        0.0002        1.6753        1.6755       1.675437       0.08191
   8     437.6        0.0000        0.0002        1.3592        1.3594       1.359319       0.06759
   7     480.5        0.0000        0.0002        1.0616        1.0618       1.061737       0.05844
   6     533.0        0.0000        0.0001        0.7543        0.7544       0.754404       0.04944
   5     589.8        0.0000        0.0001        0.4951        0.4952       0.495212       0.03847
   4     651.6        0.0000        0.0001        0.2943        0.2943       0.294319       0.02747
   3     718.7        0.0000        0.0001        0.1528        0.1529       0.152829       0.01778
   2     792.3        0.0000        0.0000        0.0658        0.0658       0.065807       0.00998
   1     891.5        0.0001        0.0000        0.0157        0.0157       0.015585       0.00427
   0    1013.0        0.0003        0.0000        0.0013        0.0013       0.000997       0.00101



 Wavenumbers:  4000. -  4650. cm-1, ATM      1
 LEVEL PRESSURE   UPWARD FLUX   DIFDOWN FLUX  DIRDOWN FLUX  DOWNWARD FLUX   NET FLUX    HEATING RATE
          mb          W/m2          W/m2          W/m2        W/m2          W/m2       degree/day
  51    .06700        1.0106        0.0000        6.9421        6.9421       5.931479       0.00000
  50    .07753        1.0106        0.0000        6.9421        6.9421       5.931478       0.00079
  49    .09103        1.0106        0.0000        6.9421        6.9421       5.931477       0.00078
  48    0.1069        1.0106        0.0000        6.9421        6.9421       5.931475       0.00076
  47    0.1255        1.0106        0.0000        6.9421        6.9421       5.931474       0.00074
  46    0.1487        1.0106        0.0000        6.9421        6.9421       5.931472       0.00075
  45    0.1794        1.0106        0.0000        6.9421        6.9421       5.931469       0.00077
  44    0.2165        1.0106        0.0000        6.9421        6.9421       5.931465       0.00076
  43    0.2613        1.0106        0.0000        6.9420        6.9420       5.931462       0.00074
  42    0.3336        1.0106        0.0000        6.9420        6.9420       5.931455       0.00076
  41    0.4307        1.0106        0.0000        6.9420        6.9420       5.931446       0.00077
  40    0.5894        1.0106        0.0000        6.9420        6.9420       5.931431       0.00079
  39     1.339        1.0106        0.0000        6.9419        6.9419       5.931342       0.00100
  38     1.782        1.0106        0.0000        6.9418        6.9419       5.931273       0.00132
  37     2.292        1.0106        0.0000        6.9418        6.9418       5.931180       0.00155
  36     2.964        1.0106        0.0000        6.9416        6.9416       5.931040       0.00175
  35     3.853        1.0106        0.0000        6.9414        6.9414       5.930834       0.00196
  34     5.035        1.0106        0.0000        6.9411        6.9411       5.930529       0.00218
  33     6.613        1.0106        0.0000        6.9406        6.9406       5.930081       0.00239
  32     8.786        1.0106        0.0000        6.9399        6.9400       5.929422       0.00256
  31     11.80        1.0106        0.0000        6.9389        6.9389       5.928387       0.00290
  30     15.07        1.0105        0.0001        6.9377        6.9377       5.927178       0.00312
  29     18.79        1.0105        0.0001        6.9362        6.9362       5.925720       0.00331
  28     23.16        1.0105        0.0001        6.9343        6.9344       5.923918       0.00349
  27     28.12        1.0105        0.0001        6.9321        6.9322       5.921746       0.00369
  26     33.73        1.0105        0.0001        6.9294        6.9296       5.919081       0.00401
  25     40.54        1.0105        0.0002        6.9258        6.9260       5.915489       0.00446
  24     48.69        1.0104        0.0002        6.9210        6.9212       5.910735       0.00492
  23     57.69        1.0104        0.0002        6.9154        6.9156       5.905144       0.00524
  22     68.43        1.0104        0.0003        6.9083        6.9086       5.898195       0.00546
  21     81.20        1.0104        0.0003        6.8998        6.9001       5.889702       0.00561
  20     96.49        1.0104        0.0004        6.8894        6.8898       5.879448       0.00566
  19     114.6        1.0103        0.0004        6.8765        6.8770       5.866619       0.00599
  18     136.5        1.0103        0.0005        6.8610        6.8615       5.851153       0.00595
  17     162.9        1.0103        0.0006        6.8417        6.8423       5.831929       0.00614
  16     196.4        1.0104        0.0007        6.8147        6.8154       5.804988       0.00678
  15     218.7        1.0105        0.0008        6.7948        6.7957       5.785163       0.00753
  14     243.0        1.0106        0.0009        6.7698        6.7707       5.760039       0.00871
  13     269.0        1.0109        0.0010        6.7349        6.7358       5.724927       0.01139
  12     297.5        1.0114        0.0011        6.6869        6.6879       5.676580       0.01434
  11     328.5        1.0120        0.0012        6.6194        6.6206       5.608533       0.01850
  10     361.9        1.0129        0.0013        6.5295        6.5308       5.517839       0.02295
   9     398.1        1.0141        0.0014        6.4202        6.4216       5.407518       0.02570
   8     437.6        1.0157        0.0015        6.2962        6.2977       5.282021       0.02683
   7     480.5        1.0178        0.0016        6.1555        6.1571       5.139318       0.02803
   6     533.0        1.0213        0.0018        5.9675        5.9693       4.948049       0.03077
   5     589.8        1.0262        0.0019        5.7368        5.7387       4.712420       0.03498
   4     651.6        1.0335        0.0020        5.4662        5.4683       4.434794       0.03797
   3     718.7        1.0434        0.0022        5.1912        5.1933       4.149993       0.03579
   2     792.3        1.0561        0.0023        4.9395        4.9418       3.885659       0.03032
   1     891.5        1.0779        0.0024        4.6486        4.6511       3.573131       0.02659
   0    1013.0        1.1171        0.0026        4.3179        4.3205       3.203405       0.02567



 Wavenumbers:  4650. -  5150. cm-1, ATM      1
 LEVEL PRESSURE   UPWARD FLUX   DIFDOWN FLUX  DIRDOWN FLUX  DOWNWARD FLUX   NET FLUX    HEATING RATE
          mb          W/m2          W/m2          W/m2        W/m2          W/m2       degree/day
  51    .06700        0.6830        0.0000        6.5710        6.5710       5.887951       0.00000
  50    .07753        0.6830        0.0000        6.5708        6.5708       5.887716       0.18887
  49    .09103        0.6830        0.0000        6.5705        6.5705       5.887422       0.18362
  48    0.1069        0.6830        0.0000        6.5701        6.5701       5.887087       0.17806
  47    0.1255        0.6830        0.0000        6.5697        6.5697       5.886707       0.17238
  46    0.1487        0.6830        0.0000        6.5693        6.5693       5.886233       0.17268
  45    0.1794        0.6830        0.0000        6.5686        6.5686       5.885597       0.17473
  44    0.2165        0.6830        0.0000        6.5679        6.5679       5.884859       0.16788
  43    0.2613        0.6830        0.0000        6.5670        6.5670       5.884006       0.16078
  42    0.3336        0.6830        0.0000        6.5657        6.5657       5.882643       0.15894
  41    0.4307        0.6830        0.0000        6.5640        6.5640       5.880921       0.14971
  40    0.5894        0.6830        0.0000        6.5613        6.5613       5.878305       0.13913
  39     1.339        0.6830        0.0000        6.5516        6.5516       5.868527       0.11008
  38     1.782        0.6830        0.0000        6.5473        6.5473       5.864311       0.08026
  37     2.292        0.6830        0.0000        6.5434        6.5435       5.860424       0.06438
  36     2.964        0.6830        0.0000        6.5395        6.5395       5.856470       0.04964
  35     3.853        0.6830        0.0000        6.5355        6.5356       5.852527       0.03742
  34     5.035        0.6830        0.0000        6.5315        6.5315       5.848525       0.02859
  33     6.613        0.6830        0.0000        6.5271        6.5271       5.844131       0.02349
  32     8.786        0.6830        0.0000        6.5216        6.5216       5.838637       0.02134
  31     11.80        0.6830        0.0001        6.5135        6.5135       5.830559       0.02262
  30     15.07        0.6830        0.0001        6.5041        6.5042       5.821191       0.02418
  29     18.79        0.6830        0.0001        6.4925        6.4926       5.809677       0.02611
  28     23.16        0.6829        0.0001        6.4779        6.4780       5.795087       0.02821
  27     28.12        0.6829        0.0002        6.4599        6.4600       5.777115       0.03055
  26     33.73        0.6829        0.0002        6.4384        6.4386       5.755688       0.03222
  25     40.54        0.6829        0.0002        6.4112        6.4115       5.728569       0.03364
  24     48.69        0.6829        0.0003        6.3775        6.3778       5.694942       0.03480
  23     57.69        0.6828        0.0003        6.3404        6.3407       5.657862       0.03476
  22     68.43        0.6828        0.0004        6.2971        6.2975       5.614689       0.03394
  21     81.20        0.6828        0.0004        6.2483        6.2487       5.565899       0.03224
  20     96.49        0.6828        0.0005        6.1948        6.1954       5.512562       0.02944
  19     114.6        0.6828        0.0006        6.1381        6.1388       5.455974       0.02642
  18     136.5        0.6828        0.0007        6.0790        6.0797       5.396930       0.02270
  17     162.9        0.6829        0.0009        6.0160        6.0169       5.334060       0.02010
  16     196.4        0.6830        0.0010        5.9399        5.9409       5.257953       0.01916
  15     218.7        0.6831        0.0011        5.8896        5.8908       5.207722       0.01907
  14     243.0        0.6832        0.0013        5.8322        5.8334       5.150225       0.01994
  13     269.0        0.6835        0.0014        5.7624        5.7638       5.080290       0.02269
  12     297.5        0.6839        0.0015        5.6767        5.6783       4.994315       0.02550
  11     328.5        0.6846        0.0017        5.5726        5.5742       4.889680       0.02845
  10     361.9        0.6855        0.0018        5.4473        5.4491       4.763662       0.03188
   9     398.1        0.6867        0.0019        5.2995        5.3014       4.614731       0.03470
   8     437.6        0.6884        0.0021        5.1275        5.1295       4.441178       0.03711
   7     480.5        0.6907        0.0022        4.9290        4.9312       4.240510       0.03941
   6     533.0        0.6943        0.0023        4.6794        4.6817       3.987398       0.04072
   5     589.8        0.6994        0.0025        4.4188        4.4213       3.721815       0.03942
   4     651.6        0.7066        0.0026        4.1521        4.1547       3.448047       0.03744
   3     718.7        0.7162        0.0027        3.8929        3.8957       3.179413       0.03376
   2     792.3        0.7287        0.0028        3.6469        3.6497       2.921012       0.02964
   1     891.5        0.7499        0.0030        3.3535        3.3564       2.606533       0.02676
   0    1013.0        0.7863        0.0031        3.0383        3.0415       2.255167       0.02440



 Wavenumbers:  5150. -  6150. cm-1, ATM      1
 LEVEL PRESSURE   UPWARD FLUX   DIFDOWN FLUX  DIRDOWN FLUX  DOWNWARD FLUX   NET FLUX    HEATING RATE
          mb          W/m2          W/m2          W/m2        W/m2          W/m2       degree/day
  51    .06700        1.8468        0.0000       16.4735       16.4735      14.626670       0.00000
  50    .07753        1.8468        0.0000       16.4735       16.4735      14.626636       0.02761
  49    .09103        1.8468        0.0000       16.4734       16.4734      14.626591       0.02811
  48    0.1069        1.8468        0.0000       16.4734       16.4734      14.626537       0.02859
  47    0.1255        1.8468        0.0000       16.4733       16.4733      14.626473       0.02904
  46    0.1487        1.8468        0.0000       16.4732       16.4732      14.626389       0.03060
  45    0.1794        1.8468        0.0000       16.4731       16.4731      14.626270       0.03269
  44    0.2165        1.8468        0.0000       16.4730       16.4730      14.626124       0.03331
  43    0.2613        1.8468        0.0000       16.4728       16.4728      14.625945       0.03376
  42    0.3336        1.8468        0.0000       16.4725       16.4725      14.625639       0.03564
  41    0.4307        1.8468        0.0000       16.4720       16.4720      14.625220       0.03645
  40    0.5894        1.8468        0.0000       16.4713       16.4713      14.624518       0.03729
  39     1.339        1.8468        0.0000       16.4679       16.4679      14.621110       0.03838
  38     1.782        1.8468        0.0000       16.4659       16.4659      14.619110       0.03807
  37     2.292        1.8468        0.0001       16.4635       16.4636      14.616819       0.03795
  36     2.964        1.8468        0.0001       16.4605       16.4606      14.613849       0.03728
  35     3.853        1.8468        0.0001       16.4567       16.4568      14.609996       0.03657
  34     5.035        1.8467        0.0001       16.4516       16.4517      14.604999       0.03570
  33     6.613        1.8467        0.0002       16.4451       16.4452      14.598537       0.03454
  32     8.786        1.8467        0.0002       16.4367       16.4369      14.590225       0.03228
  31     11.80        1.8466        0.0003       16.4254       16.4257      14.579073       0.03122
  30     15.07        1.8465        0.0004       16.4141       16.4145      14.567985       0.02863
  29     18.79        1.8465        0.0005       16.4024       16.4029      14.556462       0.02612
  28     23.16        1.8464        0.0006       16.3900       16.3906      14.544199       0.02371
  27     28.12        1.8463        0.0007       16.3771       16.3778      14.531533       0.02153
  26     33.73        1.8462        0.0009       16.3641       16.3650      14.518804       0.01914
  25     40.54        1.8461        0.0010       16.3502       16.3512      14.505160       0.01693
  24     48.69        1.8459        0.0013       16.3354       16.3366      14.490683       0.01498
  23     57.69        1.8458        0.0015       16.3211       16.3226      14.476778       0.01303
  22     68.43        1.8456        0.0018       16.3062       16.3080      14.462385       0.01132
  21     81.20        1.8454        0.0021       16.2903       16.2924      14.446986       0.01018
  20     96.49        1.8452        0.0025       16.2726       16.2751      14.429905       0.00943
  19     114.6        1.8449        0.0030       16.2521       16.2550      14.410083       0.00926
  18     136.5        1.8446        0.0035       16.2245       16.2280      14.383411       0.01026
  17     162.9        1.8443        0.0042       16.1747       16.1789      14.334613       0.01560
  16     196.4        1.8438        0.0050       16.0518       16.0568      14.212990       0.03061
  15     218.7        1.8436        0.0055       15.8984       15.9039      14.060329       0.05796
  14     243.0        1.8433        0.0061       15.6153       15.6213      13.778009       0.09792
  13     269.0        1.8431        0.0066       15.1390       15.1455      13.302478       0.15426
  12     297.5        1.8429        0.0070       14.5779       14.5849      12.742028       0.16622
  11     328.5        1.8428        0.0075       13.8780       13.8855      12.042669       0.19015
  10     361.9        1.8429        0.0079       13.0814       13.0893      11.246390       0.20147
   9     398.1        1.8432        0.0082       12.2728       12.2811      10.437838       0.18837
   8     437.6        1.8438        0.0085       11.4776       11.4861       9.642259       0.17010
   7     480.5        1.8449        0.0088       10.7300       10.7387       8.893835       0.14699
   6     533.0        1.8470        0.0091       10.0326       10.0417       8.194717       0.11247
   5     589.8        1.8504        0.0095        9.5050        9.5146       7.664179       0.07875
   4     651.6        1.8558        0.0101        9.0814        9.0914       7.235678       0.05860
   3     718.7        1.8636        0.0107        8.7024        8.7131       6.849508       0.04853
   2     792.3        1.8744        0.0114        8.3379        8.3493       6.474950       0.04296
   1     891.5        1.8942        0.0122        7.9064        7.9186       6.024331       0.03835
   0    1013.0        1.9352        0.0132        7.4741        7.4873       5.552056       0.03279



 Wavenumbers:  6150. -  7700. cm-1, ATM      1
 LEVEL PRESSURE   UPWARD FLUX   DIFDOWN FLUX  DIRDOWN FLUX  DOWNWARD FLUX   NET FLUX    HEATING RATE
          mb          W/m2          W/m2          W/m2        W/m2          W/m2       degree/day
  51    .06700        2.7287        0.0000       30.4684       30.4684      27.739694       0.00000
  50    .07753        2.7287        0.0000       30.4683       30.4683      27.739643       0.04144
  49    .09103        2.7287        0.0000       30.4683       30.4683      27.739576       0.04174
  48    0.1069        2.7287        0.0000       30.4682       30.4682      27.739497       0.04202
  47    0.1255        2.7287        0.0000       30.4681       30.4681      27.739404       0.04227
  46    0.1487        2.7287        0.0000       30.4680       30.4680      27.739283       0.04411
  45    0.1794        2.7287        0.0000       30.4678       30.4678      27.739113       0.04669
  44    0.2165        2.7287        0.0000       30.4676       30.4676      27.738905       0.04715
  43    0.2613        2.7287        0.0000       30.4673       30.4673      27.738654       0.04744
  42    0.3336        2.7287        0.0000       30.4669       30.4669      27.738227       0.04974
  41    0.4307        2.7287        0.0000       30.4663       30.4663      27.737646       0.05052
  40    0.5894        2.7286        0.0001       30.4653       30.4653      27.736678       0.05146
  39     1.339        2.7286        0.0001       30.4604       30.4606      27.731995       0.05273
  38     1.782        2.7285        0.0002       30.4576       30.4578      27.729245       0.05235
  37     2.292        2.7285        0.0002       30.4543       30.4546      27.726086       0.05231
  36     2.964        2.7284        0.0003       30.4501       30.4504      27.721979       0.05156
  35     3.853        2.7283        0.0004       30.4445       30.4449      27.716622       0.05084
  34     5.035        2.7282        0.0005       30.4373       30.4378      27.709622       0.05000
  33     6.613        2.7280        0.0007       30.4278       30.4285      27.700475       0.04890
  32     8.786        2.7278        0.0009       30.4154       30.4163      27.688522       0.04642
  31     11.80        2.7275        0.0013       30.3984       30.3996      27.672137       0.04587
  30     15.07        2.7272        0.0016       30.3810       30.3826      27.655423       0.04315
  29     18.79        2.7268        0.0020       30.3623       30.3643      27.637523       0.04059
  28     23.16        2.7264        0.0025       30.3417       30.3442      27.617840       0.03806
  27     28.12        2.7259        0.0031       30.3196       30.3226      27.596740       0.03587
  26     33.73        2.7253        0.0037       30.2965       30.3001      27.574822       0.03295
  25     40.54        2.7247        0.0044       30.2708       30.2751      27.550485       0.03019
  24     48.69        2.7238        0.0053       30.2423       30.2476      27.523708       0.02771
  23     57.69        2.7230        0.0062       30.2139       30.2201      27.497143       0.02490
  22     68.43        2.7219        0.0074       30.1834       30.1908      27.468869       0.02223
  21     81.20        2.7206        0.0088       30.1500       30.1588      27.438141       0.02030
  20     96.49        2.7191        0.0104       30.1126       30.1230      27.403924       0.01889
  19     114.6        2.7173        0.0124       30.0695       30.0819      27.364540       0.01839
  18     136.5        2.7152        0.0147       30.0139       30.0286      27.313388       0.01967
  17     162.9        2.7127        0.0174       29.9225       29.9399      27.227215       0.02754
  16     196.4        2.7094        0.0209       29.7333       29.7542      27.044838       0.04591
  15     218.7        2.7073        0.0232       29.5259       29.5490      26.841719       0.07712
  14     243.0        2.7051        0.0255       29.1375       29.1630      26.457910       0.13312
  13     269.0        2.7028        0.0277       28.3800       28.4077      25.704968       0.24425
  12     297.5        2.7005        0.0298       27.3895       27.4194      24.718858       0.29247
  11     328.5        2.6984        0.0318       26.2257       26.2575      23.559125       0.31533
  10     361.9        2.6965        0.0336       24.8453       24.8789      22.182393       0.34833
   9     398.1        2.6952        0.0351       23.3471       23.3822      20.687044       0.34838
   8     437.6        2.6945        0.0364       21.7966       21.8331      19.138520       0.33108
   7     480.5        2.6953        0.0374       20.1977       20.2351      17.539862       0.31397
   6     533.0        2.6985        0.0384       18.4969       18.5353      15.836796       0.27397
   5     589.8        2.7055        0.0393       16.9754       17.0147      14.309180       0.22675
   4     651.6        2.7184        0.0403       15.6022       15.6425      12.924070       0.18942
   3     718.7        2.7384        0.0414       14.4232       14.4646      11.726195       0.15054
   2     792.3        2.7668        0.0427       13.4386       13.4814      10.714590       0.11602
   1     891.5        2.8201        0.0446       12.3736       12.4182       9.598088       0.09501
   0    1013.0        2.9284        0.0466       11.2911       11.3378       8.409354       0.08254



 Wavenumbers:  7700. -  8050. cm-1, ATM      1
 LEVEL PRESSURE   UPWARD FLUX   DIFDOWN FLUX  DIRDOWN FLUX  DOWNWARD FLUX   NET FLUX    HEATING RATE
          mb          W/m2          W/m2          W/m2        W/m2          W/m2       degree/day
  51    .06700        1.4152        0.0000        7.2006        7.2006       5.785391       0.00000
  50    .07753        1.4152        0.0000        7.2006        7.2006       5.785373       0.01493
  49    .09103        1.4152        0.0000        7.2005        7.2005       5.785349       0.01464
  48    0.1069        1.4152        0.0000        7.2005        7.2005       5.785322       0.01433
  47    0.1255        1.4152        0.0000        7.2005        7.2005       5.785292       0.01402
  46    0.1487        1.4152        0.0000        7.2004        7.2005       5.785252       0.01423
  45    0.1794        1.4152        0.0000        7.2004        7.2004       5.785199       0.01464
  44    0.2165        1.4152        0.0000        7.2003        7.2003       5.785136       0.01436
  43    0.2613        1.4152        0.0000        7.2003        7.2003       5.785061       0.01409
  42    0.3336        1.4152        0.0000        7.2001        7.2001       5.784938       0.01442
  41    0.4307        1.4152        0.0000        7.2000        7.2000       5.784774       0.01426
  40    0.5894        1.4152        0.0000        7.1997        7.1997       5.784506       0.01424
  39     1.339        1.4153        0.0001        7.1984        7.1985       5.783239       0.01426
  38     1.782        1.4153        0.0001        7.1977        7.1978       5.782496       0.01416
  37     2.292        1.4153        0.0001        7.1968        7.1969       5.781635       0.01425
  36     2.964        1.4153        0.0001        7.1957        7.1958       5.780505       0.01418
  35     3.853        1.4154        0.0002        7.1942        7.1944       5.779014       0.01415
  34     5.035        1.4154        0.0002        7.1922        7.1925       5.777035       0.01414
  33     6.613        1.4155        0.0003        7.1896        7.1899       5.774393       0.01412
  32     8.786        1.4156        0.0004        7.1860        7.1864       5.770839       0.01380
  31     11.80        1.4157        0.0005        7.1810        7.1815       5.765766       0.01420
  30     15.07        1.4159        0.0007        7.1755        7.1762       5.760336       0.01402
  29     18.79        1.4160        0.0008        7.1694        7.1703       5.754221       0.01386
  28     23.16        1.4162        0.0010        7.1623        7.1634       5.747107       0.01376
  27     28.12        1.4165        0.0012        7.1542        7.1555       5.739009       0.01377
  26     33.73        1.4167        0.0015        7.1452        7.1467       5.729994       0.01355
  25     40.54        1.4170        0.0018        7.1344        7.1362       5.719171       0.01343
  24     48.69        1.4174        0.0021        7.1215        7.1236       5.706221       0.01340
  23     57.69        1.4178        0.0025        7.1074        7.1100       5.692119       0.01322
  22     68.43        1.4183        0.0030        7.0909        7.0938       5.675492       0.01307
  21     81.20        1.4190        0.0035        7.0713        7.0749       5.655916       0.01294
  20     96.49        1.4197        0.0042        7.0484        7.0526       5.632916       0.01269
  19     114.6        1.4206        0.0050        7.0217        7.0266       5.606049       0.01254
  18     136.5        1.4217        0.0059        6.9906        6.9965       5.574804       0.01201
  17     162.9        1.4230        0.0070        6.9544        6.9614       5.538393       0.01164
  16     196.4        1.4247        0.0084        6.9087        6.9171       5.492400       0.01158
  15     218.7        1.4259        0.0093        6.8794        6.8887       5.462836       0.01122
  14     243.0        1.4272        0.0103        6.8481        6.8584       5.431222       0.01096
  13     269.0        1.4286        0.0113        6.8147        6.8261       5.397447       0.01096
  12     297.5        1.4302        0.0125        6.7791        6.7916       5.361337       0.01071
  11     328.5        1.4321        0.0137        6.7409        6.7547       5.322618       0.01053
  10     361.9        1.4342        0.0151        6.7002        6.7152       5.281073       0.01051
   9     398.1        1.4366        0.0165        6.6563        6.6728       5.236219       0.01045
   8     437.6        1.4393        0.0180        6.6089        6.6269       5.187558       0.01040
   7     480.5        1.4426        0.0197        6.5570        6.5766       5.134056       0.01051
   6     533.0        1.4471        0.0216        6.4915        6.5131       5.066044       0.01094
   5     589.8        1.4525        0.0238        6.4182        6.4420       4.989455       0.01137
   4     651.6        1.4593        0.0260        6.3359        6.3619       4.902625       0.01187
   3     718.7        1.4674        0.0284        6.2441        6.2725       4.805102       0.01226
   2     792.3        1.4771        0.0309        6.1437        6.1746       4.697489       0.01234
   1     891.5        1.4919        0.0342        6.0042        6.0384       4.546445       0.01285
   0    1013.0        1.5133        0.0380        5.8249        5.8629       4.349635       0.01367



 Wavenumbers:  8050. - 12850. cm-1, ATM      1
 LEVEL PRESSURE   UPWARD FLUX   DIFDOWN FLUX  DIRDOWN FLUX  DOWNWARD FLUX   NET FLUX    HEATING RATE
          mb          W/m2          W/m2          W/m2        W/m2          W/m2       degree/day
  51    .06700       18.5713        0.0000      100.8135      100.8135      82.242244       0.00000
  50    .07753       18.5713        0.0000      100.8135      100.8135      82.242244       0.00000
  49    .09103       18.5712        0.0001      100.8134      100.8135      82.242244       0.00000
  48    0.1069       18.5712        0.0001      100.8134      100.8134      82.242244      -0.00000
  47    0.1255       18.5712        0.0001      100.8133      100.8134      82.242244       0.00000
  46    0.1487       18.5711        0.0002      100.8132      100.8134      82.242244       0.00000
  45    0.1794       18.5711        0.0002      100.8131      100.8133      82.242244      -0.00000
  44    0.2165       18.5710        0.0003      100.8129      100.8132      82.242244      -0.00000
  43    0.2613       18.5709        0.0004      100.8127      100.8132      82.242244       0.00000
  42    0.3336       18.5708        0.0006      100.8125      100.8130      82.242244      -0.00000
  41    0.4307       18.5706        0.0008      100.8121      100.8129      82.242244       0.00000
  40    0.5894       18.5703        0.0011      100.8115      100.8126      82.242244       0.00000
  39     1.339       18.5690        0.0027      100.8085      100.8112      82.242244      -0.00000
  38     1.782       18.5682        0.0037      100.8068      100.8104      82.242244       0.00000
  37     2.292       18.5673        0.0048      100.8047      100.8095      82.242244       0.00000
  36     2.964       18.5661        0.0062      100.8021      100.8083      82.242244       0.00000
  35     3.853       18.5645        0.0081      100.7986      100.8067      82.242244       0.00000
  34     5.035       18.5624        0.0106      100.7940      100.8046      82.242244      -0.00000
  33     6.613       18.5595        0.0140      100.7878      100.8018      82.242244       0.00000
  32     8.786       18.5557        0.0185      100.7794      100.7979      82.242244       0.00000
  31     11.80       18.5502        0.0250      100.7674      100.7925      82.242244       0.00000
  30     15.07       18.5444        0.0320      100.7546      100.7866      82.242244       0.00000
  29     18.79       18.5377        0.0400      100.7400      100.7800      82.242244      -0.00000
  28     23.16       18.5299        0.0492      100.7230      100.7722      82.242244      -0.00000
  27     28.12       18.5210        0.0598      100.7035      100.7633      82.242244       0.00000
  26     33.73       18.5111        0.0717      100.6817      100.7533      82.242244       0.00000
  25     40.54       18.4990        0.0860      100.6552      100.7412      82.242244       0.00000
  24     48.69       18.4844        0.1033      100.6234      100.7267      82.242244      -0.00000
  23     57.69       18.4684        0.1224      100.5883      100.7107      82.242244      -0.00000
  22     68.43       18.4493        0.1451      100.5464      100.6915      82.242244       0.00000
  21     81.20       18.4265        0.1722      100.4965      100.6687      82.242244      -0.00000
  20     96.49       18.3993        0.2045      100.4370      100.6415      82.242244      -0.00000
  19     114.6       18.3669        0.2430      100.3585      100.6015      82.234569       0.00358
  18     136.5       18.3285        0.2887      100.2634      100.5520      82.223522       0.00425
  17     162.9       18.2827        0.3431      100.1407      100.4838      82.201096       0.00717
  16     196.4       18.2232        0.4138       99.9505      100.3643      82.141147       0.01509
  15     218.7       18.1840        0.4602       99.7889      100.2492      82.065165       0.02885
  14     243.0       18.1415        0.5106       99.5472      100.0578      81.916303       0.05163
  13     269.0       18.0958        0.5649       99.1452       99.7101      81.614342       0.09795
  12     297.5       18.0470        0.6231       98.5975       99.2205      81.173537       0.13074
  11     328.5       17.9954        0.6853       97.8659       98.5511      80.555778       0.16797
  10     361.9       17.9415        0.7513       96.8848       97.6361      79.694548       0.21790
   9     398.1       17.8861        0.8208       95.6330       96.4538      78.567677       0.26254
   8     437.6       17.8307        0.8935       94.0655       94.9589      77.128210       0.30777
   7     480.5       17.7782        0.9682       92.0807       93.0489      75.270700       0.36481
   6     533.0       17.7251        1.0561       89.4449       90.5009      72.775768       0.40136
   5     589.8       17.6847        1.1464       86.5544       87.7008      70.016020       0.40964
   4     651.6       17.6658        1.2386       83.4174       84.6560      66.990167       0.41379
   3     718.7       17.6736        1.3335       80.2037       81.5372      63.863573       0.39293
   2     792.3       17.7127        1.4316       77.0811       78.5127      60.799944       0.35136
   1     891.5       17.8303        1.5576       73.2645       74.8222      56.991908       0.32405
   0    1013.0       18.1392        1.6969       68.9425       70.6394      52.500130       0.31189



 Wavenumbers: 12850. - 16000. cm-1, ATM      1
 LEVEL PRESSURE   UPWARD FLUX   DIFDOWN FLUX  DIRDOWN FLUX  DOWNWARD FLUX   NET FLUX    HEATING RATE
          mb          W/m2          W/m2          W/m2        W/m2          W/m2       degree/day
  51    .06700       28.2044        0.0000       63.1686       63.1686      34.964203       0.00000
  50    .07753       28.2043        0.0001       63.1677       63.1678      34.963425       0.62353
  49    .09103       28.2043        0.0001       63.1666       63.1668      34.962455       0.60577
  48    0.1069       28.2043        0.0002       63.1654       63.1656      34.961352       0.58716
  47    0.1255       28.2042        0.0003       63.1640       63.1643      34.960098       0.56847
  46    0.1487       28.2042        0.0004       63.1623       63.1627      34.958536       0.56968
  45    0.1794       28.2041        0.0006       63.1600       63.1605      34.956441       0.57495
  44    0.2165       28.2040        0.0008       63.1573       63.1580      34.954021       0.55048
  43    0.2613       28.2039        0.0010       63.1542       63.1552      34.951233       0.52562
  42    0.3336       28.2038        0.0013       63.1493       63.1506      34.946796       0.51732
  41    0.4307       28.2037        0.0018       63.1431       63.1450      34.941256       0.48169
  40    0.5894       28.2035        0.0026       63.1338       63.1364      34.932885       0.44513
  39     1.339       28.2038        0.0063       63.0956       63.1019      34.898064       0.39203
  38     1.782       28.2048        0.0085       63.0740       63.0825      34.877778       0.38621
  37     2.292       28.2065        0.0110       63.0477       63.0587      34.852174       0.42407
  36     2.964       28.2099        0.0144       63.0095       63.0239      34.813957       0.47974
  35     3.853       28.2159        0.0188       62.9533       62.9720      34.756066       0.54939
  34     5.035       28.2254        0.0246       62.8725       62.8971      34.671665       0.60293
  33     6.613       28.2388        0.0323       62.7621       62.7944      34.555581       0.62059
  32     8.786       28.2561        0.0428       62.6182       62.6610      34.404934       0.58506
  31     11.80       28.2778        0.0577       62.4284       62.4860      34.208175       0.55086
  30     15.07       28.2978        0.0736       62.2426       62.3162      34.018427       0.48989
  29     18.79       28.3172        0.0916       62.0493       62.1409      33.823633       0.44166
  28     23.16       28.3364        0.1125       61.8424       61.9550      33.618544       0.39658
  27     28.12       28.3542        0.1364       61.6278       61.7642      33.410002       0.35451
  26     33.73       28.3682        0.1631       61.4177       61.5807      33.212534       0.29690
  25     40.54       28.3783        0.1952       61.1983       61.3935      33.015262       0.24474
  24     48.69       28.3837        0.2339       60.9680       61.2019      32.818168       0.20396
  23     57.69       28.3833        0.2764       60.7478       61.0242      32.640849       0.16621
  22     68.43       28.3758        0.3268       60.5202       60.8470      32.471196       0.13337
  21     81.20       28.3574        0.3870       60.2938       60.6808      32.323376       0.09768
  20     96.49       28.3266        0.4585       60.0643       60.5228      32.196174       0.07021
  19     114.6       28.2908        0.5439       59.8078       60.3517      32.060902       0.06316
  18     136.5       28.2443        0.6449       59.5157       60.1607      31.916356       0.05558
  17     162.9       28.1852        0.7649       59.1770       59.9419      31.756702       0.05103
  16     196.4       28.1007        0.9199       58.7604       59.6804      31.579676       0.04456
  15     218.7       28.0424        1.0215       58.4948       59.5163      31.473905       0.04016
  14     243.0       27.9777        1.1316       58.2089       59.3405      31.362749       0.03855
  13     269.0       27.9066        1.2506       57.9006       59.1512      31.244578       0.03833
  12     297.5       27.8289        1.3788       57.5668       58.9456      31.116722       0.03792
  11     328.5       27.7452        1.5170       57.2005       58.7175      30.972277       0.03927
  10     361.9       27.6560        1.6653       56.7963       58.4616      30.805640       0.04216
   9     398.1       27.5614        1.8241       56.3475       58.1716      30.610231       0.04553
   8     437.6       27.4628        1.9938       55.8422       57.8361      30.373245       0.05067
   7     480.5       27.3624        2.1744       55.2625       57.4370      30.074525       0.05867
   6     533.0       27.2479        2.3946       54.4972       56.8917      29.643855       0.06928
   5     589.8       27.1357        2.6284       53.6307       56.2591      29.123456       0.07724
   4     651.6       27.0306        2.8752       52.6606       55.5358      28.505225       0.08454
   3     718.7       26.9347        3.1351       51.6100       54.7451      27.810429       0.08732
   2     792.3       26.8511        3.4078       50.5019       53.9097      27.058583       0.08623
   1     891.5       26.7768        3.7666       49.0197       52.7863      26.009469       0.08927
   0    1013.0       26.7656        4.1815       47.2289       51.4104      24.644829       0.09475



 Wavenumbers: 16000. - 22650. cm-1, ATM      1
 LEVEL PRESSURE   UPWARD FLUX   DIFDOWN FLUX  DIRDOWN FLUX  DOWNWARD FLUX   NET FLUX    HEATING RATE
          mb          W/m2          W/m2          W/m2        W/m2          W/m2       degree/day
  51    .06700       67.6352        0.0000      100.7153      100.7153      33.080137       0.00000
  50    .07753       67.6350        0.0003      100.7147      100.7151      33.080024       0.09090
  49    .09103       67.6349        0.0007      100.7140      100.7147      33.079859       0.10310
  48    0.1069       67.6347        0.0012      100.7131      100.7143      33.079638       0.11757
  47    0.1255       67.6345        0.0017      100.7121      100.7138      33.079342       0.13401
  46    0.1487       67.6342        0.0024      100.7108      100.7131      33.078906       0.15880
  45    0.1794       67.6339        0.0033      100.7089      100.7122      33.078225       0.18697
  44    0.2165       67.6336        0.0044      100.7066      100.7109      33.077302       0.21014
  43    0.2613       67.6333        0.0056      100.7037      100.7093      33.076048       0.23624
  42    0.3336       67.6328        0.0077      100.6987      100.7064      33.073666       0.27781
  41    0.4307       67.6322        0.0105      100.6918      100.7023      33.070074       0.31228
  40    0.5894       67.6316        0.0151      100.6797      100.6948      33.063225       0.36424
  39     1.339       67.6336        0.0367      100.6095      100.6462      33.012631       0.56959
  38     1.782       67.6383        0.0494      100.5585      100.6079      32.969546       0.82027
  37     2.292       67.6471        0.0641      100.4903      100.5543      32.907201       1.03259
  36     2.964       67.6638        0.0833      100.3868      100.4701      32.806254       1.26719
  35     3.853       67.6932        0.1088      100.2306      100.3394      32.646202       1.51892
  34     5.035       67.7392        0.1425      100.0045      100.1469      32.407700       1.70376
  33     6.613       67.8044        0.1874       99.6939       99.8812      32.076810       1.76894
  32     8.786       67.8886        0.2478       99.2881       99.5358      31.647215       1.66839
  31     11.80       67.9951        0.3338       98.7496       99.0835      31.088359       1.56462
  30     15.07       68.0932        0.4259       98.2198       98.6458      30.552540       1.38338
  29     18.79       68.1895        0.5296       97.6651       98.1947      30.005208       1.24097
  28     23.16       68.2852        0.6502       97.0671       97.7173      29.432127       1.10815
  27     28.12       68.3751        0.7876       96.4406       97.2281      28.853077       0.98435
  26     33.73       68.4474        0.9407       95.8179       96.7586      28.311194       0.81474
  25     40.54       68.5024        1.1251       95.1548       96.2800      27.777615       0.66196
  24     48.69       68.5371        1.3465       94.4420       95.7885      27.251414       0.54454
  23     57.69       68.5449        1.5886       93.7416       95.3302      26.785379       0.43684
  22     68.43       68.5215        1.8757       92.9954       94.8711      26.349568       0.34261
  21     81.20       68.4491        2.2163       92.2231       94.4395      25.990429       0.23731
  20     96.49       68.3216        2.6202       91.4110       94.0312      25.709652       0.15497
  19     114.6       68.1501        3.0963       90.5070       93.6033      25.453229       0.11973
  18     136.5       67.9339        3.6556       89.4803       93.1359      25.202021       0.09660
  17     162.9       67.6654        4.3147       88.3022       92.6169      24.951549       0.08006
  16     196.4       67.2922        5.1591       86.8606       92.0197      24.727452       0.05641
  15     218.7       67.0389        5.7072       85.9492       91.6564      24.617568       0.04172
  14     243.0       66.7605        6.2974       84.9789       91.2763      24.515872       0.03527
  13     269.0       66.4559        6.9304       83.9493       90.8797      24.423792       0.02987
  12     297.5       66.1245        7.6070       82.8589       90.4660      24.341433       0.02443
  11     328.5       65.7671        8.3294       81.6982       90.0277      24.260592       0.02198
  10     361.9       65.3835        9.0973       80.4669       89.5643      24.180765       0.02020
   9     398.1       64.9727        9.9124       79.1611       89.0735      24.100788       0.01863
   8     437.6       64.5350       10.7747       77.7777       88.5525      24.017496       0.01781
   7     480.5       64.0703       11.6845       76.3136       87.9982      23.927887       0.01760
   6     533.0       63.5055       12.7841       74.5359       87.3199      23.814422       0.01825
   5     589.8       62.9067       13.9443       72.6469       86.5913      23.684569       0.01927
   4     651.6       62.2756       15.1631       70.6456       85.8087      23.533031       0.02072
   3     718.7       61.6125       16.4378       68.5367       84.9745      23.361975       0.02150
   2     792.3       60.9199       17.7629       66.3287       84.0916      23.171737       0.02182
   1     891.5       60.0160       19.4869       63.4246       82.9116      22.895522       0.02350
   0    1013.0       58.9806       21.4596       60.0483       81.5080      22.527377       0.02556



 Wavenumbers: 22650. - 29000. cm-1, ATM      1
 LEVEL PRESSURE   UPWARD FLUX   DIFDOWN FLUX  DIRDOWN FLUX  DOWNWARD FLUX   NET FLUX    HEATING RATE
          mb          W/m2          W/m2          W/m2        W/m2          W/m2       degree/day
  51    .06700       29.9598        0.0000       38.0063       38.0063       8.046503       0.00000
  50    .07753       29.9596        0.0004       38.0057       38.0061       8.046503       0.00000
  49    .09103       29.9594        0.0008       38.0050       38.0059       8.046503       0.00000
  48    0.1069       29.9591        0.0014       38.0042       38.0056       8.046503      -0.00000
  47    0.1255       29.9588        0.0020       38.0033       38.0053       8.046503       0.00000
  46    0.1487       29.9584        0.0028       38.0022       38.0049       8.046503       0.00000
  45    0.1794       29.9579        0.0038       38.0006       38.0044       8.046503      -0.00000
  44    0.2165       29.9573        0.0051       37.9987       38.0038       8.046503       0.00000
  43    0.2613       29.9566        0.0066       37.9965       38.0031       8.046503      -0.00000
  42    0.3336       29.9554        0.0091       37.9928       38.0019       8.046503       0.00000
  41    0.4307       29.9538        0.0123       37.9880       38.0003       8.046503      -0.00000
  40    0.5894       29.9512        0.0177       37.9800       37.9977       8.046503       0.00000
  39     1.339       29.9389        0.0430       37.9425       37.9855       8.046503      -0.00000
  38     1.782       29.9317        0.0578       37.9204       37.9782       8.046503       0.00000
  37     2.292       29.9234        0.0750       37.8949       37.9699       8.046503       0.00000
  36     2.964       29.9125        0.0975       37.8614       37.9590       8.046503      -0.00000
  35     3.853       29.8980        0.1273       37.8172       37.9445       8.046503      -0.00000
  34     5.035       29.8789        0.1668       37.7586       37.9254       8.046503       0.00000
  33     6.613       29.8533        0.2195       37.6803       37.8998       8.046503      -0.00000
  32     8.786       29.8189        0.2903       37.5750       37.8654       8.046503      -0.00000
  31     11.80       29.7697        0.3914       37.4249       37.8162       8.046503       0.00000
  30     15.07       29.7171        0.4994       37.2642       37.7636       8.046503       0.00000
  29     18.79       29.6578        0.6210       37.0833       37.7043       8.046503       0.00000
  28     23.16       29.5889        0.7624       36.8730       37.6354       8.046503      -0.00000
  27     28.12       29.5104        0.9231       36.6338       37.5569       8.046503       0.00000
  26     33.73       29.4229        1.1017       36.3677       37.4694       8.046503       0.00000
  25     40.54       29.3179        1.3159       36.0486       37.3644       8.046503       0.00000
  24     48.69       29.1923        1.5716       35.6672       37.2388       8.046503       0.00000
  23     57.69       29.0555        1.8493       35.2527       37.1020       8.046503       0.00000
  22     68.43       28.8941        2.1757       34.7649       36.9406       8.046503      -0.00000
  21     81.20       28.7042        2.5584       34.1922       36.7507       8.046503       0.00000
  20     96.49       28.4811        3.0059       33.5217       36.5276       8.046503       0.00000
  19     114.6       28.2209        3.5250       32.7424       36.2674       8.046503      -0.00000
  18     136.5       27.9188        4.1237       31.8416       35.9653       8.046503       0.00000
  17     162.9       27.5677        4.8134       30.8008       35.6142       8.046503       0.00000
  16     196.4       27.1262        5.6720       29.5007       35.1727       8.046503      -0.00000
  15     218.7       26.8444        6.2142       28.6767       34.8909       8.046503      -0.00000
  14     243.0       26.5451        6.7849       27.8068       34.5916       8.046503       0.00000
  13     269.0       26.2289        7.3820       26.8933       34.2754       8.046503       0.00000
  12     297.5       25.8961        8.0034       25.9393       33.9427       8.046503      -0.00000
  11     328.5       25.5466        8.6480       24.9451       33.5931       8.046503       0.00000
  10     361.9       25.1815        9.3120       23.9160       33.2280       8.046503       0.00000
   9     398.1       24.8010        9.9934       22.8541       32.8475       8.046503       0.00000
   8     437.6       24.4061       10.6881       21.7645       32.4526       8.046503      -0.00000
   7     480.5       23.9978       11.3921       20.6521       32.0443       8.046503       0.00000
   6     533.0       23.5150       12.2046       19.3569       31.5615       8.046503      -0.00000
   5     589.8       23.0175       13.0173       18.0467       31.0640       8.046503      -0.00000
   4     651.6       22.5075       13.8224       16.7316       30.5540       8.046503       0.00000
   3     718.7       21.9869       14.6120       15.4214       30.0334       8.046503       0.00000
   2     792.3       21.4585       15.3774       14.1276       29.5050       8.046503      -0.00000
   1     891.5       20.7889       16.2895       12.5459       28.8354       8.046503       0.00000
   0    1013.0       20.0436       17.2183       10.8717       28.0901       8.046503      -0.00000



 Wavenumbers: 29000. - 38000. cm-1, ATM      1
 LEVEL PRESSURE   UPWARD FLUX   DIFDOWN FLUX  DIRDOWN FLUX  DOWNWARD FLUX   NET FLUX    HEATING RATE
          mb          W/m2          W/m2          W/m2        W/m2          W/m2       degree/day
  51    .06700        4.4704        0.0000       13.4026       13.4026       8.932217       0.00000
  50    .07753        4.4702        0.0003       13.3983       13.3986       8.928420       3.04400
  49    .09103        4.4699        0.0007       13.3921       13.3928       8.922901       3.44922
  48    0.1069        4.4696        0.0011       13.3840       13.3851       8.915525       3.92625
  47    0.1255        4.4692        0.0016       13.3733       13.3749       8.905682       4.46258
  46    0.1487        4.4688        0.0022       13.3579       13.3600       8.891241       5.26366
  45    0.1794        4.4682        0.0030       13.3340       13.3370       8.868845       6.14840
  44    0.2165        4.4675        0.0040       13.3024       13.3063       8.838830       6.82777
  43    0.2613        4.4667        0.0051       13.2604       13.2655       8.798782       7.54897
  42    0.3336        4.4655        0.0070       13.1833       13.1903       8.724787       8.62706
  41    0.4307        4.4639        0.0094       13.0729       13.0823       8.618433       9.24723
  40    0.5894        4.4614        0.0133       12.8796       12.8929       8.431426       9.94483
  39     1.339        4.4525        0.0293       11.9165       11.9459       7.493357      10.56095
  38     1.782        4.4489        0.0375       11.4399       11.4775       7.028605       8.84814
  37     2.292        4.4459        0.0463       10.9796       11.0259       6.579995       7.43014
  36     2.964        4.4438        0.0570       10.4786       10.5357       6.091876       6.12737
  35     3.853        4.4434        0.0703        9.9429       10.0132       5.569814       4.95446
  34     5.035        4.4453        0.0868        9.4007        9.4875       5.042249       3.76870
  33     6.613        4.4495        0.1078        8.8752        8.9830       4.533462       2.71998
  32     8.786        4.4556        0.1348        8.3786        8.5134       4.057807       1.84727
  31     11.80        4.4626        0.1718        7.8897        8.0615       3.598866       1.28489
  30     15.07        4.4682        0.2100        7.5108        7.7208       3.252585       0.89403
  29     18.79        4.4729        0.2515        7.1776        7.4291       2.956238       0.67191
  28     23.16        4.4765        0.2982        6.8664        7.1647       2.688191       0.51832
  27     28.12        4.4783        0.3499        6.5780        6.9279       2.449589       0.40561
  26     33.73        4.4761        0.4061        6.3195        6.7255       2.249391       0.30100
  25     40.54        4.4685        0.4723        6.0663        6.5385       2.070045       0.22250
  24     48.69        4.4548        0.5498        5.8128        6.3626       1.907871       0.16783
  23     57.69        4.4354        0.6324        5.5777        6.2101       1.774780       0.12475
  22     68.43        4.4076        0.7280        5.3379        6.0658       1.658267       0.09159
  21     81.20        4.3674        0.8387        5.0965        5.9352       1.567757       0.05981
  20     96.49        4.3135        0.9663        4.8476        5.8140       1.500488       0.03713
  19     114.6        4.2486        1.1108        4.5799        5.6906       1.442055       0.02728
  18     136.5        4.1734        1.2717        4.2891        5.5608       1.387416       0.02101
  17     162.9        4.0873        1.4496        3.9732        5.4228       1.335473       0.01660
  16     196.4        3.9786        1.6619        3.6080        5.2699       1.291223       0.01114
  15     218.7        3.9100        1.7905        3.3898        5.1803       1.270224       0.00797
  14     243.0        3.8385        1.9211        3.1686        5.0897       1.251225       0.00659
  13     269.0        3.7642        2.0526        2.9461        4.9987       1.234516       0.00542
  12     297.5        3.6876        2.1837        2.7239        4.9077       1.220105       0.00427
  11     328.5        3.6093        2.3130        2.5029        4.8159       1.206615       0.00367
  10     361.9        3.5298        2.4393        2.2846        4.7239       1.194065       0.00318
   9     398.1        3.4495        2.5612        2.0708        4.6320       1.182447       0.00271
   8     437.6        3.3687        2.6776        1.8626        4.5402       1.171509       0.00234
   7     480.5        3.2878        2.7870        1.6621        4.4492       1.161369       0.00199
   6     533.0        3.1954        2.9024        1.4437        4.3460       1.150595       0.00173
   5     589.8        3.1039        3.0053        1.2390        4.2443       1.140445       0.00151
   4     651.6        3.0136        3.0944        1.0500        4.1444       1.130782       0.00132
   3     718.7        2.9247        3.1684        0.8778        4.0462       1.121573       0.00116
   2     792.3        2.8374        3.2265        0.7237        3.9502       1.112801       0.00101
   1     891.5        2.7303        3.2763        0.5563        3.8326       1.102297       0.00089
   0    1013.0        2.6143        3.3015        0.4039        3.7055       1.091112       0.00078



 Wavenumbers: 38000. - 50000. cm-1, ATM      1
 LEVEL PRESSURE   UPWARD FLUX   DIFDOWN FLUX  DIRDOWN FLUX  DOWNWARD FLUX   NET FLUX    HEATING RATE
          mb          W/m2          W/m2          W/m2        W/m2          W/m2       degree/day
  51    .06700        0.0051        0.0000        0.8267        0.8267       0.821528       0.00000
  50    .07753        0.0051        0.0001        0.8242        0.8243       0.819196       1.86936
  49    .09103        0.0050        0.0002        0.8207        0.8209       0.815872       2.07705
  48    0.1069        0.0049        0.0002        0.8162        0.8164       0.811514       2.31984
  47    0.1255        0.0048        0.0004        0.8103        0.8106       0.805801       2.59006
  46    0.1487        0.0047        0.0005        0.8018        0.8023       0.797567       3.00143
  45    0.1794        0.0045        0.0007        0.7889        0.7896       0.785013       3.44648
  44    0.2165        0.0044        0.0009        0.7720        0.7729       0.768507       3.75474
  43    0.2613        0.0042        0.0011        0.7500        0.7511       0.746955       4.06246
  42    0.3336        0.0039        0.0015        0.7106        0.7121       0.708267       4.51071
  41    0.4307        0.0035        0.0019        0.6566        0.6584       0.654972       4.63387
  40    0.5894        0.0029        0.0024        0.5680        0.5704       0.567464       4.65357
  39     1.339        0.0015        0.0030        0.2422        0.2452       0.243720       3.64476
  38     1.782        0.0010        0.0026        0.1493        0.1519       0.150889       1.76735
  37     2.292        0.0007        0.0022        0.0924        0.0946       0.093932       0.94336
  36     2.964        0.0005        0.0018        0.0539        0.0557       0.055224       0.48589
  35     3.853        0.0003        0.0013        0.0295        0.0308       0.030502       0.23462
  34     5.035        0.0002        0.0010        0.0154        0.0164       0.016181       0.10230
  33     6.613        0.0001        0.0007        0.0073        0.0080       0.007912       0.04420
  32     8.786        0.0000        0.0004        0.0030        0.0034       0.003390       0.01756
  31     11.80        0.0000        0.0003        0.0010        0.0012       0.001199       0.00613
  30     15.07        0.0000        0.0001        0.0003        0.0005       0.000463       0.00190
  29     18.79        0.0000        0.0001        0.0001        0.0002       0.000182       0.00064
  28     23.16        0.0000        0.0000        0.0000        0.0001       0.000071       0.00022
  27     28.12        0.0000        0.0000        0.0000        0.0000       0.000028       0.00007
  26     33.73        0.0000        0.0000        0.0000        0.0000       0.000011       0.00002
  25     40.54        0.0000        0.0000        0.0000        0.0000       0.000005       0.00001
  24     48.69        0.0000        0.0000        0.0000        0.0000       0.000002       0.00000
  23     57.69        0.0000        0.0000        0.0000        0.0000       0.000001       0.00000
  22     68.43        0.0000        0.0000        0.0000        0.0000       0.000000       0.00000
  21     81.20        0.0000        0.0000        0.0000        0.0000       0.000000       0.00000
  20     96.49        0.0000        0.0000        0.0000        0.0000       0.000000       0.00000
  19     114.6        0.0000        0.0000        0.0000        0.0000       0.000000       0.00000
  18     136.5        0.0000        0.0000        0.0000        0.0000       0.000000       0.00000
  17     162.9        0.0000        0.0000        0.0000        0.0000       0.000000       0.00000
  16     196.4        0.0000        0.0000        0.0000        0.0000       0.000000       0.00000
  15     218.7        0.0000        0.0000        0.0000        0.0000       0.000000       0.00000
  14     243.0        0.0000        0.0000        0.0000        0.0000       0.000000       0.00000
  13     269.0        0.0000        0.0000        0.0000        0.0000       0.000000       0.00000
  12     297.5        0.0000        0.0000        0.0000        0.0000       0.000000       0.00000
  11     328.5        0.0000        0.0000        0.0000        0.0000       0.000000       0.00000
  10     361.9        0.0000        0.0000        0.0000        0.0000       0.000000       0.00000
   9     398.1        0.0000        0.0000        0.0000        0.0000       0.000000       0.00000
   8     437.6        0.0000        0.0000        0.0000        0.0000       0.000000       0.00000
   7     480.5        0.0000        0.0000        0.0000        0.0000       0.000000       0.00000
   6     533.0        0.0000        0.0000        0.0000        0.0000       0.000000       0.00000
   5     589.8        0.0000        0.0000        0.0000        0.0000       0.000000       0.00000
   4     651.6        0.0000        0.0000        0.0000        0.0000       0.000000       0.00000
   3     718.7        0.0000        0.0000        0.0000        0.0000       0.000000       0.00000
   2     792.3        0.0000        0.0000        0.0000        0.0000       0.000000       0.00000
   1     891.5        0.0000        0.0000        0.0000        0.0000       0.000000       0.00000
   0    1013.0        0.0000        0.0000        0.0000        0.0000       0.000000       0.00000



 Wavenumbers:   820. -  2600. cm-1, ATM      1
 LEVEL PRESSURE   UPWARD FLUX   DIFDOWN FLUX  DIRDOWN FLUX  DOWNWARD FLUX   NET FLUX    HEATING RATE
          mb          W/m2          W/m2          W/m2        W/m2          W/m2       degree/day
  51    .06700        0.1692        0.0000        3.8670        3.8670       3.697789       0.00000
  50    .07753        0.1692        0.0000        3.8643        3.8643       3.695072       2.17769
  49    .09103        0.1692        0.0000        3.8635        3.8635       3.694262       0.50638
  48    0.1069        0.1692        0.0000        3.8626        3.8626       3.693371       0.47415
  47    0.1255        0.1692        0.0000        3.8616        3.8616       3.692410       0.43559
  46    0.1487        0.1692        0.0000        3.8605        3.8605       3.691301       0.40437
  45    0.1794        0.1692        0.0000        3.8592        3.8592       3.689966       0.36648
  44    0.2165        0.1692        0.0000        3.8578        3.8578       3.688588       0.31346
  43    0.2613        0.1692        0.0000        3.8564        3.8564       3.687128       0.27522
  42    0.3336        0.1692        0.0000        3.8541        3.8541       3.684897       0.26012
  41    0.4307        0.1692        0.0000        3.8512        3.8512       3.682015       0.25063
  40    0.5894        0.1692        0.0000        3.8465        3.8465       3.677288       0.25133
  39     1.339        0.1692        0.0000        3.8251        3.8251       3.655913       0.24064
  38     1.782        0.1692        0.0000        3.8133        3.8133       3.644101       0.22489
  37     2.292        0.1692        0.0000        3.8003        3.8003       3.631040       0.21633
  36     2.964        0.1692        0.0000        3.7841        3.7841       3.614911       0.20246
  35     3.853        0.1692        0.0000        3.7642        3.7642       3.594996       0.18899
  34     5.035        0.1692        0.0000        3.7395        3.7395       3.570306       0.17638
  33     6.613        0.1692        0.0000        3.7090        3.7090       3.539770       0.16324
  32     8.786        0.1692        0.0000        3.6726        3.6726       3.503378       0.14134
  31     11.80        0.1692        0.0000        3.6320        3.6320       3.462784       0.11365
  30     15.07        0.1692        0.0000        3.6016        3.6016       3.432401       0.07844
  29     18.79        0.1692        0.0000        3.5777        3.5777       3.408503       0.05418
  28     23.16        0.1692        0.0000        3.5564        3.5564       3.387151       0.04129
  27     28.12        0.1692        0.0000        3.5348        3.5348       3.365605       0.03663
  26     33.73        0.1692        0.0000        3.5118        3.5118       3.342573       0.03463
  25     40.54        0.1692        0.0000        3.4849        3.4849       3.315687       0.03336
  24     48.69        0.1692        0.0000        3.4537        3.4537       3.284436       0.03234
  23     57.69        0.1693        0.0000        3.4210        3.4210       3.251764       0.03063
  22     68.43        0.1693        0.0000        3.3844        3.3844       3.215179       0.02876
  21     81.20        0.1693        0.0000        3.3441        3.3441       3.174882       0.02663
  20     96.49        0.1693        0.0000        3.2998        3.2998       3.130519       0.02449
  19     114.6        0.1693        0.0000        3.2506        3.2506       3.081371       0.02295
  18     136.5        0.1693        0.0000        3.1936        3.1936       3.024322       0.02194
  17     162.9        0.1693        0.0000        3.1181        3.1181       2.948818       0.02413
  16     196.4        0.1694        0.0000        3.0090        3.0090       2.839626       0.02748
  15     218.7        0.1694        0.0000        2.9420        2.9420       2.772618       0.02544
  14     243.0        0.1694        0.0000        2.8605        2.8605       2.691050       0.02829
  13     269.0        0.1695        0.0000        2.7419        2.7420       2.572457       0.03847
  12     297.5        0.1697        0.0000        2.5729        2.5729       2.403230       0.05019
  11     328.5        0.1699        0.0000        2.3602        2.3602       2.190303       0.05789
  10     361.9        0.1703        0.0000        2.1524        2.1524       1.982165       0.05266
   9     398.1        0.1708        0.0000        1.9974        1.9974       1.826617       0.03624
   8     437.6        0.1716        0.0000        1.8835        1.8835       1.711934       0.02452
   7     480.5        0.1727        0.0000        1.7734        1.7734       1.600723       0.02184
   6     533.0        0.1746        0.0000        1.6397        1.6398       1.465141       0.02181
   5     589.8        0.1774        0.0000        1.5068        1.5069       1.329480       0.02014
   4     651.6        0.1815        0.0000        1.3807        1.3807       1.199246       0.01781
   3     718.7        0.1869        0.0000        1.2680        1.2680       1.081113       0.01485
   2     792.3        0.1936        0.0000        1.1659        1.1660       0.972340       0.01248
   1     891.5        0.2049        0.0000        1.0372        1.0373       0.832350       0.01191
   0    1013.0        0.2254        0.0000        0.8716        0.8717       0.646261       0.01292

  Modules and versions used in this calculation:

       rrtmg_sw.1col.f90:  $Revision$                    rrtmg_sw_init.f90:  $Revision$        
     rrtmgsw_cldprop.f90:  $Revision$                  rrtmgsw_cldprmc.f90:  NOT USED          
     rrtmg_sw_reftra.f90:  $Revision$                  rrtmg_sw_spcvrt.f90:  NOT USED          
     rrtmg_sw_spcvmc.f90:  NOT USED                    rrtmgsw_setcoef.f90:  NOT USED          
     rrtmg_sw_taumol.f90:  $Revision$                  rrtmg_sw_vrtqdr.f90:  NOT USED          
                rrtatm.f:  NOT USED                             util_xxx.f:  NOT USED          
                 extra.f:  NOT USED                       rrtmg_sw_k_g.f90:  $Revision$        

