

 Wavenumbers:   820. - 50000. cm-1, ATM      1
 LEVEL PRESSURE   UPWARD FLUX   DIFDOWN FLUX  DIRDOWN FLUX  DOWNWARD FLUX   NET FLUX    HEATING RATE
          mb          W/m2          W/m2          W/m2        W/m2          W/m2       degree/day
  51    .06700      163.3432        0.0000      397.8738      397.8738     234.530563       0.00000
  50    .07753      163.3426        0.0011      397.8577      397.8589     234.516284      11.44536
  49    .09103      163.3418        0.0026      397.8418      397.8444     234.502611       8.54545
  48    0.1069      163.3409        0.0042      397.8230      397.8272     234.486285       8.69067
  47    0.1255      163.3399        0.0061      397.7997      397.8058     234.465870       9.25494
  46    0.1487      163.3387        0.0085      397.7676      397.7762     234.437454      10.35812
  45    0.1794      163.3371        0.0118      397.7205      397.7323     234.395225      11.59275
  44    0.2165      163.3352        0.0156      397.6602      397.6759     234.340662      12.41212
  43    0.2613      163.3331        0.0202      397.5829      397.6031     234.269980      13.32327
  42    0.3336      163.3298        0.0276      397.4449      397.4725     234.142759      14.83280
  41    0.4307      163.3256        0.0374      397.2524      397.2898     233.964215      15.52395
  40    0.5894      163.3193        0.0531      396.9253      396.9784     233.659115      16.22482
  39     1.339      163.2998        0.1233      395.4254      395.5487     232.248877      15.87672
  38     1.782      163.2950        0.1626      394.7288      394.8914     231.596423      12.42168
  37     2.292      163.2952        0.2074      394.0572      394.2645     230.969313      10.38658
  36     2.964      163.3041        0.2654      393.3007      393.5661     230.262029       8.87855
  35     3.853      163.3276        0.3413      392.4318      392.7731     229.445442       7.74956
  34     5.035      163.3707        0.4411      391.4441      391.8851     228.514440       6.65069
  33     6.613      163.4348        0.5733      390.3268      390.9000     227.465201       5.60923
  32     8.786      163.5167        0.7500      389.0624      389.8124     226.295658       4.54208
  31     11.80      163.6145        1.0008      387.5500      388.5507     224.936242       3.80594
  30     15.07      163.6967        1.2678      386.1556      387.4234     223.726651       3.12293
  29     18.79      163.7693        1.5669      384.7502      386.3171     222.547792       2.67284
  28     23.16      163.8308        1.9135      383.2686      385.1821     221.351297       2.31363
  27     28.12      163.8738        2.3064      381.7329      384.0393     220.165514       2.01575
  26     33.73      163.8818        2.7428      380.1982      382.9410     219.059251       1.66330
  25     40.54      163.8449        3.2661      378.5384      381.8045     217.959578       1.36427
  24     48.69      163.7561        3.8912      376.7214      380.6126     216.856514       1.14150
  23     57.69      163.6161        4.5711      374.8959      379.4670     215.850886       0.94262
  22     68.43      163.4039        5.3724      372.8999      378.2723     214.868367       0.77239
  21     81.20      163.0884        6.3165      370.7496      377.0661     213.977703       0.58854
  20     96.49      162.6561        7.4266      368.4056      375.8322     213.176150       0.44240
  19     114.6      162.1254        8.7226      365.7513      374.4739     212.348451       0.38648
  18     136.5      161.4863       10.2268      362.7231      372.9499     211.463584       0.34025
  17     162.9      160.7217       11.9740      359.1748      371.1488     210.427086       0.33131
  16     196.4      159.7116       14.1749      354.5718      368.7467     209.035150       0.35037
  15     218.7      159.0473       15.5813      351.4437      367.0250     207.977763       0.40145
  14     243.0      158.3309       17.0762      347.7111      364.7873     206.456389       0.52766
  13     269.0      157.5624       18.6574      342.9441      361.6015     204.039114       0.78415
  12     297.5      156.7425       20.3226      337.4137      357.7363     200.993841       0.90319
  11     328.5      155.8738       22.0730      331.1302      353.2032     197.329485       0.99633
  10     361.9      154.9595       23.9030      324.1219      348.0249     193.065407       1.07885
   9     398.1      154.0007       25.8114      316.6066      342.4180     188.417338       1.08290
   8     437.6      153.0027       27.7935      308.5895      336.3830     183.380296       1.07695
   7     480.5      151.9739       29.8431      299.9349      329.7780     177.804070       1.09515
   6     533.0      150.7678       32.2662      289.7021      321.9684     171.200587       1.06229
   5     589.8      149.5447       34.7618      279.3388      314.1006     164.555857       0.98630
   4     651.6      148.3272       37.3172      268.7786      306.0958     157.768629       0.92817
   3     718.7      147.1277       39.9228      258.2837      298.2064     151.078742       0.84073
   2     792.3      145.9618       42.5639      248.0774      290.6413     144.679435       0.73393
   1     891.5      144.6068       45.9005      235.5216      281.4221     136.815290       0.66920
   0    1013.0      143.4293       49.5833      221.4731      271.0564     127.627132       0.63798



 Wavenumbers:  2600. -  3250. cm-1, ATM      1
 LEVEL PRESSURE   UPWARD FLUX   DIFDOWN FLUX  DIRDOWN FLUX  DOWNWARD FLUX   NET FLUX    HEATING RATE
          mb          W/m2          W/m2          W/m2        W/m2          W/m2       degree/day
  51    .06700        0.2237        0.0000        3.5066        3.5066       3.282877       0.00000
  50    .07753        0.2237        0.0000        3.5066        3.5066       3.282869       0.00640
  49    .09103        0.2237        0.0000        3.5066        3.5066       3.282859       0.00627
  48    0.1069        0.2237        0.0000        3.5066        3.5066       3.282847       0.00613
  47    0.1255        0.2237        0.0000        3.5066        3.5066       3.282834       0.00599
  46    0.1487        0.2237        0.0000        3.5066        3.5066       3.282818       0.00607
  45    0.1794        0.2237        0.0000        3.5065        3.5065       3.282795       0.00624
  44    0.2165        0.2237        0.0000        3.5065        3.5065       3.282768       0.00611
  43    0.2613        0.2237        0.0000        3.5065        3.5065       3.282736       0.00598
  42    0.3336        0.2237        0.0000        3.5064        3.5064       3.282683       0.00615
  41    0.4307        0.2237        0.0000        3.5064        3.5064       3.282612       0.00618
  40    0.5894        0.2237        0.0000        3.5062        3.5062       3.282493       0.00633
  39     1.339        0.2237        0.0000        3.5055        3.5055       3.281795       0.00787
  38     1.782        0.2237        0.0000        3.5050        3.5050       3.281264       0.01011
  37     2.292        0.2237        0.0000        3.5043        3.5043       3.280571       0.01147
  36     2.964        0.2237        0.0000        3.5033        3.5033       3.279580       0.01245
  35     3.853        0.2237        0.0000        3.5019        3.5019       3.278203       0.01307
  34     5.035        0.2237        0.0000        3.5001        3.5001       3.276342       0.01329
  33     6.613        0.2237        0.0000        3.4977        3.4977       3.273932       0.01288
  32     8.786        0.2237        0.0000        3.4947        3.4947       3.270961       0.01154
  31     11.80        0.2237        0.0000        3.4911        3.4911       3.267326       0.01018
  30     15.07        0.2237        0.0000        3.4878        3.4878       3.264105       0.00832
  29     18.79        0.2237        0.0000        3.4848        3.4848       3.261042       0.00695
  28     23.16        0.2237        0.0000        3.4816        3.4816       3.257822       0.00623
  27     28.12        0.2237        0.0000        3.4779        3.4779       3.254204       0.00615
  26     33.73        0.2237        0.0000        3.4735        3.4735       3.249738       0.00671
  25     40.54        0.2237        0.0000        3.4671        3.4671       3.243413       0.00785
  24     48.69        0.2237        0.0000        3.4582        3.4583       3.234518       0.00920
  23     57.69        0.2237        0.0000        3.4472        3.4472       3.223471       0.01036
  22     68.43        0.2237        0.0000        3.4329        3.4329       3.209212       0.01121
  21     81.20        0.2237        0.0000        3.4152        3.4152       3.191485       0.01171
  20     96.49        0.2237        0.0000        3.3940        3.3941       3.170343       0.01167
  19     114.6        0.2237        0.0000        3.3692        3.3692       3.145456       0.01162
  18     136.5        0.2238        0.0001        3.3419        3.3420       3.118242       0.01046
  17     162.9        0.2238        0.0001        3.3129        3.3129       3.089172       0.00929
  16     196.4        0.2238        0.0001        3.2793        3.2794       3.055606       0.00845
  15     218.7        0.2238        0.0001        3.2578        3.2578       3.033995       0.00820
  14     243.0        0.2239        0.0001        3.2320        3.2320       3.008132       0.00897
  13     269.0        0.2240        0.0001        3.1968        3.1969       2.972897       0.01143
  12     297.5        0.2242        0.0001        3.1489        3.1490       2.924835       0.01425
  11     328.5        0.2245        0.0001        3.0821        3.0822       2.857683       0.01826
  10     361.9        0.2249        0.0001        2.9902        2.9904       2.765463       0.02333
   9     398.1        0.2255        0.0001        2.8715        2.8716       2.646147       0.02780
   8     437.6        0.2263        0.0001        2.7276        2.7278       2.501501       0.03093
   7     480.5        0.2275        0.0001        2.5595        2.5597       2.332175       0.03326
   6     533.0        0.2295        0.0001        2.3617        2.3619       2.132414       0.03214
   5     589.8        0.2323        0.0002        2.1649        2.1651       1.932744       0.02964
   4     651.6        0.2365        0.0002        1.9608        1.9609       1.724465       0.02848
   3     718.7        0.2421        0.0002        1.7593        1.7595       1.517416       0.02602
   2     792.3        0.2494        0.0002        1.5761        1.5762       1.326822       0.02186
   1     891.5        0.2620        0.0002        1.3714        1.3716       1.109607       0.01848
   0    1013.0        0.2847        0.0002        1.1584        1.1586       0.873817       0.01637



 Wavenumbers:  3250. -  4000. cm-1, ATM      1
 LEVEL PRESSURE   UPWARD FLUX   DIFDOWN FLUX  DIRDOWN FLUX  DOWNWARD FLUX   NET FLUX    HEATING RATE
          mb          W/m2          W/m2          W/m2        W/m2          W/m2       degree/day
  51    .06700        0.0004        0.0000        5.9117        5.9117       5.911216       0.00000
  50    .07753        0.0004        0.0000        5.9075        5.9075       5.907026       3.35808
  49    .09103        0.0004        0.0000        5.9050        5.9050       5.904584       1.52677
  48    0.1069        0.0004        0.0000        5.9032        5.9032       5.902717       0.99346
  47    0.1255        0.0004        0.0000        5.9014        5.9014       5.900959       0.79708
  46    0.1487        0.0004        0.0000        5.8995        5.8995       5.899070       0.68848
  45    0.1794        0.0004        0.0000        5.8974        5.8974       5.896922       0.58983
  44    0.2165        0.0004        0.0000        5.8952        5.8952       5.894805       0.48155
  43    0.2613        0.0004        0.0000        5.8931        5.8931       5.892646       0.40696
  42    0.3336        0.0004        0.0000        5.8899        5.8899       5.889488       0.36820
  41    0.4307        0.0004        0.0000        5.8861        5.8861       5.885651       0.33365
  40    0.5894        0.0004        0.0000        5.8803        5.8803       5.879848       0.30857
  39     1.339        0.0004        0.0000        5.8597        5.8597       5.859251       0.23189
  38     1.782        0.0004        0.0000        5.8513        5.8513       5.850826       0.16039
  37     2.292        0.0004        0.0000        5.8431        5.8431       5.842655       0.13533
  36     2.964        0.0004        0.0000        5.8334        5.8334       5.833015       0.12100
  35     3.853        0.0004        0.0000        5.8213        5.8213       5.820840       0.11555
  34     5.035        0.0004        0.0000        5.8052        5.8052       5.804745       0.11498
  33     6.613        0.0004        0.0000        5.7833        5.7834       5.782923       0.11666
  32     8.786        0.0004        0.0000        5.7531        5.7531       5.752722       0.11729
  31     11.80        0.0004        0.0000        5.7090        5.7090       5.708553       0.12366
  30     15.07        0.0004        0.0000        5.6615        5.6615       5.661088       0.12254
  29     18.79        0.0004        0.0000        5.6093        5.6094       5.608953       0.11821
  28     23.16        0.0004        0.0000        5.5524        5.5524       5.552027       0.11008
  27     28.12        0.0004        0.0000        5.4935        5.4935       5.493148       0.10009
  26     33.73        0.0004        0.0000        5.4348        5.4349       5.434459       0.08824
  25     40.54        0.0004        0.0001        5.3707        5.3708       5.370398       0.07948
  24     48.69        0.0004        0.0001        5.2985        5.2985       5.298165       0.07475
  23     57.69        0.0004        0.0001        5.2215        5.2216       5.221226       0.07212
  22     68.43        0.0003        0.0001        5.1318        5.1319       5.131566       0.07048
  21     81.20        0.0003        0.0001        5.0284        5.0285       5.028136       0.06834
  20     96.49        0.0003        0.0001        4.9122        4.9123       4.912002       0.06410
  19     114.6        0.0003        0.0001        4.7780        4.7782       4.777891       0.06262
  18     136.5        0.0003        0.0002        4.6285        4.6287       4.628413       0.05748
  17     162.9        0.0002        0.0002        4.4406        4.4407       4.440500       0.06006
  16     196.4        0.0002        0.0002        4.1548        4.1550       4.154827       0.07191
  15     218.7        0.0002        0.0002        3.9564        3.9566       3.956446       0.07532
  14     243.0        0.0002        0.0002        3.7055        3.7058       3.705612       0.08700
  13     269.0        0.0001        0.0002        3.3399        3.3401       3.339973       0.11861
  12     297.5        0.0001        0.0002        2.8954        2.8956       2.895483       0.13183
  11     328.5        0.0001        0.0002        2.4388        2.4390       2.438942       0.12413
  10     361.9        0.0001        0.0002        2.0269        2.0271       2.027003       0.10422
   9     398.1        0.0001        0.0002        1.6753        1.6755       1.675415       0.08191
   8     437.6        0.0001        0.0002        1.3592        1.3594       1.359296       0.06759
   7     480.5        0.0001        0.0002        1.0616        1.0618       1.061713       0.05844
   6     533.0        0.0001        0.0001        0.7543        0.7544       0.754377       0.04944
   5     589.8        0.0001        0.0001        0.4951        0.4952       0.495181       0.03847
   4     651.6        0.0001        0.0001        0.2943        0.2943       0.294278       0.02747
   3     718.7        0.0001        0.0001        0.1528        0.1529       0.152770       0.01778
   2     792.3        0.0001        0.0000        0.0658        0.0658       0.065710       0.00998
   1     891.5        0.0003        0.0000        0.0157        0.0157       0.015360       0.00428
   0    1013.0        0.0013        0.0000        0.0013        0.0013       0.000051       0.00106



 Wavenumbers:  4000. -  4650. cm-1, ATM      1
 LEVEL PRESSURE   UPWARD FLUX   DIFDOWN FLUX  DIRDOWN FLUX  DOWNWARD FLUX   NET FLUX    HEATING RATE
          mb          W/m2          W/m2          W/m2        W/m2          W/m2       degree/day
  51    .06700        0.6301        0.0000        6.9421        6.9421       6.311940       0.00000
  50    .07753        0.6301        0.0000        6.9421        6.9421       6.311939       0.00079
  49    .09103        0.6301        0.0000        6.9421        6.9421       6.311938       0.00078
  48    0.1069        0.6301        0.0000        6.9421        6.9421       6.311937       0.00076
  47    0.1255        0.6301        0.0000        6.9421        6.9421       6.311935       0.00074
  46    0.1487        0.6301        0.0000        6.9421        6.9421       6.311933       0.00075
  45    0.1794        0.6301        0.0000        6.9421        6.9421       6.311930       0.00077
  44    0.2165        0.6301        0.0000        6.9421        6.9421       6.311927       0.00076
  43    0.2613        0.6301        0.0000        6.9420        6.9420       6.311923       0.00074
  42    0.3336        0.6301        0.0000        6.9420        6.9420       6.311916       0.00076
  41    0.4307        0.6301        0.0000        6.9420        6.9420       6.311907       0.00077
  40    0.5894        0.6301        0.0000        6.9420        6.9420       6.311892       0.00079
  39     1.339        0.6301        0.0000        6.9419        6.9419       6.311804       0.00100
  38     1.782        0.6301        0.0000        6.9418        6.9419       6.311734       0.00132
  37     2.292        0.6301        0.0000        6.9418        6.9418       6.311641       0.00155
  36     2.964        0.6301        0.0000        6.9416        6.9416       6.311501       0.00175
  35     3.853        0.6301        0.0000        6.9414        6.9414       6.311295       0.00196
  34     5.035        0.6301        0.0000        6.9411        6.9411       6.310990       0.00218
  33     6.613        0.6301        0.0000        6.9406        6.9406       6.310543       0.00239
  32     8.786        0.6301        0.0000        6.9399        6.9400       6.309883       0.00256
  31     11.80        0.6301        0.0000        6.9389        6.9389       6.308849       0.00290
  30     15.07        0.6301        0.0001        6.9377        6.9377       6.307639       0.00312
  29     18.79        0.6301        0.0001        6.9362        6.9362       6.306182       0.00330
  28     23.16        0.6301        0.0001        6.9343        6.9344       6.304380       0.00348
  27     28.12        0.6300        0.0001        6.9321        6.9322       6.302209       0.00369
  26     33.73        0.6300        0.0001        6.9294        6.9296       6.299545       0.00400
  25     40.54        0.6300        0.0001        6.9258        6.9260       6.295954       0.00445
  24     48.69        0.6300        0.0002        6.9210        6.9212       6.291203       0.00492
  23     57.69        0.6300        0.0002        6.9154        6.9156       6.285615       0.00524
  22     68.43        0.6299        0.0002        6.9083        6.9086       6.278671       0.00546
  21     81.20        0.6299        0.0003        6.8998        6.9001       6.270185       0.00561
  20     96.49        0.6299        0.0004        6.8894        6.8898       6.259941       0.00565
  19     114.6        0.6298        0.0004        6.8765        6.8770       6.247127       0.00598
  18     136.5        0.6298        0.0005        6.8610        6.8615       6.231684       0.00594
  17     162.9        0.6298        0.0006        6.8417        6.8423       6.212496       0.00613
  16     196.4        0.6298        0.0007        6.8147        6.8154       6.185619       0.00677
  15     218.7        0.6298        0.0008        6.7948        6.7956       6.165851       0.00751
  14     243.0        0.6298        0.0009        6.7698        6.7707       6.140811       0.00868
  13     269.0        0.6300        0.0010        6.7349        6.7358       6.105834       0.01135
  12     297.5        0.6302        0.0011        6.6869        6.6879       6.057689       0.01428
  11     328.5        0.6306        0.0012        6.6194        6.6205       5.989928       0.01842
  10     361.9        0.6311        0.0013        6.5295        6.5307       5.899609       0.02285
   9     398.1        0.6318        0.0014        6.4202        6.4216       5.789775       0.02559
   8     437.6        0.6327        0.0015        6.2962        6.2977       5.664914       0.02670
   7     480.5        0.6340        0.0016        6.1555        6.1571       5.523064       0.02786
   6     533.0        0.6361        0.0017        5.9675        5.9693       5.333148       0.03055
   5     589.8        0.6392        0.0019        5.7368        5.7386       5.099456       0.03469
   4     651.6        0.6436        0.0020        5.4662        5.4682       4.824616       0.03759
   3     718.7        0.6497        0.0021        5.1912        5.1933       4.543604       0.03532
   2     792.3        0.6576        0.0022        4.9395        4.9417       4.284145       0.02976
   1     891.5        0.6711        0.0024        4.6486        4.6510       3.979941       0.02589
   0    1013.0        0.6953        0.0025        4.3179        4.3204       3.625087       0.02464



 Wavenumbers:  4650. -  5150. cm-1, ATM      1
 LEVEL PRESSURE   UPWARD FLUX   DIFDOWN FLUX  DIRDOWN FLUX  DOWNWARD FLUX   NET FLUX    HEATING RATE
          mb          W/m2          W/m2          W/m2        W/m2          W/m2       degree/day
  51    .06700        0.4412        0.0000        6.5710        6.5710       6.129774       0.00000
  50    .07753        0.4412        0.0000        6.5708        6.5708       6.129538       0.18887
  49    .09103        0.4412        0.0000        6.5705        6.5705       6.129244       0.18362
  48    0.1069        0.4412        0.0000        6.5701        6.5701       6.128910       0.17806
  47    0.1255        0.4412        0.0000        6.5697        6.5697       6.128529       0.17238
  46    0.1487        0.4412        0.0000        6.5693        6.5693       6.128056       0.17268
  45    0.1794        0.4412        0.0000        6.5686        6.5686       6.127419       0.17473
  44    0.2165        0.4412        0.0000        6.5679        6.5679       6.126681       0.16788
  43    0.2613        0.4412        0.0000        6.5670        6.5670       6.125828       0.16078
  42    0.3336        0.4412        0.0000        6.5657        6.5657       6.124465       0.15894
  41    0.4307        0.4412        0.0000        6.5640        6.5640       6.122743       0.14971
  40    0.5894        0.4412        0.0000        6.5613        6.5613       6.120127       0.13913
  39     1.339        0.4412        0.0000        6.5516        6.5516       6.110349       0.11008
  38     1.782        0.4412        0.0000        6.5473        6.5473       6.106134       0.08026
  37     2.292        0.4412        0.0000        6.5434        6.5435       6.102247       0.06438
  36     2.964        0.4412        0.0000        6.5395        6.5395       6.098292       0.04964
  35     3.853        0.4412        0.0000        6.5355        6.5356       6.094350       0.03742
  34     5.035        0.4412        0.0000        6.5315        6.5315       6.090348       0.02859
  33     6.613        0.4412        0.0000        6.5271        6.5271       6.085954       0.02349
  32     8.786        0.4412        0.0000        6.5216        6.5216       6.080460       0.02134
  31     11.80        0.4412        0.0001        6.5135        6.5135       6.072383       0.02261
  30     15.07        0.4411        0.0001        6.5041        6.5042       6.063016       0.02418
  29     18.79        0.4411        0.0001        6.4925        6.4926       6.051503       0.02610
  28     23.16        0.4411        0.0001        6.4779        6.4780       6.036915       0.02821
  27     28.12        0.4411        0.0002        6.4599        6.4600       6.018945       0.03055
  26     33.73        0.4411        0.0002        6.4384        6.4386       5.997522       0.03221
  25     40.54        0.4410        0.0002        6.4112        6.4114       5.970407       0.03364
  24     48.69        0.4410        0.0003        6.3775        6.3778       5.936786       0.03479
  23     57.69        0.4410        0.0003        6.3404        6.3407       5.899715       0.03475
  22     68.43        0.4409        0.0004        6.2971        6.2975       5.856553       0.03393
  21     81.20        0.4409        0.0004        6.2483        6.2487       5.807779       0.03223
  20     96.49        0.4409        0.0005        6.1948        6.1953       5.754464       0.02943
  19     114.6        0.4408        0.0006        6.1381        6.1388       5.697906       0.02641
  18     136.5        0.4408        0.0007        6.0790        6.0797       5.638904       0.02269
  17     162.9        0.4408        0.0009        6.0160        6.0169       5.576092       0.02008
  16     196.4        0.4408        0.0010        5.9399        5.9409       5.500076       0.01913
  15     218.7        0.4408        0.0011        5.8896        5.8908       5.449917       0.01904
  14     243.0        0.4409        0.0012        5.8322        5.8334       5.392516       0.01991
  13     269.0        0.4410        0.0014        5.7624        5.7638       5.322719       0.02264
  12     297.5        0.4413        0.0015        5.6767        5.6782       5.236943       0.02544
  11     328.5        0.4416        0.0016        5.5726        5.5742       5.132578       0.02838
  10     361.9        0.4422        0.0018        5.4473        5.4491       5.006925       0.03179
   9     398.1        0.4429        0.0019        5.2995        5.3014       4.858480       0.03458
   8     437.6        0.4439        0.0020        5.1275        5.1295       4.685573       0.03697
   7     480.5        0.4453        0.0022        4.9290        4.9311       4.485780       0.03924
   6     533.0        0.4476        0.0023        4.6794        4.6817       4.234036       0.04050
   5     589.8        0.4509        0.0024        4.4188        4.4212       3.970340       0.03914
   4     651.6        0.4554        0.0025        4.1521        4.1546       3.699199       0.03708
   3     718.7        0.4615        0.0027        3.8929        3.8956       3.434055       0.03332
   2     792.3        0.4695        0.0028        3.6469        3.6496       3.180157       0.02912
   1     891.5        0.4830        0.0029        3.3535        3.3564       2.873319       0.02611
   0    1013.0        0.5064        0.0030        3.0383        3.0414       2.535008       0.02349



 Wavenumbers:  5150. -  6150. cm-1, ATM      1
 LEVEL PRESSURE   UPWARD FLUX   DIFDOWN FLUX  DIRDOWN FLUX  DOWNWARD FLUX   NET FLUX    HEATING RATE
          mb          W/m2          W/m2          W/m2        W/m2          W/m2       degree/day
  51    .06700        1.2382        0.0000       16.4735       16.4735      15.235311       0.00000
  50    .07753        1.2382        0.0000       16.4735       16.4735      15.235276       0.02761
  49    .09103        1.2382        0.0000       16.4734       16.4734      15.235231       0.02810
  48    0.1069        1.2382        0.0000       16.4734       16.4734      15.235177       0.02859
  47    0.1255        1.2382        0.0000       16.4733       16.4733      15.235113       0.02904
  46    0.1487        1.2382        0.0000       16.4732       16.4732      15.235029       0.03059
  45    0.1794        1.2382        0.0000       16.4731       16.4731      15.234910       0.03269
  44    0.2165        1.2382        0.0000       16.4730       16.4730      15.234764       0.03331
  43    0.2613        1.2382        0.0000       16.4728       16.4728      15.234585       0.03376
  42    0.3336        1.2382        0.0000       16.4725       16.4725      15.234279       0.03564
  41    0.4307        1.2382        0.0000       16.4720       16.4720      15.233860       0.03645
  40    0.5894        1.2382        0.0000       16.4713       16.4713      15.233159       0.03728
  39     1.339        1.2382        0.0000       16.4679       16.4679      15.229750       0.03837
  38     1.782        1.2382        0.0000       16.4659       16.4659      15.227751       0.03806
  37     2.292        1.2381        0.0001       16.4635       16.4636      15.225460       0.03795
  36     2.964        1.2381        0.0001       16.4605       16.4606      15.222491       0.03727
  35     3.853        1.2381        0.0001       16.4567       16.4567      15.218638       0.03656
  34     5.035        1.2381        0.0001       16.4516       16.4517      15.213642       0.03569
  33     6.613        1.2380        0.0002       16.4451       16.4452      15.207183       0.03453
  32     8.786        1.2380        0.0002       16.4367       16.4369      15.198872       0.03227
  31     11.80        1.2379        0.0003       16.4254       16.4257      15.187724       0.03121
  30     15.07        1.2379        0.0004       16.4141       16.4145      15.176640       0.02862
  29     18.79        1.2378        0.0005       16.4024       16.4029      15.165123       0.02611
  28     23.16        1.2377        0.0006       16.3900       16.3906      15.152866       0.02370
  27     28.12        1.2376        0.0007       16.3771       16.3778      15.140208       0.02152
  26     33.73        1.2375        0.0009       16.3641       16.3650      15.127489       0.01912
  25     40.54        1.2374        0.0010       16.3502       16.3512      15.113859       0.01691
  24     48.69        1.2372        0.0012       16.3354       16.3366      15.099399       0.01496
  23     57.69        1.2370        0.0015       16.3211       16.3225      15.085517       0.01301
  22     68.43        1.2368        0.0017       16.3062       16.3080      15.071151       0.01129
  21     81.20        1.2366        0.0021       16.2903       16.2924      15.055786       0.01015
  20     96.49        1.2363        0.0024       16.2726       16.2751      15.038748       0.00940
  19     114.6        1.2360        0.0029       16.2521       16.2550      15.018978       0.00923
  18     136.5        1.2356        0.0034       16.2245       16.2280      14.992370       0.01023
  17     162.9        1.2352        0.0041       16.1747       16.1788      14.943651       0.01557
  16     196.4        1.2346        0.0049       16.0518       16.0568      14.822136       0.03059
  15     218.7        1.2343        0.0054       15.8984       15.9038      14.669549       0.05793
  14     243.0        1.2339        0.0060       15.6153       15.6212      14.387316       0.09789
  13     269.0        1.2335        0.0064       15.1390       15.1454      13.911890       0.15423
  12     297.5        1.2332        0.0069       14.5779       14.5848      13.351575       0.16618
  11     328.5        1.2330        0.0073       13.8780       13.8854      12.652390       0.19011
  10     361.9        1.2328        0.0077       13.0814       13.0892      11.856339       0.20141
   9     398.1        1.2328        0.0080       12.2728       12.2809      11.048086       0.18830
   8     437.6        1.2330        0.0083       11.4776       11.4859      10.252909       0.17001
   7     480.5        1.2335        0.0086       10.7300       10.7385       9.505050       0.14688
   6     533.0        1.2346        0.0089       10.0326       10.0415       8.806860       0.11232
   5     589.8        1.2366        0.0093        9.5050        9.5143       8.277688       0.07855
   4     651.6        1.2399        0.0098        9.0814        9.0912       7.851224       0.05832
   3     718.7        1.2449        0.0104        8.7024        8.7128       7.467921       0.04817
   2     792.3        1.2518        0.0110        8.3379        8.3490       7.097209       0.04252
   1     891.5        1.2647        0.0119        7.9064        7.9182       6.653563       0.03775
   0    1013.0        1.2915        0.0128        7.4741        7.4869       6.195334       0.03182



 Wavenumbers:  6150. -  7700. cm-1, ATM      1
 LEVEL PRESSURE   UPWARD FLUX   DIFDOWN FLUX  DIRDOWN FLUX  DOWNWARD FLUX   NET FLUX    HEATING RATE
          mb          W/m2          W/m2          W/m2        W/m2          W/m2       degree/day
  51    .06700        1.8682        0.0000       30.4684       30.4684      28.600231       0.00000
  50    .07753        1.8682        0.0000       30.4683       30.4683      28.600179       0.04144
  49    .09103        1.8682        0.0000       30.4683       30.4683      28.600112       0.04174
  48    0.1069        1.8681        0.0000       30.4682       30.4682      28.600033       0.04202
  47    0.1255        1.8681        0.0000       30.4681       30.4681      28.599940       0.04227
  46    0.1487        1.8681        0.0000       30.4680       30.4680      28.599819       0.04411
  45    0.1794        1.8681        0.0000       30.4678       30.4678      28.599649       0.04669
  44    0.2165        1.8681        0.0000       30.4676       30.4676      28.599442       0.04715
  43    0.2613        1.8681        0.0000       30.4673       30.4673      28.599190       0.04744
  42    0.3336        1.8681        0.0000       30.4669       30.4669      28.598763       0.04974
  41    0.4307        1.8681        0.0000       30.4663       30.4663      28.598182       0.05052
  40    0.5894        1.8681        0.0001       30.4653       30.4653      28.597215       0.05146
  39     1.339        1.8680        0.0001       30.4604       30.4606      28.592531       0.05273
  38     1.782        1.8680        0.0002       30.4576       30.4578      28.589781       0.05235
  37     2.292        1.8679        0.0002       30.4543       30.4545      28.586623       0.05231
  36     2.964        1.8679        0.0003       30.4501       30.4504      28.582515       0.05156
  35     3.853        1.8678        0.0004       30.4445       30.4449      28.577158       0.05084
  34     5.035        1.8676        0.0005       30.4373       30.4378      28.570159       0.05000
  33     6.613        1.8675        0.0007       30.4278       30.4285      28.561011       0.04890
  32     8.786        1.8673        0.0009       30.4154       30.4163      28.549058       0.04642
  31     11.80        1.8670        0.0013       30.3984       30.3996      28.532673       0.04587
  30     15.07        1.8666        0.0016       30.3810       30.3826      28.515960       0.04315
  29     18.79        1.8663        0.0020       30.3623       30.3643      28.498059       0.04059
  28     23.16        1.8658        0.0025       30.3417       30.3442      28.478376       0.03806
  27     28.12        1.8653        0.0030       30.3196       30.3226      28.457277       0.03587
  26     33.73        1.8647        0.0036       30.2965       30.3001      28.435358       0.03295
  25     40.54        1.8641        0.0043       30.2708       30.2751      28.411022       0.03019
  24     48.69        1.8632        0.0052       30.2423       30.2475      28.384246       0.02771
  23     57.69        1.8623        0.0062       30.2139       30.2200      28.357681       0.02490
  22     68.43        1.8613        0.0073       30.1834       30.1907      28.329407       0.02223
  21     81.20        1.8600        0.0087       30.1500       30.1587      28.298679       0.02030
  20     96.49        1.8584        0.0103       30.1126       30.1229      28.264463       0.01888
  19     114.6        1.8566        0.0122       30.0695       30.0817      28.225081       0.01839
  18     136.5        1.8545        0.0145       30.0139       30.0284      28.173931       0.01967
  17     162.9        1.8519        0.0172       29.9225       29.9397      28.087762       0.02754
  16     196.4        1.8486        0.0207       29.7333       29.7540      27.905394       0.04590
  15     218.7        1.8464        0.0229       29.5259       29.5487      27.702285       0.07711
  14     243.0        1.8442        0.0252       29.1375       29.1626      27.318494       0.13311
  13     269.0        1.8418        0.0274       28.3800       28.4074      26.565592       0.24424
  12     297.5        1.8394        0.0294       27.3895       27.4190      25.579560       0.29245
  11     328.5        1.8371        0.0314       26.2257       26.2571      24.419971       0.31529
  10     361.9        1.8350        0.0331       24.8453       24.8785      23.043488       0.34826
   9     398.1        1.8331        0.0346       23.3471       23.3817      21.548547       0.34829
   8     437.6        1.8318        0.0359       21.7966       21.8325      20.000680       0.33094
   7     480.5        1.8314        0.0368       20.1977       20.2345      18.403107       0.31376
   6     533.0        1.8326        0.0377       18.4969       18.5346      16.702053       0.27365
   5     589.8        1.8363        0.0386       16.9754       17.0140      15.177664       0.22627
   4     651.6        1.8440        0.0395       15.6022       15.6416      13.797651       0.18872
   3     718.7        1.8565        0.0405       14.4232       14.4637      12.607201       0.14961
   2     792.3        1.8746        0.0417       13.4386       13.4803      11.605737       0.11486
   1     891.5        1.9093        0.0435       12.3736       12.4171      10.507736       0.09343
   0    1013.0        1.9810        0.0454       11.2911       11.3365       9.355499       0.08001



 Wavenumbers:  7700. -  8050. cm-1, ATM      1
 LEVEL PRESSURE   UPWARD FLUX   DIFDOWN FLUX  DIRDOWN FLUX  DOWNWARD FLUX   NET FLUX    HEATING RATE
          mb          W/m2          W/m2          W/m2        W/m2          W/m2       degree/day
  51    .06700        0.9995        0.0000        7.2006        7.2006       6.201041       0.00000
  50    .07753        0.9995        0.0000        7.2006        7.2006       6.201023       0.01472
  49    .09103        0.9995        0.0000        7.2005        7.2005       6.201000       0.01443
  48    0.1069        0.9995        0.0000        7.2005        7.2005       6.200973       0.01412
  47    0.1255        0.9995        0.0000        7.2005        7.2005       6.200943       0.01382
  46    0.1487        0.9995        0.0000        7.2004        7.2005       6.200904       0.01402
  45    0.1794        0.9995        0.0000        7.2004        7.2004       6.200851       0.01443
  44    0.2165        0.9995        0.0000        7.2003        7.2003       6.200789       0.01416
  43    0.2613        0.9995        0.0000        7.2003        7.2003       6.200716       0.01389
  42    0.3336        0.9995        0.0000        7.2001        7.2001       6.200594       0.01421
  41    0.4307        0.9996        0.0000        7.2000        7.2000       6.200432       0.01406
  40    0.5894        0.9996        0.0000        7.1997        7.1997       6.200168       0.01404
  39     1.339        0.9996        0.0001        7.1984        7.1985       6.198919       0.01406
  38     1.782        0.9996        0.0001        7.1977        7.1978       6.198186       0.01396
  37     2.292        0.9996        0.0001        7.1968        7.1969       6.197338       0.01405
  36     2.964        0.9996        0.0001        7.1957        7.1958       6.196225       0.01398
  35     3.853        0.9996        0.0002        7.1942        7.1944       6.194755       0.01395
  34     5.035        0.9996        0.0002        7.1922        7.1924       6.192803       0.01394
  33     6.613        0.9997        0.0003        7.1896        7.1899       6.190200       0.01392
  32     8.786        0.9997        0.0004        7.1860        7.1864       6.186697       0.01360
  31     11.80        0.9998        0.0005        7.1810        7.1815       6.181697       0.01400
  30     15.07        0.9998        0.0006        7.1755        7.1762       6.176346       0.01382
  29     18.79        0.9999        0.0008        7.1694        7.1702       6.170321       0.01366
  28     23.16        1.0000        0.0010        7.1623        7.1633       6.163311       0.01355
  27     28.12        1.0001        0.0012        7.1542        7.1555       6.155333       0.01356
  26     33.73        1.0002        0.0014        7.1452        7.1467       6.146453       0.01335
  25     40.54        1.0004        0.0017        7.1344        7.1362       6.135793       0.01322
  24     48.69        1.0006        0.0021        7.1215        7.1236       6.123042       0.01320
  23     57.69        1.0007        0.0025        7.1074        7.1099       6.109159       0.01301
  22     68.43        1.0010        0.0029        7.0909        7.0938       6.092794       0.01287
  21     81.20        1.0013        0.0034        7.0713        7.0748       6.073533       0.01273
  20     96.49        1.0016        0.0041        7.0484        7.0525       6.050909       0.01249
  19     114.6        1.0020        0.0048        7.0217        7.0265       6.024495       0.01233
  18     136.5        1.0025        0.0057        6.9906        6.9963       5.993791       0.01181
  17     162.9        1.0032        0.0068        6.9544        6.9612       5.958034       0.01143
  16     196.4        1.0040        0.0082        6.9087        6.9169       5.912901       0.01136
  15     218.7        1.0046        0.0090        6.8794        6.8885       5.883911       0.01101
  14     243.0        1.0052        0.0100        6.8481        6.8581       5.852929       0.01075
  13     269.0        1.0059        0.0111        6.8147        6.8258       5.819852       0.01073
  12     297.5        1.0067        0.0122        6.7791        6.7913       5.784513       0.01048
  11     328.5        1.0077        0.0134        6.7409        6.7543       5.746651       0.01029
  10     361.9        1.0088        0.0147        6.7002        6.7149       5.706064       0.01027
   9     398.1        1.0101        0.0161        6.6563        6.6724       5.662287       0.01020
   8     437.6        1.0116        0.0176        6.6089        6.6264       5.614841       0.01014
   7     480.5        1.0134        0.0192        6.5570        6.5762       5.562731       0.01023
   6     533.0        1.0160        0.0211        6.4915        6.5126       5.496569       0.01064
   5     589.8        1.0192        0.0232        6.4182        6.4414       5.422169       0.01104
   4     651.6        1.0233        0.0253        6.3359        6.3612       5.337946       0.01152
   3     718.7        1.0283        0.0277        6.2441        6.2718       5.243507       0.01187
   2     792.3        1.0343        0.0301        6.1437        6.1738       5.139488       0.01193
   1     891.5        1.0437        0.0333        6.0042        6.0375       4.993804       0.01240
   0    1013.0        1.0574        0.0370        5.8249        5.8619       4.804510       0.01314



 Wavenumbers:  8050. - 12850. cm-1, ATM      1
 LEVEL PRESSURE   UPWARD FLUX   DIFDOWN FLUX  DIRDOWN FLUX  DOWNWARD FLUX   NET FLUX    HEATING RATE
          mb          W/m2          W/m2          W/m2        W/m2          W/m2       degree/day
  51    .06700       18.9336        0.0000      100.8135      100.8135      81.879934       0.00000
  50    .07753       18.9336        0.0000      100.8135      100.8135      81.879934       0.00000
  49    .09103       18.9335        0.0001      100.8134      100.8135      81.879934      -0.00000
  48    0.1069       18.9335        0.0001      100.8134      100.8134      81.879934       0.00000
  47    0.1255       18.9335        0.0001      100.8133      100.8134      81.879934      -0.00000
  46    0.1487       18.9334        0.0002      100.8132      100.8134      81.879934       0.00000
  45    0.1794       18.9334        0.0002      100.8131      100.8133      81.879934       0.00000
  44    0.2165       18.9333        0.0003      100.8129      100.8132      81.879934       0.00000
  43    0.2613       18.9332        0.0004      100.8127      100.8132      81.879934       0.00000
  42    0.3336       18.9331        0.0006      100.8125      100.8130      81.879934      -0.00000
  41    0.4307       18.9329        0.0008      100.8121      100.8129      81.879934       0.00000
  40    0.5894       18.9326        0.0011      100.8115      100.8126      81.879934      -0.00000
  39     1.339       18.9313        0.0027      100.8085      100.8112      81.879934       0.00000
  38     1.782       18.9305        0.0037      100.8068      100.8104      81.879934       0.00000
  37     2.292       18.9296        0.0048      100.8047      100.8095      81.879934       0.00000
  36     2.964       18.9284        0.0062      100.8021      100.8083      81.879934      -0.00000
  35     3.853       18.9268        0.0081      100.7986      100.8067      81.879934      -0.00000
  34     5.035       18.9247        0.0106      100.7940      100.8046      81.879934       0.00000
  33     6.613       18.9219        0.0140      100.7878      100.8018      81.879934       0.00000
  32     8.786       18.9180        0.0186      100.7794      100.7980      81.879934       0.00000
  31     11.80       18.9126        0.0251      100.7674      100.7925      81.879934      -0.00000
  30     15.07       18.9067        0.0321      100.7546      100.7866      81.879934       0.00000
  29     18.79       18.9001        0.0400      100.7400      100.7800      81.879934      -0.00000
  28     23.16       18.8923        0.0493      100.7230      100.7723      81.879934       0.00000
  27     28.12       18.8834        0.0599      100.7035      100.7634      81.879934       0.00000
  26     33.73       18.8735        0.0718      100.6817      100.7534      81.879934      -0.00000
  25     40.54       18.8614        0.0861      100.6552      100.7414      81.879934       0.00000
  24     48.69       18.8469        0.1035      100.6234      100.7268      81.879934      -0.00000
  23     57.69       18.8309        0.1226      100.5883      100.7109      81.879934       0.00000
  22     68.43       18.8118        0.1453      100.5464      100.6918      81.879934       0.00000
  21     81.20       18.7891        0.1725      100.4965      100.6690      81.879934       0.00000
  20     96.49       18.7619        0.2049      100.4370      100.6418      81.879934      -0.00000
  19     114.6       18.7296        0.2434      100.3585      100.6019      81.872258       0.00358
  18     136.5       18.6913        0.2891      100.2634      100.5525      81.861210       0.00425
  17     162.9       18.6455        0.3436      100.1407      100.4843      81.838782       0.00717
  16     196.4       18.5861        0.4145       99.9505      100.3650      81.778829       0.01509
  15     218.7       18.5471        0.4610       99.7889      100.2499      81.702845       0.02885
  14     243.0       18.5046        0.5114       99.5472      100.0586      81.553979       0.05163
  13     269.0       18.4590        0.5658       99.1452       99.7110      81.252008       0.09796
  12     297.5       18.4103        0.6240       98.5975       99.2215      80.811182       0.13074
  11     328.5       18.3588        0.6864       97.8659       98.5522      80.193383       0.16798
  10     361.9       18.3052        0.7525       96.8848       97.6373      79.332080       0.21792
   9     398.1       18.2500        0.8222       95.6330       96.4551      78.205086       0.26256
   8     437.6       18.1950        0.8949       94.0655       94.9604      76.765416       0.30781
   7     480.5       18.1430        0.9698       92.0807       93.0505      74.907563       0.36488
   6     533.0       18.0907        1.0578       89.4449       90.5027      72.411994       0.40146
   5     589.8       18.0515        1.1483       86.5544       87.7027      69.651238       0.40979
   4     651.6       18.0343        1.2407       83.4174       84.6581      66.623818       0.41401
   3     718.7       18.0446        1.3358       80.2037       81.5395      63.494981       0.39321
   2     792.3       18.0869        1.4342       77.0811       78.5153      60.428327       0.35171
   1     891.5       18.2102        1.5606       73.2645       74.8251      56.614871       0.32451
   0    1013.0       18.5296        1.7002       68.9425       70.6426      52.113054       0.31258



 Wavenumbers: 12850. - 16000. cm-1, ATM      1
 LEVEL PRESSURE   UPWARD FLUX   DIFDOWN FLUX  DIRDOWN FLUX  DOWNWARD FLUX   NET FLUX    HEATING RATE
          mb          W/m2          W/m2          W/m2        W/m2          W/m2       degree/day
  51    .06700       28.7510        0.0000       63.1686       63.1686      34.417534       0.00000
  50    .07753       28.7510        0.0001       63.1677       63.1678      34.416756       0.62363
  49    .09103       28.7510        0.0001       63.1666       63.1668      34.415786       0.60587
  48    0.1069       28.7509        0.0002       63.1654       63.1656      34.414683       0.58729
  47    0.1255       28.7509        0.0003       63.1640       63.1643      34.413429       0.56861
  46    0.1487       28.7508        0.0004       63.1623       63.1627      34.411866       0.56985
  45    0.1794       28.7508        0.0006       63.1600       63.1605      34.409771       0.57514
  44    0.2165       28.7507        0.0008       63.1573       63.1580      34.407350       0.55070
  43    0.2613       28.7506        0.0010       63.1542       63.1552      34.404560       0.52586
  42    0.3336       28.7505        0.0013       63.1493       63.1506      34.400120       0.51761
  41    0.4307       28.7504        0.0018       63.1431       63.1450      34.394577       0.48202
  40    0.5894       28.7502        0.0026       63.1338       63.1364      34.386199       0.44552
  39     1.339       28.7506        0.0063       63.0956       63.1019      34.351324       0.39263
  38     1.782       28.7516        0.0085       63.0740       63.0826      34.330993       0.38707
  37     2.292       28.7534        0.0111       63.0477       63.0587      34.305323       0.42516
  36     2.964       28.7569        0.0144       63.0095       63.0239      34.266999       0.48108
  35     3.853       28.7631        0.0188       62.9533       62.9721      34.208939       0.55100
  34     5.035       28.7729        0.0246       62.8725       62.8972      34.124285       0.60473
  33     6.613       28.7866        0.0324       62.7621       62.7945      34.007849       0.62247
  32     8.786       28.8044        0.0429       62.6182       62.6611      33.856743       0.58684
  31     11.80       28.8268        0.0578       62.4284       62.4862      33.659381       0.55255
  30     15.07       28.8474        0.0738       62.2426       62.3164      33.469053       0.49139
  29     18.79       28.8675        0.0919       62.0493       62.1411      33.273660       0.44301
  28     23.16       28.8874        0.1129       61.8424       61.9553      33.067939       0.39780
  27     28.12       28.9059        0.1368       61.6278       61.7646      32.858753       0.35560
  26     33.73       28.9206        0.1636       61.4177       61.5812      32.660676       0.29781
  25     40.54       28.9313        0.1958       61.1983       61.3941      32.462800       0.24549
  24     48.69       28.9375        0.2347       60.9680       61.2026      32.265103       0.20459
  23     57.69       28.9378        0.2772       60.7478       61.0250      32.087246       0.16671
  22     68.43       28.9310        0.3279       60.5202       60.8481      31.917085       0.13377
  21     81.20       28.9132        0.3882       60.2938       60.6820      31.768843       0.09796
  20     96.49       28.8830        0.4600       60.0643       60.5243      31.641307       0.07039
  19     114.6       28.8478        0.5457       59.8078       60.3535      31.505622       0.06336
  18     136.5       28.8021        0.6470       59.5157       60.1628      31.360667       0.05574
  17     162.9       28.7438        0.7674       59.1770       59.9444      31.200602       0.05116
  16     196.4       28.6602        0.9229       58.7604       59.6834      31.023202       0.04465
  15     218.7       28.6024        1.0248       58.4948       59.5196      30.917244       0.04023
  14     243.0       28.5383        1.1353       58.2089       59.3442      30.805910       0.03861
  13     269.0       28.4678        1.2547       57.9006       59.1553      30.687570       0.03839
  12     297.5       28.3907        1.3835       57.5668       58.9503      30.559549       0.03797
  11     328.5       28.3077        1.5221       57.2005       58.7226      30.414922       0.03932
  10     361.9       28.2192        1.6709       56.7963       58.4672      30.248074       0.04221
   9     398.1       28.1255        1.8304       56.3475       58.1779      30.052409       0.04559
   8     437.6       28.0278        2.0007       55.8422       57.8429      29.815092       0.05074
   7     480.5       27.9286        2.1820       55.2625       57.4445      29.515908       0.05876
   6     533.0       27.8156        2.4030       54.4972       56.9001      29.084485       0.06940
   5     589.8       27.7054        2.6378       53.6307       56.2684      28.563044       0.07740
   4     651.6       27.6027        2.8855       52.6606       55.5461      27.943374       0.08474
   3     718.7       27.5098        3.1465       51.6100       54.7565      27.246684       0.08755
   2     792.3       27.4298        3.4204       50.5019       53.9222      26.492417       0.08651
   1     891.5       27.3612        3.7807       49.0197       52.8004      25.439231       0.08962
   0    1013.0       27.3584        4.1975       47.2289       51.4264      24.068046       0.09521



 Wavenumbers: 16000. - 22650. cm-1, ATM      1
 LEVEL PRESSURE   UPWARD FLUX   DIFDOWN FLUX  DIRDOWN FLUX  DOWNWARD FLUX   NET FLUX    HEATING RATE
          mb          W/m2          W/m2          W/m2        W/m2          W/m2       degree/day
  51    .06700       71.9571        0.0000      100.7153      100.7153      28.758217       0.00000
  50    .07753       71.9570        0.0003      100.7147      100.7151      28.758102       0.09250
  49    .09103       71.9568        0.0007      100.7140      100.7147      28.757934       0.10492
  48    0.1069       71.9566        0.0012      100.7131      100.7143      28.757709       0.11964
  47    0.1255       71.9564        0.0017      100.7121      100.7138      28.757408       0.13637
  46    0.1487       71.9562        0.0024      100.7108      100.7132      28.756965       0.16160
  45    0.1794       71.9559        0.0033      100.7089      100.7122      28.756272       0.19027
  44    0.2165       71.9556        0.0044      100.7066      100.7110      28.755332       0.21384
  43    0.2613       71.9553        0.0057      100.7037      100.7094      28.754056       0.24040
  42    0.3336       71.9549        0.0078      100.6987      100.7065      28.751631       0.28271
  41    0.4307       71.9545        0.0107      100.6918      100.7025      28.747977       0.31778
  40    0.5894       71.9541        0.0153      100.6797      100.6951      28.741006       0.37066
  39     1.339       71.9572        0.0372      100.6095      100.6468      28.689521       0.57964
  38     1.782       71.9629        0.0501      100.5585      100.6086      28.645675       0.83475
  37     2.292       71.9730        0.0650      100.4903      100.5553      28.582229       1.05083
  36     2.964       71.9918        0.0846      100.3868      100.4713      28.479496       1.28961
  35     3.853       72.0243        0.1103      100.2306      100.3410      28.316607       1.54584
  34     5.035       72.0751        0.1445      100.0045      100.1490      28.073866       1.73404
  33     6.613       72.1469        0.1901       99.6939       99.8840      27.737070       1.80051
  32     8.786       72.2397        0.2514       99.2881       99.5395      27.299765       1.69833
  31     11.80       72.3576        0.3388       98.7496       99.0884      26.730808       1.59290
  30     15.07       72.4669        0.4323       98.2198       98.6521      26.185224       1.40859
  29     18.79       72.5748        0.5375       97.6651       98.2026      25.627836       1.26377
  28     23.16       72.6829        0.6599       97.0671       97.7270      25.044136       1.12869
  27     28.12       72.7857        0.7994       96.4406       97.2399      24.454258       1.00275
  26     33.73       72.8706        0.9549       95.8179       96.7728      23.902151       0.83011
  25     40.54       72.9385        1.1421       95.1548       96.2970      23.358414       0.67457
  24     48.69       72.9868        1.3670       94.4420       95.8089      22.822101       0.55500
  23     57.69       73.0075        1.6129       93.7416       95.3545      22.347026       0.44531
  22     68.43       72.9972        1.9045       92.9954       94.8999      21.902683       0.34931
  21     81.20       72.9373        2.2506       92.2231       94.4737      21.536448       0.24200
  20     96.49       72.8219        2.6610       91.4110       94.0720      21.250074       0.15806
  19     114.6       72.6634        3.1448       90.5070       93.6519      20.988475       0.12215
  18     136.5       72.4615        3.7134       89.4803       93.1937      20.732146       0.09856
  17     162.9       72.2092        4.3835       88.3022       92.6857      20.476511       0.08171
  16     196.4       71.8552        5.2423       86.8606       92.1029      20.247735       0.05759
  15     218.7       71.6136        5.8000       85.9492       91.7492      20.135530       0.04260
  14     243.0       71.3478        6.4005       84.9789       91.3795      20.031670       0.03602
  13     269.0       71.0565        7.0448       83.9493       90.9941      19.937617       0.03051
  12     297.5       70.7391        7.7337       82.8589       90.5926      19.853486       0.02495
  11     328.5       70.3967        8.4694       81.6982       90.1676      19.770904       0.02245
  10     361.9       70.0292        9.2516       80.4669       89.7186      19.689360       0.02063
   9     398.1       69.6357       10.0823       79.1611       89.2434      19.607672       0.01903
   8     437.6       69.2166       10.9615       77.7777       88.7392      19.522613       0.01819
   7     480.5       68.7719       11.8894       76.3136       88.2031      19.431132       0.01797
   6     533.0       68.2320       13.0115       74.5359       87.5473      19.315321       0.01863
   5     589.8       67.6604       14.1962       72.6469       86.8432      19.182781       0.01967
   4     651.6       67.0591       15.4416       70.6456       86.0872      19.028063       0.02116
   3     718.7       66.4286       16.7452       68.5367       85.2819      18.853307       0.02196
   2     792.3       65.7714       18.1015       66.3287       84.4302      18.658756       0.02231
   1     891.5       64.9168       19.8681       63.4246       83.2927      18.375878       0.02407
   0    1013.0       63.9429       21.8927       60.0483       81.9411      17.998139       0.02623



 Wavenumbers: 22650. - 29000. cm-1, ATM      1
 LEVEL PRESSURE   UPWARD FLUX   DIFDOWN FLUX  DIRDOWN FLUX  DOWNWARD FLUX   NET FLUX    HEATING RATE
          mb          W/m2          W/m2          W/m2        W/m2          W/m2       degree/day
  51    .06700       33.4013        0.0000       38.0063       38.0063       4.605028       0.00000
  50    .07753       33.4011        0.0004       38.0057       38.0061       4.605028       0.00000
  49    .09103       33.4009        0.0009       38.0050       38.0059       4.605028       0.00000
  48    0.1069       33.4006        0.0014       38.0042       38.0057       4.605028      -0.00000
  47    0.1255       33.4004        0.0020       38.0033       38.0054       4.605028       0.00000
  46    0.1487       33.4000        0.0029       38.0022       38.0050       4.605028      -0.00000
  45    0.1794       33.3995        0.0039       38.0006       38.0045       4.605028       0.00000
  44    0.2165       33.3989        0.0052       37.9987       38.0040       4.605028      -0.00000
  43    0.2613       33.3983        0.0068       37.9965       38.0033       4.605028       0.00000
  42    0.3336       33.3971        0.0093       37.9928       38.0022       4.605028      -0.00000
  41    0.4307       33.3956        0.0127       37.9880       38.0007       4.605028       0.00000
  40    0.5894       33.3932        0.0182       37.9800       37.9982       4.605028       0.00000
  39     1.339       33.3817        0.0442       37.9425       37.9867       4.605028       0.00000
  38     1.782       33.3749        0.0595       37.9204       37.9799       4.605028      -0.00000
  37     2.292       33.3671        0.0772       37.8949       37.9721       4.605028       0.00000
  36     2.964       33.3568        0.1004       37.8614       37.9618       4.605028       0.00000
  35     3.853       33.3432        0.1310       37.8172       37.9482       4.605028       0.00000
  34     5.035       33.3252        0.1716       37.7586       37.9302       4.605028       0.00000
  33     6.613       33.3011        0.2259       37.6803       37.9062       4.605028      -0.00000
  32     8.786       33.2688        0.2988       37.5750       37.8738       4.605028       0.00000
  31     11.80       33.2226        0.4028       37.4249       37.8276       4.605028       0.00000
  30     15.07       33.1732        0.5141       37.2642       37.7782       4.605028      -0.00000
  29     18.79       33.1176        0.6393       37.0833       37.7226       4.605028       0.00000
  28     23.16       33.0528        0.7848       36.8730       37.6578       4.605028       0.00000
  27     28.12       32.9791        0.9504       36.6338       37.5842       4.605028      -0.00000
  26     33.73       32.8971        1.1345       36.3677       37.5022       4.605028       0.00000
  25     40.54       32.7987        1.3552       36.0486       37.4037       4.605028      -0.00000
  24     48.69       32.6810        1.6188       35.6672       37.2860       4.605028       0.00000
  23     57.69       32.5528        1.9052       35.2527       37.1579       4.605028      -0.00000
  22     68.43       32.4019        2.2420       34.7649       37.0069       4.605028       0.00000
  21     81.20       32.2243        2.6371       34.1922       36.8294       4.605028       0.00000
  20     96.49       32.0161        3.0994       33.5217       36.6211       4.605028      -0.00000
  19     114.6       31.7735        3.6362       32.7424       36.3786       4.605028      -0.00000
  18     136.5       31.4924        4.2558       31.8416       36.0974       4.605028      -0.00000
  17     162.9       31.1664        4.9706       30.8008       35.7714       4.605028       0.00000
  16     196.4       30.7574        5.8618       29.5007       35.3624       4.605028      -0.00000
  15     218.7       30.4971        6.4254       28.6767       35.1021       4.605028       0.00000
  14     243.0       30.2213        7.0195       27.8068       34.8263       4.605028       0.00000
  13     269.0       29.9305        7.6422       26.8933       34.5355       4.605028       0.00000
  12     297.5       29.6254        8.2911       25.9393       34.2304       4.605028      -0.00000
  11     328.5       29.3058        8.9658       24.9451       33.9109       4.605028       0.00000
  10     361.9       28.9732        9.6622       23.9160       33.5782       4.605028       0.00000
   9     398.1       28.6277       10.3786       22.8541       33.2328       4.605028       0.00000
   8     437.6       28.2707       11.1113       21.7645       32.8757       4.605028       0.00000
   7     480.5       27.9033       11.8562       20.6521       32.5083       4.605028      -0.00000
   6     533.0       27.4712       12.7193       19.3569       32.0762       4.605028       0.00000
   5     589.8       27.0289       13.5872       18.0467       31.6340       4.605028       0.00000
   4     651.6       26.5788       14.4523       16.7316       31.1839       4.605028      -0.00000
   3     718.7       26.1233       15.3069       15.4214       30.7283       4.605028       0.00000
   2     792.3       25.6652       16.1426       14.1276       30.2702       4.605028       0.00000
   1     891.5       25.0916       17.1507       12.5459       29.6966       4.605028      -0.00000
   0    1013.0       24.4635       18.1967       10.8717       29.0685       4.605028       0.00000



 Wavenumbers: 29000. - 38000. cm-1, ATM      1
 LEVEL PRESSURE   UPWARD FLUX   DIFDOWN FLUX  DIRDOWN FLUX  DOWNWARD FLUX   NET FLUX    HEATING RATE
          mb          W/m2          W/m2          W/m2        W/m2          W/m2       degree/day
  51    .06700        4.7663        0.0000       13.4026       13.4026       8.636276       0.00000
  50    .07753        4.7661        0.0003       13.3983       13.3986       8.632478       3.04427
  49    .09103        4.7658        0.0007       13.3921       13.3928       8.626959       3.44953
  48    0.1069        4.7655        0.0011       13.3840       13.3851       8.619583       3.92661
  47    0.1255        4.7652        0.0016       13.3733       13.3749       8.609738       4.46300
  46    0.1487        4.7647        0.0022       13.3579       13.3600       8.595296       5.26416
  45    0.1794        4.7642        0.0030       13.3340       13.3371       8.572898       6.14901
  44    0.2165        4.7635        0.0040       13.3024       13.3064       8.542880       6.82847
  43    0.2613        4.7627        0.0051       13.2604       13.2655       8.502827       7.54976
  42    0.3336        4.7615        0.0070       13.1833       13.1903       8.428825       8.62801
  41    0.4307        4.7599        0.0095       13.0729       13.0824       8.322458       9.24833
  40    0.5894        4.7575        0.0133       12.8796       12.8929       8.135426       9.94614
  39     1.339        4.7489        0.0296       11.9165       11.9461       7.197170      10.56306
  38     1.782        4.7455        0.0378       11.4399       11.4778       6.732259       8.85116
  37     2.292        4.7429        0.0467       10.9796       11.0263       6.283425       7.43386
  36     2.964        4.7412        0.0575       10.4786       10.5362       5.794948       6.13185
  35     3.853        4.7415        0.0710        9.9429       10.0139       5.272329       4.95976
  34     5.035        4.7444        0.0877        9.4007        9.4884       4.743943       3.77457
  33     6.613        4.7501        0.1089        8.8752        8.9841       4.234023       2.72603
  32     8.786        4.7580        0.1363        8.3786        8.5149       3.756898       1.85298
  31     11.80        4.7674        0.1738        7.8897        8.0635       3.296034       1.29027
  30     15.07        4.7755        0.2125        7.5108        7.7233       2.947884       0.89886
  29     18.79        4.7827        0.2547        7.1776        7.4323       2.649595       0.67631
  28     23.16        4.7892        0.3022        6.8664        7.1686       2.379469       0.52233
  27     28.12        4.7940        0.3547        6.5780        6.9327       2.138712       0.40927
  26     33.73        4.7949        0.4119        6.3195        6.7313       1.936440       0.30412
  25     40.54        4.7906        0.4793        6.0663        6.5456       1.754992       0.22511
  24     48.69        4.7804        0.5583        5.8128        6.3711       1.590678       0.17004
  23     57.69        4.7646        0.6425        5.5777        6.2202       1.455631       0.12659
  22     68.43        4.7406        0.7400        5.3379        6.0779       1.337227       0.09308
  21     81.20        4.7044        0.8530        5.0965        5.9495       1.245107       0.06087
  20     96.49        4.6546        0.9835        4.8476        5.8312       1.176537       0.03785
  19     114.6        4.5943        1.1313        4.5799        5.7112       1.116878       0.02786
  18     136.5        4.5244        1.2963        4.2891        5.5854       1.060990       0.02149
  17     162.9        4.4445        1.4791        3.9732        5.4522       1.007745       0.01702
  16     196.4        4.3434        1.6977        3.6080        5.3057       0.962267       0.01145
  15     218.7        4.2797        1.8305        3.3898        5.2203       0.940632       0.00821
  14     243.0        4.2133        1.9657        3.1686        5.1343       0.921018       0.00680
  13     269.0        4.1446        2.1022        2.9461        5.0483       0.903731       0.00561
  12     297.5        4.0740        2.2388        2.7239        4.9628       0.888786       0.00443
  11     328.5        4.0022        2.3741        2.5029        4.8769       0.874759       0.00381
  10     361.9        3.9297        2.5068        2.2846        4.7914       0.861673       0.00331
   9     398.1        3.8569        2.6356        2.0708        4.7064       0.849519       0.00283
   8     437.6        3.7841        2.7596        1.8626        4.6222       0.838037       0.00245
   7     480.5        3.7119        2.8772        1.6621        4.5393       0.827353       0.00210
   6     533.0        3.6303        3.0026        1.4437        4.4463       0.815949       0.00183
   5     589.8        3.5505        3.1167        1.2390        4.3557       0.805150       0.00160
   4     651.6        3.4729        3.2177        1.0500        4.2677       0.794809       0.00141
   3     718.7        3.3978        3.3049        0.8778        4.1827       0.784891       0.00125
   2     792.3        3.3255        3.3771        0.7237        4.1008       0.775377       0.00109
   1     891.5        3.2387        3.4463        0.5563        4.0026       0.763886       0.00098
   0    1013.0        3.1477        3.4953        0.4039        3.8992       0.751511       0.00086



 Wavenumbers: 38000. - 50000. cm-1, ATM      1
 LEVEL PRESSURE   UPWARD FLUX   DIFDOWN FLUX  DIRDOWN FLUX  DOWNWARD FLUX   NET FLUX    HEATING RATE
          mb          W/m2          W/m2          W/m2        W/m2          W/m2       degree/day
  51    .06700        0.0051        0.0000        0.8267        0.8267       0.821528       0.00000
  50    .07753        0.0051        0.0001        0.8242        0.8243       0.819196       1.86936
  49    .09103        0.0050        0.0002        0.8207        0.8209       0.815872       2.07705
  48    0.1069        0.0049        0.0002        0.8162        0.8164       0.811514       2.31984
  47    0.1255        0.0048        0.0004        0.8103        0.8106       0.805801       2.59006
  46    0.1487        0.0047        0.0005        0.8018        0.8023       0.797567       3.00143
  45    0.1794        0.0045        0.0007        0.7889        0.7896       0.785013       3.44648
  44    0.2165        0.0044        0.0009        0.7720        0.7729       0.768507       3.75474
  43    0.2613        0.0042        0.0011        0.7500        0.7511       0.746955       4.06246
  42    0.3336        0.0039        0.0015        0.7106        0.7121       0.708267       4.51071
  41    0.4307        0.0035        0.0019        0.6566        0.6584       0.654972       4.63387
  40    0.5894        0.0029        0.0024        0.5680        0.5704       0.567464       4.65357
  39     1.339        0.0015        0.0030        0.2422        0.2452       0.243720       3.64476
  38     1.782        0.0010        0.0026        0.1493        0.1519       0.150889       1.76735
  37     2.292        0.0007        0.0022        0.0924        0.0946       0.093932       0.94336
  36     2.964        0.0005        0.0018        0.0539        0.0557       0.055224       0.48589
  35     3.853        0.0003        0.0013        0.0295        0.0308       0.030502       0.23462
  34     5.035        0.0002        0.0010        0.0154        0.0164       0.016181       0.10230
  33     6.613        0.0001        0.0007        0.0073        0.0080       0.007912       0.04420
  32     8.786        0.0000        0.0004        0.0030        0.0034       0.003390       0.01756
  31     11.80        0.0000        0.0003        0.0010        0.0012       0.001199       0.00613
  30     15.07        0.0000        0.0001        0.0003        0.0005       0.000463       0.00190
  29     18.79        0.0000        0.0001        0.0001        0.0002       0.000182       0.00064
  28     23.16        0.0000        0.0000        0.0000        0.0001       0.000071       0.00022
  27     28.12        0.0000        0.0000        0.0000        0.0000       0.000028       0.00007
  26     33.73        0.0000        0.0000        0.0000        0.0000       0.000011       0.00002
  25     40.54        0.0000        0.0000        0.0000        0.0000       0.000005       0.00001
  24     48.69        0.0000        0.0000        0.0000        0.0000       0.000002       0.00000
  23     57.69        0.0000        0.0000        0.0000        0.0000       0.000001       0.00000
  22     68.43        0.0000        0.0000        0.0000        0.0000       0.000000       0.00000
  21     81.20        0.0000        0.0000        0.0000        0.0000       0.000000       0.00000
  20     96.49        0.0000        0.0000        0.0000        0.0000       0.000000       0.00000
  19     114.6        0.0000        0.0000        0.0000        0.0000       0.000000       0.00000
  18     136.5        0.0000        0.0000        0.0000        0.0000       0.000000       0.00000
  17     162.9        0.0000        0.0000        0.0000        0.0000       0.000000       0.00000
  16     196.4        0.0000        0.0000        0.0000        0.0000       0.000000       0.00000
  15     218.7        0.0000        0.0000        0.0000        0.0000       0.000000       0.00000
  14     243.0        0.0000        0.0000        0.0000        0.0000       0.000000       0.00000
  13     269.0        0.0000        0.0000        0.0000        0.0000       0.000000       0.00000
  12     297.5        0.0000        0.0000        0.0000        0.0000       0.000000       0.00000
  11     328.5        0.0000        0.0000        0.0000        0.0000       0.000000       0.00000
  10     361.9        0.0000        0.0000        0.0000        0.0000       0.000000       0.00000
   9     398.1        0.0000        0.0000        0.0000        0.0000       0.000000       0.00000
   8     437.6        0.0000        0.0000        0.0000        0.0000       0.000000       0.00000
   7     480.5        0.0000        0.0000        0.0000        0.0000       0.000000       0.00000
   6     533.0        0.0000        0.0000        0.0000        0.0000       0.000000       0.00000
   5     589.8        0.0000        0.0000        0.0000        0.0000       0.000000       0.00000
   4     651.6        0.0000        0.0000        0.0000        0.0000       0.000000       0.00000
   3     718.7        0.0000        0.0000        0.0000        0.0000       0.000000       0.00000
   2     792.3        0.0000        0.0000        0.0000        0.0000       0.000000       0.00000
   1     891.5        0.0000        0.0000        0.0000        0.0000       0.000000       0.00000
   0    1013.0        0.0000        0.0000        0.0000        0.0000       0.000000       0.00000



 Wavenumbers:   820. -  2600. cm-1, ATM      1
 LEVEL PRESSURE   UPWARD FLUX   DIFDOWN FLUX  DIRDOWN FLUX  DOWNWARD FLUX   NET FLUX    HEATING RATE
          mb          W/m2          W/m2          W/m2        W/m2          W/m2       degree/day
  51    .06700        0.1274        0.0000        3.8670        3.8670       3.739658       0.00000
  50    .07753        0.1274        0.0000        3.8643        3.8643       3.736941       2.17769
  49    .09103        0.1274        0.0000        3.8635        3.8635       3.736131       0.50638
  48    0.1069        0.1274        0.0000        3.8626        3.8626       3.735240       0.47415
  47    0.1255        0.1274        0.0000        3.8616        3.8616       3.734279       0.43559
  46    0.1487        0.1274        0.0000        3.8605        3.8605       3.733170       0.40437
  45    0.1794        0.1274        0.0000        3.8592        3.8592       3.731835       0.36647
  44    0.2165        0.1274        0.0000        3.8578        3.8578       3.730457       0.31346
  43    0.2613        0.1274        0.0000        3.8564        3.8564       3.728997       0.27522
  42    0.3336        0.1274        0.0000        3.8541        3.8541       3.726766       0.26012
  41    0.4307        0.1274        0.0000        3.8512        3.8512       3.723883       0.25063
  40    0.5894        0.1274        0.0000        3.8465        3.8465       3.719157       0.25133
  39     1.339        0.1274        0.0000        3.8251        3.8251       3.697782       0.24064
  38     1.782        0.1274        0.0000        3.8133        3.8133       3.685969       0.22489
  37     2.292        0.1274        0.0000        3.8003        3.8003       3.672908       0.21632
  36     2.964        0.1274        0.0000        3.7841        3.7841       3.656780       0.20246
  35     3.853        0.1274        0.0000        3.7642        3.7642       3.636865       0.18899
  34     5.035        0.1274        0.0000        3.7395        3.7395       3.612175       0.17638
  33     6.613        0.1274        0.0000        3.7090        3.7090       3.581640       0.16324
  32     8.786        0.1274        0.0000        3.6726        3.6726       3.545247       0.14133
  31     11.80        0.1274        0.0000        3.6320        3.6320       3.504654       0.11365
  30     15.07        0.1274        0.0000        3.6016        3.6016       3.474271       0.07844
  29     18.79        0.1274        0.0000        3.5777        3.5777       3.450374       0.05418
  28     23.16        0.1274        0.0000        3.5564        3.5564       3.429022       0.04129
  27     28.12        0.1274        0.0000        3.5348        3.5348       3.407477       0.03662
  26     33.73        0.1274        0.0000        3.5118        3.5118       3.384446       0.03463
  25     40.54        0.1274        0.0000        3.4849        3.4849       3.357560       0.03335
  24     48.69        0.1274        0.0000        3.4537        3.4537       3.326311       0.03234
  23     57.69        0.1274        0.0000        3.4210        3.4210       3.293640       0.03062
  22     68.43        0.1274        0.0000        3.3844        3.3844       3.257057       0.02876
  21     81.20        0.1274        0.0000        3.3441        3.3441       3.216761       0.02663
  20     96.49        0.1274        0.0000        3.2998        3.2998       3.172400       0.02448
  19     114.6        0.1274        0.0000        3.2506        3.2506       3.123255       0.02295
  18     136.5        0.1274        0.0000        3.1936        3.1936       3.066209       0.02194
  17     162.9        0.1274        0.0000        3.1181        3.1181       2.990711       0.02413
  16     196.4        0.1274        0.0000        3.0090        3.0090       2.881530       0.02748
  15     218.7        0.1275        0.0000        2.9420        2.9420       2.814531       0.02544
  14     243.0        0.1275        0.0000        2.8605        2.8605       2.732975       0.02829
  13     269.0        0.1276        0.0000        2.7419        2.7420       2.614404       0.03846
  12     297.5        0.1277        0.0000        2.5729        2.5729       2.445213       0.05018
  11     328.5        0.1279        0.0000        2.3602        2.3602       2.232345       0.05788
  10     361.9        0.1281        0.0000        2.1524        2.1524       2.024300       0.05264
   9     398.1        0.1285        0.0000        1.9974        1.9974       1.868887       0.03621
   8     437.6        0.1291        0.0000        1.8835        1.8835       1.754396       0.02448
   7     480.5        0.1300        0.0000        1.7734        1.7734       1.643466       0.02179
   6     533.0        0.1314        0.0000        1.6397        1.6398       1.508355       0.02174
   5     589.8        0.1335        0.0000        1.5068        1.5069       1.373375       0.02004
   4     651.6        0.1366        0.0000        1.3807        1.3807       1.244160       0.01767
   3     718.7        0.1407        0.0000        1.2680        1.2680       1.127377       0.01468
   2     792.3        0.1457        0.0000        1.1659        1.1660       1.020264       0.01228
   1     891.5        0.1542        0.0000        1.0372        1.0373       0.883066       0.01167
   0    1013.0        0.1696        0.0000        0.8716        0.8717       0.702049       0.01257

  Modules and versions used in this calculation:

       rrtmg_sw.1col.f90:  $Revision$                    rrtmg_sw_init.f90:  $Revision$        
     rrtmgsw_cldprop.f90:  $Revision$                  rrtmgsw_cldprmc.f90:  NOT USED          
     rrtmg_sw_reftra.f90:  $Revision$                  rrtmg_sw_spcvrt.f90:  NOT USED          
     rrtmg_sw_spcvmc.f90:  NOT USED                    rrtmgsw_setcoef.f90:  NOT USED          
     rrtmg_sw_taumol.f90:  $Revision$                  rrtmg_sw_vrtqdr.f90:  NOT USED          
                rrtatm.f:  NOT USED                             util_xxx.f:  NOT USED          
                 extra.f:  NOT USED                       rrtmg_sw_k_g.f90:  $Revision$        

