

 Wavenumbers:   820. - 50000. cm-1, ATM      1
 LEVEL PRESSURE   UPWARD FLUX   DIFDOWN FLUX  DIRDOWN FLUX  DOWNWARD FLUX   NET FLUX    HEATING RATE
          mb          W/m2          W/m2          W/m2        W/m2          W/m2       degree/day
  51    .06700      163.3760        0.0000      397.8738      397.8738     234.497806       0.00000
  50    .07753      163.3753        0.0011      397.8577      397.8589     234.483527      11.44489
  49    .09103      163.3745        0.0026      397.8418      397.8444     234.469856       8.54488
  48    0.1069      163.3736        0.0042      397.8230      397.8272     234.453531       8.68997
  47    0.1255      163.3726        0.0061      397.7997      397.8057     234.433118       9.25410
  46    0.1487      163.3714        0.0084      397.7676      397.7761     234.404705      10.35707
  45    0.1794      163.3697        0.0117      397.7205      397.7322     234.362481      11.59147
  44    0.2165      163.3678        0.0155      397.6602      397.6757     234.307924      12.41063
  43    0.2613      163.3656        0.0200      397.5829      397.6029     234.237251      13.32155
  42    0.3336      163.3622        0.0274      397.4449      397.4723     234.110047      14.83073
  41    0.4307      163.3579        0.0370      397.2524      397.2894     233.931531      15.52157
  40    0.5894      163.3514        0.0526      396.9253      396.9779     233.626485      16.22198
  39     1.339      163.3308        0.1221      395.4254      395.5474     232.216657      15.87210
  38     1.782      163.3252        0.1610      394.7288      394.8897     231.564557      12.41493
  37     2.292      163.3244        0.2052      394.0572      394.2623     230.937961      10.37806
  36     2.964      163.3317        0.2626      393.3007      393.5633     230.231511       8.86809
  35     3.853      163.3531        0.3376      392.4318      392.7694     229.416248       7.73700
  34     5.035      163.3930        0.4362      391.4441      391.8803     228.487220       6.63659
  33     6.613      163.4529        0.5668      390.3268      390.8936     227.440725       5.59456
  32     8.786      163.5291        0.7415      389.0624      389.8039     226.274756       4.52820
  31     11.80      163.6192        0.9893      387.5500      388.5392     224.920014       3.79285
  30     15.07      163.6937        1.2530      386.1556      387.4086     223.714936       3.11128
  29     18.79      163.7580        1.5486      384.7502      386.2987     222.540725       2.66230
  28     23.16      163.8103        1.8908      383.2686      385.1594     221.349142       2.30414
  27     28.12      163.8434        2.2789      381.7329      384.0118     220.168373       2.00723
  26     33.73      163.8412        2.7099      380.1982      382.9080     219.066840       1.65619
  25     40.54      163.7930        3.2265      378.5384      381.7649     217.971849       1.35846
  24     48.69      163.6915        3.8435      376.7214      380.5650     216.873425       1.13670
  23     57.69      163.5386        4.5146      374.8959      379.4105     215.871912       0.93877
  22     68.43      163.3120        5.3053      372.8999      378.2053     214.893221       0.76938
  21     81.20      162.9808        6.2368      370.7496      376.9864     214.005623       0.58651
  20     96.49      162.5311        7.3318      368.4056      375.7374     213.206313       0.44116
  19     114.6      161.9807        8.6098      365.7513      374.3611     212.380405       0.38564
  18     136.5      161.3185       10.0926      362.7231      372.8157     211.497179       0.33962
  17     162.9      160.5268       11.8142      359.1748      370.9890     210.462171       0.33083
  16     196.4      159.4824       13.9818      354.5718      368.5536     209.071143       0.35014
  15     218.7      158.7960       15.3662      351.4437      366.8099     208.013940       0.40138
  14     243.0      158.0557       16.8371      347.7111      364.5482     206.492514       0.52768
  13     269.0      157.2615       18.3922      342.9441      361.3363     204.074820       0.78429
  12     297.5      156.4141       20.0291      337.4137      357.4428     201.028648       0.90346
  11     328.5      155.5161       21.7488      331.1302      352.8790     197.362856       0.99672
  10     361.9      154.5707       23.5454      324.1219      347.6673     193.096632       1.07940
   9     398.1      153.5790       25.4179      316.6066      342.0245     188.445474       1.08362
   8     437.6      152.5466       27.3611      308.5895      335.9506     183.404032       1.07789
   7     480.5      151.4823       29.3687      299.9349      329.3036     177.821352       1.09642
   6     533.0      150.2349       31.7398      289.7021      321.4420     171.207015       1.06404
   5     589.8      148.9712       34.1787      279.3388      313.5175     164.546304       0.98867
   4     651.6      147.7156       36.6725      268.7786      305.4512     157.735533       0.93139
   3     718.7      146.4819       39.2113      258.2837      297.4949     151.013050       0.84483
   2     792.3      145.2866       41.7801      248.0774      289.8575     144.570860       0.73885
   1     891.5      143.9079       45.0180      235.5216      280.5396     136.631693       0.67558
   0    1013.0      142.7475       48.5801      221.4731      270.0532     127.305740       0.64755



 Wavenumbers:  2600. -  3250. cm-1, ATM      1
 LEVEL PRESSURE   UPWARD FLUX   DIFDOWN FLUX  DIRDOWN FLUX  DOWNWARD FLUX   NET FLUX    HEATING RATE
          mb          W/m2          W/m2          W/m2        W/m2          W/m2       degree/day
  51    .06700        0.2512        0.0000        3.5066        3.5066       3.255402       0.00000
  50    .07753        0.2512        0.0000        3.5066        3.5066       3.255394       0.00640
  49    .09103        0.2512        0.0000        3.5066        3.5066       3.255384       0.00627
  48    0.1069        0.2512        0.0000        3.5066        3.5066       3.255372       0.00613
  47    0.1255        0.2512        0.0000        3.5066        3.5066       3.255359       0.00599
  46    0.1487        0.2512        0.0000        3.5066        3.5066       3.255342       0.00607
  45    0.1794        0.2512        0.0000        3.5065        3.5065       3.255319       0.00624
  44    0.2165        0.2512        0.0000        3.5065        3.5065       3.255293       0.00611
  43    0.2613        0.2512        0.0000        3.5065        3.5065       3.255261       0.00598
  42    0.3336        0.2512        0.0000        3.5064        3.5064       3.255208       0.00615
  41    0.4307        0.2512        0.0000        3.5064        3.5064       3.255137       0.00618
  40    0.5894        0.2512        0.0000        3.5062        3.5062       3.255018       0.00633
  39     1.339        0.2512        0.0000        3.5055        3.5055       3.254319       0.00787
  38     1.782        0.2512        0.0000        3.5050        3.5050       3.253788       0.01011
  37     2.292        0.2512        0.0000        3.5043        3.5043       3.253096       0.01147
  36     2.964        0.2512        0.0000        3.5033        3.5033       3.252104       0.01245
  35     3.853        0.2512        0.0000        3.5019        3.5019       3.250727       0.01307
  34     5.035        0.2512        0.0000        3.5001        3.5001       3.248866       0.01329
  33     6.613        0.2512        0.0000        3.4977        3.4977       3.246457       0.01288
  32     8.786        0.2512        0.0000        3.4947        3.4947       3.243486       0.01154
  31     11.80        0.2512        0.0000        3.4911        3.4911       3.239851       0.01018
  30     15.07        0.2512        0.0000        3.4878        3.4878       3.236630       0.00832
  29     18.79        0.2512        0.0000        3.4848        3.4848       3.233566       0.00695
  28     23.16        0.2512        0.0000        3.4816        3.4816       3.230347       0.00623
  27     28.12        0.2512        0.0000        3.4779        3.4779       3.226729       0.00615
  26     33.73        0.2512        0.0000        3.4735        3.4735       3.222263       0.00672
  25     40.54        0.2512        0.0000        3.4671        3.4671       3.215937       0.00785
  24     48.69        0.2512        0.0000        3.4582        3.4583       3.207042       0.00920
  23     57.69        0.2512        0.0000        3.4472        3.4472       3.195995       0.01036
  22     68.43        0.2512        0.0000        3.4329        3.4329       3.181736       0.01121
  21     81.20        0.2512        0.0000        3.4152        3.4152       3.164008       0.01171
  20     96.49        0.2512        0.0000        3.3940        3.3941       3.142864       0.01167
  19     114.6        0.2512        0.0000        3.3692        3.3692       3.117976       0.01162
  18     136.5        0.2512        0.0001        3.3419        3.3420       3.090760       0.01047
  17     162.9        0.2513        0.0001        3.3129        3.3129       3.061686       0.00929
  16     196.4        0.2513        0.0001        3.2793        3.2794       3.028115       0.00845
  15     218.7        0.2513        0.0001        3.2578        3.2578       3.006498       0.00821
  14     243.0        0.2514        0.0001        3.2320        3.2320       2.980625       0.00897
  13     269.0        0.2516        0.0001        3.1968        3.1969       2.945375       0.01143
  12     297.5        0.2518        0.0001        3.1489        3.1490       2.897291       0.01426
  11     328.5        0.2521        0.0001        3.0821        3.0822       2.830103       0.01827
  10     361.9        0.2525        0.0001        2.9902        2.9904       2.737833       0.02335
   9     398.1        0.2532        0.0001        2.8715        2.8716       2.618444       0.02781
   8     437.6        0.2541        0.0001        2.7276        2.7278       2.473697       0.03095
   7     480.5        0.2554        0.0001        2.5595        2.5597       2.304221       0.03328
   6     533.0        0.2577        0.0001        2.3617        2.3619       2.104215       0.03217
   5     589.8        0.2609        0.0002        2.1649        2.1651       1.904192       0.02969
   4     651.6        0.2655        0.0002        1.9608        1.9609       1.695405       0.02855
   3     718.7        0.2718        0.0002        1.7593        1.7595       1.487664       0.02611
   2     792.3        0.2800        0.0002        1.5761        1.5762       1.296170       0.02196
   1     891.5        0.2942        0.0002        1.3714        1.3716       1.077402       0.01862
   0    1013.0        0.3198        0.0002        1.1584        1.1586       0.838813       0.01657



 Wavenumbers:  3250. -  4000. cm-1, ATM      1
 LEVEL PRESSURE   UPWARD FLUX   DIFDOWN FLUX  DIRDOWN FLUX  DOWNWARD FLUX   NET FLUX    HEATING RATE
          mb          W/m2          W/m2          W/m2        W/m2          W/m2       degree/day
  51    .06700        0.0004        0.0000        5.9117        5.9117       5.911237       0.00000
  50    .07753        0.0004        0.0000        5.9075        5.9075       5.907047       3.35808
  49    .09103        0.0004        0.0000        5.9050        5.9050       5.904605       1.52677
  48    0.1069        0.0004        0.0000        5.9032        5.9032       5.902738       0.99346
  47    0.1255        0.0004        0.0000        5.9014        5.9014       5.900980       0.79708
  46    0.1487        0.0004        0.0000        5.8995        5.8995       5.899091       0.68848
  45    0.1794        0.0004        0.0000        5.8974        5.8974       5.896943       0.58983
  44    0.2165        0.0004        0.0000        5.8952        5.8952       5.894826       0.48155
  43    0.2613        0.0004        0.0000        5.8931        5.8931       5.892667       0.40696
  42    0.3336        0.0004        0.0000        5.8899        5.8899       5.889509       0.36820
  41    0.4307        0.0004        0.0000        5.8861        5.8861       5.885672       0.33365
  40    0.5894        0.0004        0.0000        5.8803        5.8803       5.879869       0.30857
  39     1.339        0.0004        0.0000        5.8597        5.8597       5.859271       0.23189
  38     1.782        0.0004        0.0000        5.8513        5.8513       5.850847       0.16039
  37     2.292        0.0004        0.0000        5.8431        5.8431       5.842676       0.13533
  36     2.964        0.0004        0.0000        5.8334        5.8334       5.833036       0.12100
  35     3.853        0.0004        0.0000        5.8213        5.8213       5.820861       0.11555
  34     5.035        0.0004        0.0000        5.8052        5.8052       5.804765       0.11498
  33     6.613        0.0004        0.0000        5.7833        5.7834       5.782944       0.11666
  32     8.786        0.0004        0.0000        5.7531        5.7531       5.752743       0.11729
  31     11.80        0.0004        0.0000        5.7090        5.7090       5.708574       0.12366
  30     15.07        0.0004        0.0000        5.6615        5.6615       5.661109       0.12254
  29     18.79        0.0004        0.0000        5.6093        5.6094       5.608974       0.11821
  28     23.16        0.0004        0.0000        5.5524        5.5524       5.552048       0.11008
  27     28.12        0.0004        0.0000        5.4935        5.4935       5.493169       0.10009
  26     33.73        0.0004        0.0000        5.4348        5.4349       5.434480       0.08824
  25     40.54        0.0004        0.0001        5.3707        5.3708       5.370419       0.07948
  24     48.69        0.0004        0.0001        5.2985        5.2985       5.298185       0.07475
  23     57.69        0.0003        0.0001        5.2215        5.2216       5.221247       0.07212
  22     68.43        0.0003        0.0001        5.1318        5.1319       5.131586       0.07048
  21     81.20        0.0003        0.0001        5.0284        5.0285       5.028157       0.06834
  20     96.49        0.0003        0.0001        4.9122        4.9123       4.912023       0.06410
  19     114.6        0.0003        0.0001        4.7780        4.7782       4.777912       0.06262
  18     136.5        0.0002        0.0002        4.6285        4.6287       4.628434       0.05748
  17     162.9        0.0002        0.0002        4.4406        4.4407       4.440521       0.06006
  16     196.4        0.0002        0.0002        4.1548        4.1550       4.154848       0.07191
  15     218.7        0.0002        0.0002        3.9564        3.9566       3.956467       0.07532
  14     243.0        0.0001        0.0002        3.7055        3.7058       3.705632       0.08700
  13     269.0        0.0001        0.0002        3.3399        3.3401       3.339994       0.11861
  12     297.5        0.0001        0.0002        2.8954        2.8956       2.895504       0.13183
  11     328.5        0.0001        0.0002        2.4388        2.4390       2.438963       0.12413
  10     361.9        0.0001        0.0002        2.0269        2.0271       2.027025       0.10422
   9     398.1        0.0001        0.0002        1.6753        1.6755       1.675437       0.08191
   8     437.6        0.0000        0.0002        1.3592        1.3594       1.359319       0.06759
   7     480.5        0.0000        0.0002        1.0616        1.0618       1.061736       0.05844
   6     533.0        0.0000        0.0001        0.7543        0.7544       0.754403       0.04944
   5     589.8        0.0000        0.0001        0.4951        0.4952       0.495212       0.03847
   4     651.6        0.0000        0.0001        0.2943        0.2943       0.294318       0.02747
   3     718.7        0.0000        0.0001        0.1528        0.1529       0.152828       0.01778
   2     792.3        0.0000        0.0000        0.0658        0.0658       0.065804       0.00998
   1     891.5        0.0001        0.0000        0.0157        0.0157       0.015579       0.00427
   0    1013.0        0.0004        0.0000        0.0013        0.0013       0.000973       0.00101



 Wavenumbers:  4000. -  4650. cm-1, ATM      1
 LEVEL PRESSURE   UPWARD FLUX   DIFDOWN FLUX  DIRDOWN FLUX  DOWNWARD FLUX   NET FLUX    HEATING RATE
          mb          W/m2          W/m2          W/m2        W/m2          W/m2       degree/day
  51    .06700        1.0784        0.0000        6.9421        6.9421       5.863644       0.00000
  50    .07753        1.0784        0.0000        6.9421        6.9421       5.863643       0.00079
  49    .09103        1.0784        0.0000        6.9421        6.9421       5.863642       0.00078
  48    0.1069        1.0784        0.0000        6.9421        6.9421       5.863641       0.00076
  47    0.1255        1.0784        0.0000        6.9421        6.9421       5.863639       0.00074
  46    0.1487        1.0784        0.0000        6.9421        6.9421       5.863637       0.00075
  45    0.1794        1.0784        0.0000        6.9421        6.9421       5.863634       0.00077
  44    0.2165        1.0784        0.0000        6.9421        6.9421       5.863631       0.00076
  43    0.2613        1.0784        0.0000        6.9420        6.9420       5.863627       0.00074
  42    0.3336        1.0784        0.0000        6.9420        6.9420       5.863620       0.00076
  41    0.4307        1.0784        0.0000        6.9420        6.9420       5.863612       0.00077
  40    0.5894        1.0784        0.0000        6.9420        6.9420       5.863597       0.00079
  39     1.339        1.0784        0.0000        6.9419        6.9419       5.863508       0.00100
  38     1.782        1.0784        0.0000        6.9418        6.9419       5.863439       0.00132
  37     2.292        1.0784        0.0000        6.9418        6.9418       5.863345       0.00155
  36     2.964        1.0784        0.0000        6.9416        6.9416       5.863206       0.00175
  35     3.853        1.0784        0.0000        6.9414        6.9414       5.862999       0.00196
  34     5.035        1.0784        0.0000        6.9411        6.9411       5.862695       0.00218
  33     6.613        1.0784        0.0000        6.9406        6.9406       5.862247       0.00239
  32     8.786        1.0784        0.0000        6.9399        6.9400       5.861587       0.00256
  31     11.80        1.0784        0.0000        6.9389        6.9389       5.860553       0.00290
  30     15.07        1.0784        0.0001        6.9377        6.9377       5.859343       0.00312
  29     18.79        1.0784        0.0001        6.9362        6.9362       5.857885       0.00331
  28     23.16        1.0784        0.0001        6.9343        6.9344       5.856083       0.00349
  27     28.12        1.0783        0.0001        6.9321        6.9322       5.853911       0.00369
  26     33.73        1.0783        0.0001        6.9294        6.9296       5.851246       0.00401
  25     40.54        1.0783        0.0002        6.9258        6.9260       5.847654       0.00446
  24     48.69        1.0783        0.0002        6.9210        6.9212       5.842899       0.00492
  23     57.69        1.0783        0.0002        6.9154        6.9156       5.837308       0.00524
  22     68.43        1.0782        0.0003        6.9083        6.9086       5.830358       0.00546
  21     81.20        1.0782        0.0003        6.8998        6.9001       5.821864       0.00561
  20     96.49        1.0782        0.0004        6.8894        6.8898       5.811608       0.00566
  19     114.6        1.0782        0.0004        6.8765        6.8770       5.798776       0.00599
  18     136.5        1.0782        0.0005        6.8610        6.8615       5.783306       0.00595
  17     162.9        1.0782        0.0006        6.8417        6.8423       5.764075       0.00615
  16     196.4        1.0783        0.0007        6.8147        6.8154       5.737123       0.00678
  15     218.7        1.0784        0.0008        6.7948        6.7957       5.717288       0.00753
  14     243.0        1.0785        0.0009        6.7698        6.7707       5.692149       0.00872
  13     269.0        1.0788        0.0010        6.7349        6.7358       5.657013       0.01140
  12     297.5        1.0793        0.0011        6.6869        6.6879       5.608630       0.01435
  11     328.5        1.0800        0.0012        6.6194        6.6206       5.540532       0.01852
  10     361.9        1.0810        0.0013        6.5295        6.5308       5.449771       0.02296
   9     398.1        1.0823        0.0014        6.4202        6.4216       5.339364       0.02572
   8     437.6        1.0839        0.0015        6.2962        6.2977       5.213753       0.02686
   7     480.5        1.0862        0.0016        6.1555        6.1571       5.070898       0.02806
   6     533.0        1.0899        0.0018        5.9675        5.9693       4.879387       0.03081
   5     589.8        1.0953        0.0019        5.7368        5.7387       4.643413       0.03503
   4     651.6        1.1030        0.0020        5.4662        5.4683       4.365290       0.03803
   3     718.7        1.1135        0.0022        5.1912        5.1934       4.079814       0.03588
   2     792.3        1.1272        0.0023        4.9395        4.9418       3.814610       0.03042
   1     891.5        1.1505        0.0024        4.6486        4.6511       3.500599       0.02672
   0    1013.0        1.1923        0.0026        4.3179        4.3205       3.128221       0.02586



 Wavenumbers:  4650. -  5150. cm-1, ATM      1
 LEVEL PRESSURE   UPWARD FLUX   DIFDOWN FLUX  DIRDOWN FLUX  DOWNWARD FLUX   NET FLUX    HEATING RATE
          mb          W/m2          W/m2          W/m2        W/m2          W/m2       degree/day
  51    .06700        0.7288        0.0000        6.5710        6.5710       5.842211       0.00000
  50    .07753        0.7288        0.0000        6.5708        6.5708       5.841975       0.18887
  49    .09103        0.7288        0.0000        6.5705        6.5705       5.841681       0.18362
  48    0.1069        0.7288        0.0000        6.5701        6.5701       5.841347       0.17806
  47    0.1255        0.7288        0.0000        6.5697        6.5697       5.840967       0.17238
  46    0.1487        0.7288        0.0000        6.5693        6.5693       5.840493       0.17268
  45    0.1794        0.7288        0.0000        6.5686        6.5686       5.839856       0.17473
  44    0.2165        0.7288        0.0000        6.5679        6.5679       5.839119       0.16788
  43    0.2613        0.7288        0.0000        6.5670        6.5670       5.838266       0.16078
  42    0.3336        0.7288        0.0000        6.5657        6.5657       5.836902       0.15894
  41    0.4307        0.7288        0.0000        6.5640        6.5640       5.835180       0.14971
  40    0.5894        0.7288        0.0000        6.5613        6.5613       5.832564       0.13913
  39     1.339        0.7288        0.0000        6.5516        6.5516       5.822787       0.11008
  38     1.782        0.7288        0.0000        6.5473        6.5473       5.818571       0.08026
  37     2.292        0.7288        0.0000        6.5434        6.5435       5.814684       0.06438
  36     2.964        0.7288        0.0000        6.5395        6.5395       5.810730       0.04964
  35     3.853        0.7288        0.0000        6.5355        6.5356       5.806787       0.03742
  34     5.035        0.7288        0.0000        6.5315        6.5315       5.802785       0.02859
  33     6.613        0.7288        0.0000        6.5271        6.5271       5.798391       0.02349
  32     8.786        0.7287        0.0000        6.5216        6.5216       5.792896       0.02134
  31     11.80        0.7287        0.0001        6.5135        6.5135       5.784818       0.02262
  30     15.07        0.7287        0.0001        6.5041        6.5042       5.775451       0.02419
  29     18.79        0.7287        0.0001        6.4925        6.4926       5.763936       0.02611
  28     23.16        0.7287        0.0001        6.4779        6.4780       5.749346       0.02821
  27     28.12        0.7287        0.0002        6.4599        6.4600       5.731374       0.03055
  26     33.73        0.7286        0.0002        6.4384        6.4386       5.709946       0.03222
  25     40.54        0.7286        0.0002        6.4112        6.4115       5.682826       0.03365
  24     48.69        0.7286        0.0003        6.3775        6.3778       5.649197       0.03480
  23     57.69        0.7286        0.0003        6.3404        6.3407       5.612116       0.03476
  22     68.43        0.7286        0.0004        6.2971        6.2975       5.568941       0.03394
  21     81.20        0.7286        0.0004        6.2483        6.2487       5.520148       0.03224
  20     96.49        0.7285        0.0005        6.1948        6.1954       5.466807       0.02944
  19     114.6        0.7286        0.0006        6.1381        6.1388       5.410213       0.02643
  18     136.5        0.7286        0.0007        6.0790        6.0797       5.351161       0.02271
  17     162.9        0.7286        0.0009        6.0160        6.0169       5.288280       0.02010
  16     196.4        0.7288        0.0010        5.9399        5.9409       5.212156       0.01916
  15     218.7        0.7289        0.0011        5.8896        5.8908       5.161911       0.01908
  14     243.0        0.7291        0.0013        5.8322        5.8335       5.104396       0.01995
  13     269.0        0.7294        0.0014        5.7624        5.7638       5.034435       0.02270
  12     297.5        0.7298        0.0015        5.6767        5.6783       4.948422       0.02551
  11     328.5        0.7305        0.0017        5.5726        5.5743       4.843736       0.02846
  10     361.9        0.7315        0.0018        5.4473        5.4491       4.717649       0.03190
   9     398.1        0.7328        0.0019        5.2995        5.3014       4.568626       0.03472
   8     437.6        0.7346        0.0021        5.1275        5.1295       4.394950       0.03713
   7     480.5        0.7371        0.0022        4.9290        4.9312       4.194118       0.03944
   6     533.0        0.7410        0.0024        4.6794        4.6817       3.940747       0.04076
   5     589.8        0.7465        0.0025        4.4188        4.4213       3.674807       0.03947
   4     651.6        0.7541        0.0026        4.1521        4.1547       3.400542       0.03751
   3     718.7        0.7644        0.0027        3.8929        3.8957       3.131248       0.03384
   2     792.3        0.7777        0.0028        3.6469        3.6497       2.871995       0.02973
   1     891.5        0.8004        0.0030        3.3535        3.3565       2.556071       0.02688
   0    1013.0        0.8392        0.0031        3.0383        3.0415       2.202236       0.02457



 Wavenumbers:  5150. -  6150. cm-1, ATM      1
 LEVEL PRESSURE   UPWARD FLUX   DIFDOWN FLUX  DIRDOWN FLUX  DOWNWARD FLUX   NET FLUX    HEATING RATE
          mb          W/m2          W/m2          W/m2        W/m2          W/m2       degree/day
  51    .06700        1.9701        0.0000       16.4735       16.4735      14.503375       0.00000
  50    .07753        1.9701        0.0000       16.4735       16.4735      14.503340       0.02761
  49    .09103        1.9701        0.0000       16.4734       16.4734      14.503295       0.02811
  48    0.1069        1.9701        0.0000       16.4734       16.4734      14.503242       0.02859
  47    0.1255        1.9701        0.0000       16.4733       16.4733      14.503178       0.02904
  46    0.1487        1.9701        0.0000       16.4732       16.4732      14.503094       0.03060
  45    0.1794        1.9701        0.0000       16.4731       16.4731      14.502975       0.03269
  44    0.2165        1.9701        0.0000       16.4730       16.4730      14.502828       0.03331
  43    0.2613        1.9701        0.0000       16.4728       16.4728      14.502649       0.03376
  42    0.3336        1.9701        0.0000       16.4725       16.4725      14.502343       0.03564
  41    0.4307        1.9701        0.0000       16.4720       16.4720      14.501924       0.03645
  40    0.5894        1.9701        0.0000       16.4713       16.4713      14.501223       0.03729
  39     1.339        1.9701        0.0000       16.4679       16.4679      14.497814       0.03838
  38     1.782        1.9701        0.0000       16.4659       16.4659      14.495815       0.03807
  37     2.292        1.9701        0.0001       16.4635       16.4636      14.493523       0.03795
  36     2.964        1.9701        0.0001       16.4605       16.4606      14.490553       0.03728
  35     3.853        1.9701        0.0001       16.4567       16.4568      14.486700       0.03657
  34     5.035        1.9700        0.0001       16.4516       16.4517      14.481702       0.03570
  33     6.613        1.9700        0.0002       16.4451       16.4452      14.475241       0.03454
  32     8.786        1.9700        0.0002       16.4367       16.4369      14.466928       0.03229
  31     11.80        1.9699        0.0003       16.4254       16.4257      14.455775       0.03122
  30     15.07        1.9698        0.0004       16.4141       16.4145      14.444686       0.02863
  29     18.79        1.9698        0.0005       16.4024       16.4029      14.433163       0.02613
  28     23.16        1.9697        0.0006       16.3900       16.3906      14.420898       0.02372
  27     28.12        1.9696        0.0007       16.3771       16.3778      14.408231       0.02153
  26     33.73        1.9695        0.0009       16.3641       16.3650      14.395500       0.01914
  25     40.54        1.9694        0.0011       16.3502       16.3512      14.381853       0.01693
  24     48.69        1.9692        0.0013       16.3354       16.3366      14.367372       0.01499
  23     57.69        1.9691        0.0015       16.3211       16.3226      14.353463       0.01304
  22     68.43        1.9689        0.0018       16.3062       16.3080      14.339064       0.01132
  21     81.20        1.9688        0.0021       16.2903       16.2924      14.323658       0.01018
  20     96.49        1.9685        0.0025       16.2726       16.2751      14.306569       0.00943
  19     114.6        1.9683        0.0030       16.2521       16.2550      14.286736       0.00926
  18     136.5        1.9680        0.0035       16.2245       16.2281      14.260051       0.01026
  17     162.9        1.9677        0.0042       16.1747       16.1789      14.211237       0.01560
  16     196.4        1.9673        0.0050       16.0518       16.0568      14.089593       0.03062
  15     218.7        1.9670        0.0055       15.8984       15.9039      13.936916       0.05797
  14     243.0        1.9667        0.0061       15.6153       15.6213      13.654579       0.09792
  13     269.0        1.9665        0.0066       15.1390       15.1456      13.179026       0.15427
  12     297.5        1.9664        0.0071       14.5779       14.5849      12.618549       0.16623
  11     328.5        1.9664        0.0075       13.8780       13.8855      11.919155       0.19016
  10     361.9        1.9665        0.0079       13.0814       13.0893      11.122830       0.20148
   9     398.1        1.9669        0.0082       12.2728       12.2811      10.314216       0.18839
   8     437.6        1.9676        0.0085       11.4776       11.4861       9.518557       0.17012
   7     480.5        1.9688        0.0088       10.7300       10.7388       8.770018       0.14701
   6     533.0        1.9710        0.0091       10.0326       10.0417       8.070713       0.11250
   5     589.8        1.9747        0.0096        9.5050        9.5146       7.539897       0.07879
   4     651.6        1.9805        0.0101        9.0814        9.0915       7.110984       0.05866
   3     718.7        1.9889        0.0107        8.7024        8.7132       6.724232       0.04860
   2     792.3        2.0005        0.0114        8.3379        8.3494       6.348895       0.04305
   1     891.5        2.0218        0.0123        7.9064        7.9187       5.896865       0.03847
   0    1013.0        2.0656        0.0132        7.4741        7.4874       5.421744       0.03299



 Wavenumbers:  6150. -  7700. cm-1, ATM      1
 LEVEL PRESSURE   UPWARD FLUX   DIFDOWN FLUX  DIRDOWN FLUX  DOWNWARD FLUX   NET FLUX    HEATING RATE
          mb          W/m2          W/m2          W/m2        W/m2          W/m2       degree/day
  51    .06700        2.9082        0.0000       30.4684       30.4684      27.560141       0.00000
  50    .07753        2.9082        0.0000       30.4683       30.4683      27.560089       0.04144
  49    .09103        2.9082        0.0000       30.4683       30.4683      27.560022       0.04174
  48    0.1069        2.9082        0.0000       30.4682       30.4682      27.559944       0.04202
  47    0.1255        2.9082        0.0000       30.4681       30.4681      27.559850       0.04227
  46    0.1487        2.9082        0.0000       30.4680       30.4680      27.559729       0.04411
  45    0.1794        2.9082        0.0000       30.4678       30.4678      27.559559       0.04669
  44    0.2165        2.9082        0.0000       30.4676       30.4676      27.559352       0.04715
  43    0.2613        2.9082        0.0000       30.4673       30.4673      27.559100       0.04744
  42    0.3336        2.9082        0.0000       30.4669       30.4669      27.558674       0.04974
  41    0.4307        2.9082        0.0000       30.4663       30.4663      27.558093       0.05052
  40    0.5894        2.9082        0.0001       30.4653       30.4653      27.557125       0.05146
  39     1.339        2.9081        0.0001       30.4604       30.4606      27.552441       0.05273
  38     1.782        2.9081        0.0002       30.4576       30.4578      27.549691       0.05235
  37     2.292        2.9080        0.0002       30.4543       30.4546      27.546533       0.05231
  36     2.964        2.9080        0.0003       30.4501       30.4504      27.542426       0.05156
  35     3.853        2.9079        0.0004       30.4445       30.4449      27.537069       0.05084
  34     5.035        2.9077        0.0005       30.4373       30.4378      27.530069       0.05000
  33     6.613        2.9076        0.0007       30.4278       30.4285      27.520921       0.04890
  32     8.786        2.9074        0.0010       30.4154       30.4163      27.508969       0.04642
  31     11.80        2.9071        0.0013       30.3984       30.3997      27.492583       0.04587
  30     15.07        2.9067        0.0016       30.3810       30.3826      27.475870       0.04315
  29     18.79        2.9064        0.0020       30.3623       30.3643      27.457969       0.04059
  28     23.16        2.9059        0.0025       30.3417       30.3442      27.438286       0.03806
  27     28.12        2.9054        0.0031       30.3196       30.3226      27.417187       0.03587
  26     33.73        2.9049        0.0037       30.2965       30.3002      27.395268       0.03295
  25     40.54        2.9042        0.0044       30.2708       30.2751      27.370931       0.03019
  24     48.69        2.9034        0.0053       30.2423       30.2476      27.344155       0.02771
  23     57.69        2.9025        0.0063       30.2139       30.2201      27.317589       0.02490
  22     68.43        2.9015        0.0074       30.1834       30.1908      27.289315       0.02223
  21     81.20        2.9002        0.0088       30.1500       30.1588      27.258587       0.02030
  20     96.49        2.8987        0.0104       30.1126       30.1231      27.224370       0.01889
  19     114.6        2.8969        0.0124       30.0695       30.0819      27.184986       0.01839
  18     136.5        2.8948        0.0147       30.0139       30.0286      27.133833       0.01967
  17     162.9        2.8923        0.0174       29.9225       29.9399      27.047660       0.02754
  16     196.4        2.8890        0.0210       29.7333       29.7543      26.865280       0.04591
  15     218.7        2.8869        0.0232       29.5259       29.5491      26.662159       0.07712
  14     243.0        2.8847        0.0256       29.1375       29.1630      26.278347       0.13312
  13     269.0        2.8824        0.0278       28.3800       28.4078      25.525397       0.24425
  12     297.5        2.8802        0.0299       27.3895       27.4194      24.539270       0.29247
  11     328.5        2.8781        0.0319       26.2257       26.2576      23.379507       0.31534
  10     361.9        2.8763        0.0337       24.8453       24.8790      22.002722       0.34834
   9     398.1        2.8750        0.0353       23.3471       23.3823      20.507289       0.34840
   8     437.6        2.8745        0.0365       21.7966       21.8332      18.958628       0.33111
   7     480.5        2.8755        0.0375       20.1977       20.2353      17.359743       0.31402
   6     533.0        2.8792        0.0385       18.4969       18.5355      15.656258       0.27404
   5     589.8        2.8869        0.0395       16.9754       17.0149      14.127969       0.22685
   4     651.6        2.9008        0.0405       15.6022       15.6426      12.741795       0.18956
   3     718.7        2.9224        0.0416       14.4232       14.4648      11.542371       0.15073
   2     792.3        2.9529        0.0429       13.4386       13.4816      10.528650       0.11626
   1     891.5        3.0101        0.0449       12.3736       12.4184       9.408288       0.09534
   0    1013.0        3.1261        0.0469       11.2911       11.3380       8.211940       0.08307



 Wavenumbers:  7700. -  8050. cm-1, ATM      1
 LEVEL PRESSURE   UPWARD FLUX   DIFDOWN FLUX  DIRDOWN FLUX  DOWNWARD FLUX   NET FLUX    HEATING RATE
          mb          W/m2          W/m2          W/m2        W/m2          W/m2       degree/day
  51    .06700        1.5085        0.0000        7.2006        7.2006       5.692083       0.00000
  50    .07753        1.5085        0.0000        7.2006        7.2006       5.692064       0.01498
  49    .09103        1.5085        0.0000        7.2005        7.2005       5.692040       0.01468
  48    0.1069        1.5085        0.0000        7.2005        7.2005       5.692013       0.01437
  47    0.1255        1.5085        0.0000        7.2005        7.2005       5.691982       0.01407
  46    0.1487        1.5085        0.0000        7.2004        7.2005       5.691943       0.01427
  45    0.1794        1.5085        0.0000        7.2004        7.2004       5.691890       0.01469
  44    0.2165        1.5085        0.0000        7.2003        7.2003       5.691826       0.01441
  43    0.2613        1.5085        0.0000        7.2003        7.2003       5.691751       0.01414
  42    0.3336        1.5085        0.0000        7.2001        7.2001       5.691627       0.01446
  41    0.4307        1.5085        0.0000        7.2000        7.2000       5.691463       0.01430
  40    0.5894        1.5085        0.0000        7.1997        7.1997       5.691194       0.01429
  39     1.339        1.5086        0.0001        7.1984        7.1985       5.689924       0.01431
  38     1.782        1.5086        0.0001        7.1977        7.1978       5.689177       0.01420
  37     2.292        1.5086        0.0001        7.1968        7.1969       5.688314       0.01430
  36     2.964        1.5087        0.0001        7.1957        7.1958       5.687181       0.01422
  35     3.853        1.5087        0.0002        7.1942        7.1944       5.685685       0.01420
  34     5.035        1.5088        0.0002        7.1922        7.1925       5.683699       0.01419
  33     6.613        1.5088        0.0003        7.1896        7.1899       5.681049       0.01417
  32     8.786        1.5089        0.0004        7.1860        7.1864       5.677483       0.01385
  31     11.80        1.5091        0.0005        7.1810        7.1815       5.672394       0.01425
  30     15.07        1.5093        0.0007        7.1755        7.1762       5.666946       0.01407
  29     18.79        1.5095        0.0008        7.1694        7.1703       5.660811       0.01391
  28     23.16        1.5097        0.0010        7.1623        7.1634       5.653674       0.01380
  27     28.12        1.5099        0.0012        7.1542        7.1555       5.645549       0.01381
  26     33.73        1.5102        0.0015        7.1452        7.1467       5.636504       0.01360
  25     40.54        1.5106        0.0018        7.1344        7.1362       5.625643       0.01347
  24     48.69        1.5110        0.0021        7.1215        7.1237       5.612649       0.01345
  23     57.69        1.5115        0.0025        7.1074        7.1100       5.598498       0.01326
  22     68.43        1.5120        0.0030        7.0909        7.0939       5.581812       0.01312
  21     81.20        1.5127        0.0035        7.0713        7.0749       5.562166       0.01298
  20     96.49        1.5136        0.0042        7.0484        7.0526       5.539081       0.01274
  19     114.6        1.5145        0.0050        7.0217        7.0267       5.512113       0.01259
  18     136.5        1.5157        0.0059        6.9906        6.9965       5.480746       0.01206
  17     162.9        1.5172        0.0070        6.9544        6.9614       5.444188       0.01169
  16     196.4        1.5191        0.0084        6.9087        6.9171       5.398002       0.01163
  15     218.7        1.5204        0.0093        6.8794        6.8887       5.368309       0.01127
  14     243.0        1.5219        0.0103        6.8481        6.8584       5.336553       0.01101
  13     269.0        1.5235        0.0114        6.8147        6.8261       5.302622       0.01101
  12     297.5        1.5253        0.0126        6.7791        6.7916       5.266339       0.01076
  11     328.5        1.5273        0.0138        6.7409        6.7548       5.227427       0.01058
  10     361.9        1.5296        0.0152        6.7002        6.7153       5.185667       0.01057
   9     398.1        1.5323        0.0166        6.6563        6.6729       5.140572       0.01051
   8     437.6        1.5353        0.0181        6.6089        6.6270       5.091638       0.01046
   7     480.5        1.5389        0.0198        6.5570        6.5768       5.037824       0.01057
   6     533.0        1.5438        0.0218        6.4915        6.5132       4.969396       0.01101
   5     589.8        1.5498        0.0239        6.4182        6.4421       4.892316       0.01144
   4     651.6        1.5571        0.0262        6.3359        6.3620       4.804900       0.01195
   3     718.7        1.5660        0.0286        6.2441        6.2727       4.706684       0.01234
   2     792.3        1.5765        0.0311        6.1437        6.1748       4.598265       0.01243
   1     891.5        1.5926        0.0344        6.0042        6.0386       4.446018       0.01296
   0    1013.0        1.6156        0.0382        5.8249        5.8631       4.247521       0.01378



 Wavenumbers:  8050. - 12850. cm-1, ATM      1
 LEVEL PRESSURE   UPWARD FLUX   DIFDOWN FLUX  DIRDOWN FLUX  DOWNWARD FLUX   NET FLUX    HEATING RATE
          mb          W/m2          W/m2          W/m2        W/m2          W/m2       degree/day
  51    .06700       19.7255        0.0000      100.8135      100.8135      81.088006       0.00000
  50    .07753       19.7255        0.0000      100.8135      100.8135      81.088006       0.00000
  49    .09103       19.7255        0.0001      100.8134      100.8135      81.088006       0.00000
  48    0.1069       19.7254        0.0001      100.8134      100.8134      81.088006      -0.00000
  47    0.1255       19.7254        0.0001      100.8133      100.8134      81.088006       0.00000
  46    0.1487       19.7254        0.0002      100.8132      100.8134      81.088006      -0.00000
  45    0.1794       19.7253        0.0002      100.8131      100.8133      81.088006       0.00000
  44    0.2165       19.7252        0.0003      100.8129      100.8132      81.088006       0.00000
  43    0.2613       19.7252        0.0004      100.8127      100.8132      81.088006      -0.00000
  42    0.3336       19.7250        0.0006      100.8125      100.8130      81.088006       0.00000
  41    0.4307       19.7249        0.0008      100.8121      100.8129      81.088006       0.00000
  40    0.5894       19.7246        0.0011      100.8115      100.8126      81.088006      -0.00000
  39     1.339       19.7232        0.0027      100.8085      100.8112      81.088006       0.00000
  38     1.782       19.7224        0.0037      100.8068      100.8104      81.088006      -0.00000
  37     2.292       19.7215        0.0048      100.8047      100.8095      81.088006       0.00000
  36     2.964       19.7203        0.0062      100.8021      100.8083      81.088006       0.00000
  35     3.853       19.7187        0.0081      100.7986      100.8068      81.088006      -0.00000
  34     5.035       19.7166        0.0107      100.7940      100.8046      81.088006       0.00000
  33     6.613       19.7138        0.0141      100.7878      100.8018      81.088006       0.00000
  32     8.786       19.7100        0.0186      100.7794      100.7980      81.088006       0.00000
  31     11.80       19.7046        0.0252      100.7674      100.7926      81.088006       0.00000
  30     15.07       19.6988        0.0322      100.7546      100.7868      81.088006       0.00000
  29     18.79       19.6921        0.0402      100.7400      100.7802      81.088006      -0.00000
  28     23.16       19.6844        0.0495      100.7230      100.7724      81.088006      -0.00000
  27     28.12       19.6756        0.0601      100.7035      100.7636      81.088006       0.00000
  26     33.73       19.6657        0.0720      100.6817      100.7537      81.088006       0.00000
  25     40.54       19.6537        0.0864      100.6552      100.7417      81.088006       0.00000
  24     48.69       19.6392        0.1038      100.6234      100.7272      81.088006       0.00000
  23     57.69       19.6233        0.1230      100.5883      100.7113      81.088006       0.00000
  22     68.43       19.6043        0.1458      100.5464      100.6923      81.088006       0.00000
  21     81.20       19.5816        0.1731      100.4965      100.6696      81.088006      -0.00000
  20     96.49       19.5545        0.2056      100.4370      100.6425      81.088006      -0.00000
  19     114.6       19.5224        0.2442      100.3585      100.6027      81.080329       0.00358
  18     136.5       19.4842        0.2901      100.2634      100.5535      81.069278       0.00425
  17     162.9       19.4386        0.3448      100.1407      100.4855      81.046846       0.00717
  16     196.4       19.3795        0.4159       99.9505      100.3664      80.986886       0.01509
  15     218.7       19.3406        0.4626       99.7889      100.2515      80.910896       0.02885
  14     243.0       19.2984        0.5132       99.5472      100.0604      80.762022       0.05163
  13     269.0       19.2529        0.5677       99.1452       99.7130      80.460028       0.09797
  12     297.5       19.2045        0.6262       98.5975       99.2237      80.019157       0.13076
  11     328.5       19.1533        0.6888       97.8659       98.5546      79.401269       0.16800
  10     361.9       19.1001        0.7551       96.8848       97.6399      78.539806       0.21796
   9     398.1       19.0455        0.8251       95.6330       96.4580      77.412544       0.26263
   8     437.6       18.9911        0.8981       94.0655       94.9635      75.972430       0.30791
   7     480.5       18.9402        0.9733       92.0807       93.0540      74.113826       0.36502
   6     533.0       18.8897        1.0617       89.4449       90.5065      71.616863       0.40168
   5     589.8       18.8531        1.1526       86.5544       87.7070      68.853901       0.41011
   4     651.6       18.8398        1.2454       83.4174       84.6628      65.823050       0.41448
   3     718.7       18.8554        1.3410       80.2037       81.5447      62.689298       0.39383
   2     792.3       18.9049        1.4398       77.0811       78.5209      59.616013       0.35247
   1     891.5       19.0408        1.5669       73.2645       74.8314      55.790660       0.32552
   0    1013.0       19.3831        1.7073       68.9425       70.6498      51.266736       0.31412



 Wavenumbers: 12850. - 16000. cm-1, ATM      1
 LEVEL PRESSURE   UPWARD FLUX   DIFDOWN FLUX  DIRDOWN FLUX  DOWNWARD FLUX   NET FLUX    HEATING RATE
          mb          W/m2          W/m2          W/m2        W/m2          W/m2       degree/day
  51    .06700       29.4562        0.0000       63.1686       63.1686      33.712346       0.00000
  50    .07753       29.4562        0.0001       63.1677       63.1678      33.711568       0.62375
  49    .09103       29.4562        0.0001       63.1666       63.1668      33.710599       0.60602
  48    0.1069       29.4561        0.0002       63.1654       63.1656      33.709495       0.58745
  47    0.1255       29.4561        0.0003       63.1640       63.1643      33.708240       0.56879
  46    0.1487       29.4560        0.0004       63.1623       63.1627      33.706676       0.57007
  45    0.1794       29.4560        0.0006       63.1600       63.1605      33.704580       0.57540
  44    0.2165       29.4559        0.0008       63.1573       63.1580      33.702158       0.55099
  43    0.2613       29.4558        0.0010       63.1542       63.1552      33.699367       0.52619
  42    0.3336       29.4557        0.0013       63.1493       63.1506      33.694924       0.51799
  41    0.4307       29.4556        0.0018       63.1431       63.1450      33.689375       0.48245
  40    0.5894       29.4555        0.0026       63.1338       63.1365      33.680988       0.44602
  39     1.339       29.4559        0.0064       63.0956       63.1020      33.646043       0.39341
  38     1.782       29.4570        0.0086       63.0740       63.0826      33.625653       0.38821
  37     2.292       29.4589        0.0111       63.0477       63.0588      33.599897       0.42658
  36     2.964       29.4626        0.0145       63.0095       63.0240      33.561433       0.48284
  35     3.853       29.4690        0.0189       62.9533       62.9721      33.503152       0.55310
  34     5.035       29.4791        0.0247       62.8725       62.8972      33.418167       0.60710
  33     6.613       29.4934        0.0326       62.7621       62.7946      33.301269       0.62494
  32     8.786       29.5118        0.0431       62.6182       62.6613      33.149561       0.58918
  31     11.80       29.5350        0.0581       62.4284       62.4864      32.951412       0.55476
  30     15.07       29.5564        0.0741       62.2426       62.3167      32.760322       0.49336
  29     18.79       29.5774        0.0922       62.0493       62.1415      32.564146       0.44479
  28     23.16       29.5982        0.1133       61.8424       61.9558      32.357597       0.39940
  27     28.12       29.6176        0.1374       61.6278       61.7652      32.147567       0.35704
  26     33.73       29.6332        0.1642       61.4177       61.5819      31.948694       0.29901
  25     40.54       29.6449        0.1966       61.1983       61.3949      31.750026       0.24647
  24     48.69       29.6520        0.2356       60.9680       61.2036      31.551540       0.20540
  23     57.69       29.6532        0.2784       60.7478       61.0262      31.372977       0.16738
  22     68.43       29.6473        0.3292       60.5202       60.8494      31.202151       0.13429
  21     81.20       29.6303        0.3898       60.2938       60.6836      31.053356       0.09832
  20     96.49       29.6008        0.4619       60.0643       60.5262      30.925384       0.07063
  19     114.6       29.5666        0.5479       59.8078       60.3557      30.789163       0.06361
  18     136.5       29.5218        0.6497       59.5157       60.1655      30.643679       0.05594
  17     162.9       29.4646        0.7706       59.1770       59.9476      30.483080       0.05133
  16     196.4       29.3821        0.9269       58.7604       59.6873      30.305195       0.04478
  15     218.7       29.3250        1.0292       58.4948       59.5240      30.198994       0.04032
  14     243.0       29.2617        1.1402       58.2089       59.3491      30.087430       0.03869
  13     269.0       29.1919        1.2602       57.9006       59.1607      29.968869       0.03846
  12     297.5       29.1156        1.3895       57.5668       58.9562      29.840633       0.03803
  11     328.5       29.0335        1.5288       57.2005       58.7293      29.695768       0.03939
  10     361.9       28.9459        1.6782       56.7963       58.4746      29.528644       0.04228
   9     398.1       28.8533        1.8384       56.3475       58.1859      29.332643       0.04566
   8     437.6       28.7569        2.0096       55.8422       57.8518      29.094887       0.05083
   7     480.5       28.6592        2.1917       55.2625       57.4543      28.795092       0.05888
   6     533.0       28.5483        2.4138       54.4972       56.9110      28.362671       0.06956
   5     589.8       28.4407        2.6498       53.6307       56.2805      27.839850       0.07760
   4     651.6       28.3412        2.8989       52.6606       55.5594      27.218271       0.08500
   3     718.7       28.2521        3.1612       51.6100       54.7712      26.519066       0.08787
   2     792.3       28.1769        3.4366       50.5019       53.9385      25.761581       0.08688
   1     891.5       28.1157        3.7990       49.0197       52.8187      24.702972       0.09008
   0    1013.0       28.1241        4.2182       47.2289       51.4471      23.323040       0.09582



 Wavenumbers: 16000. - 22650. cm-1, ATM      1
 LEVEL PRESSURE   UPWARD FLUX   DIFDOWN FLUX  DIRDOWN FLUX  DOWNWARD FLUX   NET FLUX    HEATING RATE
          mb          W/m2          W/m2          W/m2        W/m2          W/m2       degree/day
  51    .06700       70.1375        0.0000      100.7153      100.7153      30.577802       0.00000
  50    .07753       70.1374        0.0003      100.7147      100.7151      30.577688       0.09182
  49    .09103       70.1372        0.0007      100.7140      100.7147      30.577521       0.10415
  48    0.1069       70.1370        0.0012      100.7131      100.7143      30.577298       0.11876
  47    0.1255       70.1368        0.0017      100.7121      100.7138      30.576999       0.13537
  46    0.1487       70.1366        0.0024      100.7108      100.7132      30.576559       0.16041
  45    0.1794       70.1363        0.0033      100.7089      100.7122      30.575871       0.18887
  44    0.2165       70.1360        0.0044      100.7066      100.7109      30.574938       0.21227
  43    0.2613       70.1357        0.0057      100.7037      100.7094      30.573672       0.23864
  42    0.3336       70.1352        0.0078      100.6987      100.7065      30.571265       0.28063
  41    0.4307       70.1348        0.0106      100.6918      100.7024      30.567637       0.31545
  40    0.5894       70.1343        0.0152      100.6797      100.6950      30.560718       0.36795
  39     1.339       70.1369        0.0370      100.6095      100.6465      30.509610       0.57538
  38     1.782       70.1422        0.0498      100.5585      100.6083      30.466086       0.82862
  37     2.292       70.1518        0.0646      100.4903      100.5549      30.403107       1.04311
  36     2.964       70.1697        0.0841      100.3868      100.4708      30.301130       1.28012
  35     3.853       70.2008        0.1097      100.2306      100.3403      30.139443       1.53444
  34     5.035       70.2496        0.1437      100.0045      100.1481      29.898497       1.72121
  33     6.613       70.3186        0.1890       99.6939       99.8828      29.564202       1.78714
  32     8.786       70.4078        0.2499       99.2881       99.5379      29.130162       1.68565
  31     11.80       70.5208        0.3367       98.7496       99.0863      28.565482       1.58093
  30     15.07       70.6254        0.4296       98.2198       98.6494      28.024034       1.39791
  29     18.79       70.7284        0.5342       97.6651       98.1993      27.470905       1.25411
  28     23.16       70.8313        0.6558       97.0671       97.7230      26.891702       1.11999
  27     28.12       70.9286        0.7944       96.4406       97.2350      26.306410       0.99496
  26     33.73       71.0082        0.9489       95.8179       96.7668      25.758633       0.82360
  25     40.54       71.0706        1.1350       95.1548       96.2898      25.219198       0.66923
  24     48.69       71.1132        1.3584       94.4420       95.8003      24.687167       0.55057
  23     57.69       71.1284        1.6027       93.7416       95.3443      24.215921       0.44172
  22     68.43       71.1126        1.8925       92.9954       94.8878      23.775191       0.34647
  21     81.20       71.0474        2.2362       92.2231       94.4594      23.411961       0.24002
  20     96.49       70.9269        2.6439       91.4110       94.0549      23.127958       0.15675
  19     114.6       70.7629        3.1245       90.5070       93.6315      22.868549       0.12113
  18     136.5       70.5550        3.6892       89.4803       93.1694      22.614388       0.09773
  17     162.9       70.2959        4.3546       88.3022       92.6569      22.360939       0.08101
  16     196.4       69.9338        5.2073       86.8606       92.0680      22.134144       0.05709
  15     218.7       69.6873        5.7610       85.9492       91.7102      22.022921       0.04223
  14     243.0       69.4162        6.3572       84.9789       91.3362      21.919978       0.03570
  13     269.0       69.1193        6.9968       83.9493       90.9461      21.826760       0.03024
  12     297.5       68.7961        7.6805       82.8589       90.5395      21.743379       0.02473
  11     328.5       68.4473        8.4106       81.6982       90.1089      21.661534       0.02225
  10     361.9       68.0731        9.1869       80.4669       89.6538      21.580716       0.02045
   9     398.1       67.6723       10.0109       79.1611       89.1721      21.499753       0.01886
   8     437.6       67.2454       10.8831       77.7777       88.6608      21.415443       0.01803
   7     480.5       66.7923       11.8034       76.3136       88.1171      21.324754       0.01781
   6     533.0       66.2419       12.9160       74.5359       87.4519      21.209937       0.01847
   5     589.8       65.6589       14.0905       72.6469       86.7374      21.078536       0.01950
   4     651.6       65.0451       15.3247       70.6456       85.9703      20.925166       0.02097
   3     718.7       64.4008       16.6161       68.5367       85.1528      20.751979       0.02176
   2     792.3       63.7288       17.9594       66.3287       84.2880      20.559256       0.02210
   1     891.5       62.8535       19.7081       63.4246       83.1327      20.279204       0.02383
   0    1013.0       61.8537       21.7109       60.0483       81.7592      19.905534       0.02595



 Wavenumbers: 22650. - 29000. cm-1, ATM      1
 LEVEL PRESSURE   UPWARD FLUX   DIFDOWN FLUX  DIRDOWN FLUX  DOWNWARD FLUX   NET FLUX    HEATING RATE
          mb          W/m2          W/m2          W/m2        W/m2          W/m2       degree/day
  51    .06700       30.8557        0.0000       38.0063       38.0063       7.150567       0.00000
  50    .07753       30.8555        0.0004       38.0057       38.0061       7.150567      -0.00000
  49    .09103       30.8553        0.0008       38.0050       38.0059       7.150567       0.00000
  48    0.1069       30.8551        0.0014       38.0042       38.0056       7.150567       0.00000
  47    0.1255       30.8548        0.0020       38.0033       38.0053       7.150567      -0.00000
  46    0.1487       30.8544        0.0028       38.0022       38.0050       7.150567       0.00000
  45    0.1794       30.8539        0.0039       38.0006       38.0045       7.150567       0.00000
  44    0.2165       30.8533        0.0051       37.9987       38.0039       7.150567       0.00000
  43    0.2613       30.8526        0.0066       37.9965       38.0031       7.150567       0.00000
  42    0.3336       30.8514        0.0091       37.9928       38.0020       7.150567      -0.00000
  41    0.4307       30.8498        0.0124       37.9880       38.0004       7.150567       0.00000
  40    0.5894       30.8473        0.0178       37.9800       37.9979       7.150567       0.00000
  39     1.339       30.8352        0.0433       37.9425       37.9858       7.150567      -0.00000
  38     1.782       30.8281        0.0583       37.9204       37.9787       7.150567       0.00000
  37     2.292       30.8199        0.0756       37.8949       37.9705       7.150567      -0.00000
  36     2.964       30.8091        0.0983       37.8614       37.9597       7.150567       0.00000
  35     3.853       30.7949        0.1283       37.8172       37.9455       7.150567       0.00000
  34     5.035       30.7761        0.1681       37.7586       37.9266       7.150567      -0.00000
  33     6.613       30.7509        0.2211       37.6803       37.9014       7.150567       0.00000
  32     8.786       30.7170        0.2925       37.5750       37.8676       7.150567       0.00000
  31     11.80       30.6686        0.3943       37.4249       37.8192       7.150567       0.00000
  30     15.07       30.6168        0.5032       37.2642       37.7674       7.150567      -0.00000
  29     18.79       30.5585        0.6258       37.0833       37.7091       7.150567       0.00000
  28     23.16       30.4907        0.7682       36.8730       37.6412       7.150567       0.00000
  27     28.12       30.4134        0.9302       36.6338       37.5640       7.150567       0.00000
  26     33.73       30.3274        1.1103       36.3677       37.4780       7.150567       0.00000
  25     40.54       30.2241        1.3261       36.0486       37.3747       7.150567      -0.00000
  24     48.69       30.1005        1.5838       35.6672       37.2511       7.150567      -0.00000
  23     57.69       29.9659        1.8638       35.2527       37.1165       7.150567       0.00000
  22     68.43       29.8073        2.1929       34.7649       36.9578       7.150567      -0.00000
  21     81.20       29.6206        2.5789       34.1922       36.7711       7.150567       0.00000
  20     96.49       29.4014        3.0302       33.5217       36.5520       7.150567      -0.00000
  19     114.6       29.1457        3.5539       32.7424       36.2963       7.150567       0.00000
  18     136.5       28.8491        4.1580       31.8416       35.9996       7.150567       0.00000
  17     162.9       28.5046        4.8543       30.8008       35.6551       7.150567      -0.00000
  16     196.4       28.0715        5.7214       29.5007       35.2220       7.150567      -0.00000
  15     218.7       27.7953        6.2691       28.6767       34.9458       7.150567       0.00000
  14     243.0       27.5021        6.8459       27.8068       34.6527       7.150567       0.00000
  13     269.0       27.1925        7.4497       26.8933       34.3430       7.150567      -0.00000
  12     297.5       26.8669        8.0782       25.9393       34.0175       7.150567       0.00000
  11     328.5       26.5252        8.7307       24.9451       33.6758       7.150567       0.00000
  10     361.9       26.1686        9.4031       23.9160       33.3191       7.150567      -0.00000
   9     398.1       25.7972       10.0936       22.8541       32.9477       7.150567       0.00000
   8     437.6       25.4121       10.7982       21.7645       32.5626       7.150567       0.00000
   7     480.5       25.0144       11.5128       20.6521       32.1650       7.150567      -0.00000
   6     533.0       24.5448       12.3385       19.3569       31.6954       7.150567       0.00000
   5     589.8       24.0617       13.1655       18.0467       31.2123       7.150567      -0.00000
   4     651.6       23.5673       13.9862       16.7316       30.7178       7.150567      -0.00000
   3     718.7       23.0636       14.7928       15.4214       30.2142       7.150567       0.00000
   2     792.3       22.5535       15.5765       14.1276       29.7041       7.150567       0.00000
   1     891.5       21.9088       16.5135       12.5459       29.0594       7.150567       0.00000
   0    1013.0       21.1940       17.4728       10.8717       28.3446       7.150567      -0.00000



 Wavenumbers: 29000. - 38000. cm-1, ATM      1
 LEVEL PRESSURE   UPWARD FLUX   DIFDOWN FLUX  DIRDOWN FLUX  DOWNWARD FLUX   NET FLUX    HEATING RATE
          mb          W/m2          W/m2          W/m2        W/m2          W/m2       degree/day
  51    .06700        4.5695        0.0000       13.4026       13.4026       8.833058       0.00000
  50    .07753        4.5693        0.0003       13.3983       13.3986       8.829261       3.04409
  49    .09103        4.5690        0.0007       13.3921       13.3928       8.823742       3.44932
  48    0.1069        4.5687        0.0011       13.3840       13.3851       8.816366       3.92637
  47    0.1255        4.5684        0.0016       13.3733       13.3749       8.806522       4.46272
  46    0.1487        4.5679        0.0022       13.3579       13.3600       8.792081       5.26383
  45    0.1794        4.5674        0.0030       13.3340       13.3370       8.769684       6.14860
  44    0.2165        4.5667        0.0040       13.3024       13.3064       8.739668       6.82801
  43    0.2613        4.5659        0.0051       13.2604       13.2655       8.699618       7.54924
  42    0.3336        4.5647        0.0070       13.1833       13.1903       8.625621       8.62738
  41    0.4307        4.5631        0.0094       13.0729       13.0823       8.519263       9.24760
  40    0.5894        4.5606        0.0133       12.8796       12.8929       8.332247       9.94527
  39     1.339        4.5518        0.0294       11.9165       11.9459       7.394116      10.56165
  38     1.782        4.5483        0.0376       11.4399       11.4776       6.929310       8.84915
  37     2.292        4.5454        0.0464       10.9796       11.0260       6.480625       7.43139
  36     2.964        4.5435        0.0572       10.4786       10.5358       5.992386       6.12887
  35     3.853        4.5433        0.0705        9.9429       10.0134       5.470138       4.95624
  34     5.035        4.5455        0.0871        9.4007        9.4878       4.942298       3.77067
  33     6.613        4.5503        0.1082        8.8752        8.9834       4.433131       2.72201
  32     8.786        4.5569        0.1353        8.3786        8.5139       3.956984       1.84918
  31     11.80        4.5647        0.1725        7.8897        8.0621       3.497399       1.28669
  30     15.07        4.5711        0.2108        7.5108        7.7216       3.150492       0.89565
  29     18.79        4.5767        0.2526        7.1776        7.4302       2.853494       0.67339
  28     23.16        4.5812        0.2996        6.8664        7.1660       2.584750       0.51966
  27     28.12        4.5841        0.3515        6.5780        6.9295       2.345426       0.40684
  26     33.73        4.5829        0.4080        6.3195        6.7275       2.144533       0.30205
  25     40.54        4.5764        0.4746        6.0663        6.5409       1.964483       0.22337
  24     48.69        4.5639        0.5526        5.8128        6.3655       1.801592       0.16857
  23     57.69        4.5457        0.6358        5.5777        6.2135       1.667846       0.12537
  22     68.43        4.5192        0.7320        5.3379        6.0699       1.550699       0.09209
  21     81.20        4.4803        0.8435        5.0965        5.9400       1.459649       0.06016
  20     96.49        4.4278        0.9721        4.8476        5.8197       1.391944       0.03737
  19     114.6        4.3644        1.1177        4.5799        5.6975       1.333100       0.02748
  18     136.5        4.2910        1.2799        4.2891        5.5690       1.278043       0.02117
  17     162.9        4.2070        1.4595        3.9732        5.4327       1.225663       0.01674
  16     196.4        4.1009        1.6739        3.6080        5.2819       1.181002       0.01124
  15     218.7        4.0339        1.8039        3.3898        5.1937       1.159790       0.00805
  14     243.0        3.9641        1.9361        3.1686        5.1046       1.140585       0.00666
  13     269.0        3.8916        2.0692        2.9461        5.0153       1.123682       0.00548
  12     297.5        3.8170        2.2022        2.7239        4.9261       1.109092       0.00433
  11     328.5        3.7409        2.3335        2.5029        4.8364       1.095422       0.00372
  10     361.9        3.6638        2.4619        2.2846        4.7465       1.082692       0.00322
   9     398.1        3.5860        2.5861        2.0708        4.6569       1.070894       0.00275
   8     437.6        3.5079        2.7051        1.8626        4.5677       1.059775       0.00238
   7     480.5        3.4299        2.8172        1.6621        4.4794       1.049452       0.00203
   6     533.0        3.3412        2.9360        1.4437        4.3796       1.038466       0.00177
   5     589.8        3.2535        3.0426        1.2390        4.2816       1.028099       0.00154
   4     651.6        3.1675        3.1357        1.0500        4.1857       1.018209       0.00135
   3     718.7        3.0832        3.2142        0.8778        4.0920       1.008762       0.00119
   2     792.3        3.0010        3.2770        0.7237        4.0007       0.999741       0.00103
   1     891.5        2.9007        3.3333        0.5563        3.8896       0.988907       0.00092
   0    1013.0        2.7931        3.3665        0.4039        3.7704       0.977323       0.00080



 Wavenumbers: 38000. - 50000. cm-1, ATM      1
 LEVEL PRESSURE   UPWARD FLUX   DIFDOWN FLUX  DIRDOWN FLUX  DOWNWARD FLUX   NET FLUX    HEATING RATE
          mb          W/m2          W/m2          W/m2        W/m2          W/m2       degree/day
  51    .06700        0.0051        0.0000        0.8267        0.8267       0.821528       0.00000
  50    .07753        0.0051        0.0001        0.8242        0.8243       0.819196       1.86936
  49    .09103        0.0050        0.0002        0.8207        0.8209       0.815872       2.07705
  48    0.1069        0.0049        0.0002        0.8162        0.8164       0.811514       2.31984
  47    0.1255        0.0048        0.0004        0.8103        0.8106       0.805801       2.59006
  46    0.1487        0.0047        0.0005        0.8018        0.8023       0.797567       3.00143
  45    0.1794        0.0045        0.0007        0.7889        0.7896       0.785013       3.44648
  44    0.2165        0.0044        0.0009        0.7720        0.7729       0.768507       3.75474
  43    0.2613        0.0042        0.0011        0.7500        0.7511       0.746955       4.06246
  42    0.3336        0.0039        0.0015        0.7106        0.7121       0.708267       4.51071
  41    0.4307        0.0035        0.0019        0.6566        0.6584       0.654972       4.63387
  40    0.5894        0.0029        0.0024        0.5680        0.5704       0.567464       4.65357
  39     1.339        0.0015        0.0030        0.2422        0.2452       0.243720       3.64476
  38     1.782        0.0010        0.0026        0.1493        0.1519       0.150889       1.76735
  37     2.292        0.0007        0.0022        0.0924        0.0946       0.093932       0.94336
  36     2.964        0.0005        0.0018        0.0539        0.0557       0.055224       0.48589
  35     3.853        0.0003        0.0013        0.0295        0.0308       0.030502       0.23462
  34     5.035        0.0002        0.0010        0.0154        0.0164       0.016181       0.10230
  33     6.613        0.0001        0.0007        0.0073        0.0080       0.007912       0.04420
  32     8.786        0.0000        0.0004        0.0030        0.0034       0.003390       0.01756
  31     11.80        0.0000        0.0003        0.0010        0.0012       0.001199       0.00613
  30     15.07        0.0000        0.0001        0.0003        0.0005       0.000463       0.00190
  29     18.79        0.0000        0.0001        0.0001        0.0002       0.000182       0.00064
  28     23.16        0.0000        0.0000        0.0000        0.0001       0.000071       0.00022
  27     28.12        0.0000        0.0000        0.0000        0.0000       0.000028       0.00007
  26     33.73        0.0000        0.0000        0.0000        0.0000       0.000011       0.00002
  25     40.54        0.0000        0.0000        0.0000        0.0000       0.000005       0.00001
  24     48.69        0.0000        0.0000        0.0000        0.0000       0.000002       0.00000
  23     57.69        0.0000        0.0000        0.0000        0.0000       0.000001       0.00000
  22     68.43        0.0000        0.0000        0.0000        0.0000       0.000000       0.00000
  21     81.20        0.0000        0.0000        0.0000        0.0000       0.000000       0.00000
  20     96.49        0.0000        0.0000        0.0000        0.0000       0.000000       0.00000
  19     114.6        0.0000        0.0000        0.0000        0.0000       0.000000       0.00000
  18     136.5        0.0000        0.0000        0.0000        0.0000       0.000000       0.00000
  17     162.9        0.0000        0.0000        0.0000        0.0000       0.000000       0.00000
  16     196.4        0.0000        0.0000        0.0000        0.0000       0.000000       0.00000
  15     218.7        0.0000        0.0000        0.0000        0.0000       0.000000       0.00000
  14     243.0        0.0000        0.0000        0.0000        0.0000       0.000000       0.00000
  13     269.0        0.0000        0.0000        0.0000        0.0000       0.000000       0.00000
  12     297.5        0.0000        0.0000        0.0000        0.0000       0.000000       0.00000
  11     328.5        0.0000        0.0000        0.0000        0.0000       0.000000       0.00000
  10     361.9        0.0000        0.0000        0.0000        0.0000       0.000000       0.00000
   9     398.1        0.0000        0.0000        0.0000        0.0000       0.000000       0.00000
   8     437.6        0.0000        0.0000        0.0000        0.0000       0.000000       0.00000
   7     480.5        0.0000        0.0000        0.0000        0.0000       0.000000       0.00000
   6     533.0        0.0000        0.0000        0.0000        0.0000       0.000000       0.00000
   5     589.8        0.0000        0.0000        0.0000        0.0000       0.000000       0.00000
   4     651.6        0.0000        0.0000        0.0000        0.0000       0.000000       0.00000
   3     718.7        0.0000        0.0000        0.0000        0.0000       0.000000       0.00000
   2     792.3        0.0000        0.0000        0.0000        0.0000       0.000000       0.00000
   1     891.5        0.0000        0.0000        0.0000        0.0000       0.000000       0.00000
   0    1013.0        0.0000        0.0000        0.0000        0.0000       0.000000       0.00000



 Wavenumbers:   820. -  2600. cm-1, ATM      1
 LEVEL PRESSURE   UPWARD FLUX   DIFDOWN FLUX  DIRDOWN FLUX  DOWNWARD FLUX   NET FLUX    HEATING RATE
          mb          W/m2          W/m2          W/m2        W/m2          W/m2       degree/day
  51    .06700        0.1806        0.0000        3.8670        3.8670       3.686406       0.00000
  50    .07753        0.1806        0.0000        3.8643        3.8643       3.683689       2.17769
  49    .09103        0.1806        0.0000        3.8635        3.8635       3.682879       0.50638
  48    0.1069        0.1806        0.0000        3.8626        3.8626       3.681988       0.47415
  47    0.1255        0.1806        0.0000        3.8616        3.8616       3.681028       0.43559
  46    0.1487        0.1806        0.0000        3.8605        3.8605       3.679918       0.40437
  45    0.1794        0.1806        0.0000        3.8592        3.8592       3.678583       0.36648
  44    0.2165        0.1806        0.0000        3.8578        3.8578       3.677205       0.31346
  43    0.2613        0.1806        0.0000        3.8564        3.8564       3.675745       0.27522
  42    0.3336        0.1806        0.0000        3.8541        3.8541       3.673514       0.26012
  41    0.4307        0.1806        0.0000        3.8512        3.8512       3.670632       0.25063
  40    0.5894        0.1806        0.0000        3.8465        3.8465       3.665905       0.25134
  39     1.339        0.1806        0.0000        3.8251        3.8251       3.644530       0.24064
  38     1.782        0.1806        0.0000        3.8133        3.8133       3.632718       0.22489
  37     2.292        0.1806        0.0000        3.8003        3.8003       3.619657       0.21633
  36     2.964        0.1806        0.0000        3.7841        3.7841       3.603528       0.20246
  35     3.853        0.1806        0.0000        3.7642        3.7642       3.583613       0.18899
  34     5.035        0.1806        0.0000        3.7395        3.7395       3.558923       0.17638
  33     6.613        0.1806        0.0000        3.7090        3.7090       3.528387       0.16324
  32     8.786        0.1806        0.0000        3.6726        3.6726       3.491995       0.14134
  31     11.80        0.1806        0.0000        3.6320        3.6320       3.451401       0.11365
  30     15.07        0.1806        0.0000        3.6016        3.6016       3.421017       0.07844
  29     18.79        0.1806        0.0000        3.5777        3.5777       3.397120       0.05418
  28     23.16        0.1806        0.0000        3.5564        3.5564       3.375767       0.04129
  27     28.12        0.1806        0.0000        3.5348        3.5348       3.354222       0.03663
  26     33.73        0.1806        0.0000        3.5118        3.5118       3.331189       0.03463
  25     40.54        0.1806        0.0000        3.4849        3.4849       3.304302       0.03336
  24     48.69        0.1806        0.0000        3.4537        3.4537       3.273051       0.03234
  23     57.69        0.1806        0.0000        3.4210        3.4210       3.240379       0.03063
  22     68.43        0.1806        0.0000        3.3844        3.3844       3.203794       0.02876
  21     81.20        0.1806        0.0000        3.3441        3.3441       3.163496       0.02663
  20     96.49        0.1807        0.0000        3.2998        3.2998       3.119132       0.02449
  19     114.6        0.1807        0.0000        3.2506        3.2506       3.069984       0.02295
  18     136.5        0.1807        0.0000        3.1936        3.1936       3.012934       0.02194
  17     162.9        0.1807        0.0000        3.1181        3.1181       2.937428       0.02413
  16     196.4        0.1807        0.0000        3.0090        3.0090       2.828233       0.02749
  15     218.7        0.1808        0.0000        2.9420        2.9420       2.761223       0.02544
  14     243.0        0.1808        0.0000        2.8605        2.8605       2.679652       0.02829
  13     269.0        0.1809        0.0000        2.7419        2.7420       2.561053       0.03847
  12     297.5        0.1811        0.0000        2.5729        2.5729       2.391816       0.05019
  11     328.5        0.1813        0.0000        2.3602        2.3602       2.178873       0.05790
  10     361.9        0.1817        0.0000        2.1524        2.1524       1.970709       0.05267
   9     398.1        0.1823        0.0000        1.9974        1.9974       1.815125       0.03625
   8     437.6        0.1831        0.0000        1.8835        1.8835       1.700390       0.02453
   7     480.5        0.1843        0.0000        1.7734        1.7734       1.589103       0.02186
   6     533.0        0.1864        0.0000        1.6397        1.6398       1.453392       0.02183
   5     589.8        0.1893        0.0000        1.5068        1.5069       1.317546       0.02016
   4     651.6        0.1937        0.0000        1.3807        1.3807       1.187036       0.01785
   3     718.7        0.1995        0.0000        1.2680        1.2680       1.068536       0.01489
   2     792.3        0.2067        0.0000        1.1659        1.1660       0.959311       0.01253
   1     891.5        0.2187        0.0000        1.0372        1.0373       0.818562       0.01198
   0    1013.0        0.2406        0.0000        0.8716        0.8717       0.631094       0.01302

  Modules and versions used in this calculation:

       rrtmg_sw.1col.f90:  $Revision$                    rrtmg_sw_init.f90:  $Revision$        
     rrtmgsw_cldprop.f90:  $Revision$                  rrtmgsw_cldprmc.f90:  NOT USED          
     rrtmg_sw_reftra.f90:  $Revision$                  rrtmg_sw_spcvrt.f90:  NOT USED          
     rrtmg_sw_spcvmc.f90:  NOT USED                    rrtmgsw_setcoef.f90:  NOT USED          
     rrtmg_sw_taumol.f90:  $Revision$                  rrtmg_sw_vrtqdr.f90:  NOT USED          
                rrtatm.f:  NOT USED                             util_xxx.f:  NOT USED          
                 extra.f:  NOT USED                       rrtmg_sw_k_g.f90:  $Revision$        

