

 Wavenumbers:   820. - 50000. cm-1, ATM      1
 LEVEL PRESSURE   UPWARD FLUX   DIFDOWN FLUX  DIRDOWN FLUX  DOWNWARD FLUX   NET FLUX    HEATING RATE
          mb          W/m2          W/m2          W/m2        W/m2          W/m2       degree/day
  51    .06700      167.5451        0.0000      397.8738      397.8738     230.328638       0.00000
  50    .07753      167.5445        0.0011      397.8577      397.8589     230.314358      11.44569
  49    .09103      167.5437        0.0026      397.8418      397.8444     230.300686       8.54578
  48    0.1069      167.5428        0.0042      397.8230      397.8272     230.284359       8.69099
  47    0.1255      167.5418        0.0061      397.7997      397.8058     230.263943       9.25525
  46    0.1487      167.5406        0.0085      397.7676      397.7761     230.235526      10.35844
  45    0.1794      167.5389        0.0117      397.7205      397.7322     230.193296      11.59308
  44    0.2165      167.5371        0.0155      397.6602      397.6758     230.138732      12.41244
  43    0.2613      167.5349        0.0201      397.5829      397.6030     230.068048      13.32358
  42    0.3336      167.5315        0.0275      397.4449      397.4724     229.940824      14.83312
  41    0.4307      167.5273        0.0372      397.2524      397.2896     229.762277      15.52425
  40    0.5894      167.5209        0.0528      396.9253      396.9781     229.457172      16.22512
  39     1.339      167.5010        0.1226      395.4254      395.5479     228.046909      15.87700
  38     1.782      167.4959        0.1616      394.7288      394.8904     227.394439      12.42196
  37     2.292      167.4959        0.2060      394.0572      394.2632     226.767310      10.38690
  36     2.964      167.5043        0.2636      393.3007      393.5643     226.059997       8.87892
  35     3.853      167.5274        0.3390      392.4318      392.7708     225.243366       7.74998
  34     5.035      167.5698        0.4381      391.4441      391.8821     224.312297       6.65117
  33     6.613      167.6331        0.5693      390.3268      390.8960     223.262963       5.60975
  32     8.786      167.7138        0.7447      389.0624      389.8071     222.093288       4.54259
  31     11.80      167.8099        0.9936      387.5500      388.5436     220.733691       3.80644
  30     15.07      167.8903        1.2586      386.1556      387.4142     219.523916       3.12340
  29     18.79      167.9608        1.5555      384.7502      386.3057     218.344863       2.67327
  28     23.16      168.0199        1.8994      383.2686      385.1680     217.148160       2.31404
  27     28.12      168.0601        2.2893      381.7329      384.0222     215.962161       2.01612
  26     33.73      168.0649        2.7224      380.1982      382.9205     214.855676       1.66363
  25     40.54      168.0241        3.2415      378.5384      381.7799     213.755750       1.36458
  24     48.69      167.9306        3.8616      376.7214      380.5830     212.652397       1.14180
  23     57.69      167.7855        4.5360      374.8959      379.4319     211.646459       0.94292
  22     68.43      167.5671        5.3308      372.8999      378.2307     210.663573       0.77268
  21     81.20      167.2442        6.2670      370.7496      377.0166     209.772461       0.58883
  20     96.49      166.8031        7.3678      368.4056      375.7734     208.970345       0.44271
  19     114.6      166.2623        8.6527      365.7513      374.4039     208.141661       0.38694
  18     136.5      165.6110       10.1436      362.7231      372.8667     207.255661       0.34069
  17     162.9      164.8319       11.8750      359.1748      371.0498     206.217823       0.33174
  16     196.4      163.8029       14.0553      354.5718      368.6271     204.824151       0.35080
  15     218.7      163.1262       15.4481      351.4437      366.8918     203.765591       0.40190
  14     243.0      162.3964       16.9281      347.7111      364.6393     202.242856       0.52814
  13     269.0      161.6135       18.4932      342.9441      361.4373     199.823893       0.78470
  12     297.5      160.7781       20.1409      337.4137      357.5546     196.776467       0.90383
  11     328.5      159.8933       21.8723      331.1302      353.0026     193.109300       0.99709
  10     361.9      158.9621       23.6817      324.1219      347.8036     188.841514       1.07979
   9     398.1      157.9860       25.5680      316.6066      342.1745     184.188513       1.08404
   8     437.6      156.9708       27.5261      308.5895      336.1155     179.144768       1.07838
   7     480.5      155.9256       29.5497      299.9349      329.4846     173.559013       1.09702
   6     533.0      154.7030       31.9407      289.7021      321.6428     166.939828       1.06482
   5     589.8      153.4677       34.4013      279.3388      313.7400     160.272321       0.98968
   4     651.6      152.2453       36.9186      268.7786      305.6972     153.451900       0.93271
   3     718.7      151.0501       39.4828      258.2837      297.7665     146.716393       0.84647
   2     792.3      149.8993       42.0792      248.0774      290.1566     140.257293       0.74079
   1     891.5      148.5874       45.3547      235.5216      280.8763     132.288939       0.67807
   0    1013.0      147.5243       48.9628      221.4731      270.4359     122.911595       0.65112



 Wavenumbers:  2600. -  3250. cm-1, ATM      1
 LEVEL PRESSURE   UPWARD FLUX   DIFDOWN FLUX  DIRDOWN FLUX  DOWNWARD FLUX   NET FLUX    HEATING RATE
          mb          W/m2          W/m2          W/m2        W/m2          W/m2       degree/day
  51    .06700        0.2627        0.0000        3.5066        3.5066       3.243943       0.00000
  50    .07753        0.2627        0.0000        3.5066        3.5066       3.243935       0.00640
  49    .09103        0.2627        0.0000        3.5066        3.5066       3.243925       0.00627
  48    0.1069        0.2627        0.0000        3.5066        3.5066       3.243913       0.00613
  47    0.1255        0.2627        0.0000        3.5066        3.5066       3.243900       0.00599
  46    0.1487        0.2627        0.0000        3.5066        3.5066       3.243883       0.00607
  45    0.1794        0.2627        0.0000        3.5065        3.5065       3.243860       0.00624
  44    0.2165        0.2627        0.0000        3.5065        3.5065       3.243834       0.00611
  43    0.2613        0.2627        0.0000        3.5065        3.5065       3.243802       0.00598
  42    0.3336        0.2627        0.0000        3.5064        3.5064       3.243749       0.00615
  41    0.4307        0.2627        0.0000        3.5064        3.5064       3.243678       0.00618
  40    0.5894        0.2627        0.0000        3.5062        3.5062       3.243559       0.00633
  39     1.339        0.2627        0.0000        3.5055        3.5055       3.242860       0.00787
  38     1.782        0.2627        0.0000        3.5050        3.5050       3.242329       0.01011
  37     2.292        0.2627        0.0000        3.5043        3.5043       3.241637       0.01147
  36     2.964        0.2627        0.0000        3.5033        3.5033       3.240645       0.01245
  35     3.853        0.2627        0.0000        3.5019        3.5019       3.239268       0.01307
  34     5.035        0.2627        0.0000        3.5001        3.5001       3.237408       0.01329
  33     6.613        0.2627        0.0000        3.4977        3.4977       3.234998       0.01288
  32     8.786        0.2627        0.0000        3.4947        3.4947       3.232027       0.01154
  31     11.80        0.2627        0.0000        3.4911        3.4911       3.228392       0.01018
  30     15.07        0.2627        0.0000        3.4878        3.4878       3.225171       0.00832
  29     18.79        0.2627        0.0000        3.4848        3.4848       3.222107       0.00695
  28     23.16        0.2627        0.0000        3.4816        3.4816       3.218888       0.00623
  27     28.12        0.2627        0.0000        3.4779        3.4779       3.215270       0.00615
  26     33.73        0.2627        0.0000        3.4735        3.4735       3.210803       0.00672
  25     40.54        0.2627        0.0000        3.4671        3.4671       3.204478       0.00785
  24     48.69        0.2627        0.0000        3.4582        3.4583       3.195583       0.00920
  23     57.69        0.2627        0.0000        3.4472        3.4472       3.184535       0.01036
  22     68.43        0.2627        0.0000        3.4329        3.4329       3.170276       0.01121
  21     81.20        0.2627        0.0000        3.4152        3.4152       3.152548       0.01171
  20     96.49        0.2627        0.0000        3.3940        3.3941       3.131404       0.01167
  19     114.6        0.2627        0.0000        3.3692        3.3692       3.106515       0.01162
  18     136.5        0.2627        0.0001        3.3419        3.3420       3.079298       0.01047
  17     162.9        0.2627        0.0001        3.3129        3.3129       3.050223       0.00929
  16     196.4        0.2628        0.0001        3.2793        3.2794       3.016649       0.00845
  15     218.7        0.2628        0.0001        3.2578        3.2578       2.995030       0.00821
  14     243.0        0.2629        0.0001        3.2320        3.2320       2.969154       0.00897
  13     269.0        0.2630        0.0001        3.1968        3.1969       2.933897       0.01144
  12     297.5        0.2632        0.0001        3.1489        3.1490       2.885803       0.01426
  11     328.5        0.2636        0.0001        3.0821        3.0822       2.818601       0.01827
  10     361.9        0.2640        0.0001        2.9902        2.9904       2.726309       0.02335
   9     398.1        0.2647        0.0001        2.8715        2.8716       2.606891       0.02782
   8     437.6        0.2657        0.0001        2.7276        2.7278       2.462101       0.03096
   7     480.5        0.2671        0.0001        2.5595        2.5597       2.292563       0.03330
   6     533.0        0.2694        0.0002        2.3617        2.3619       2.092454       0.03219
   5     589.8        0.2728        0.0002        2.1649        2.1651       1.892284       0.02971
   4     651.6        0.2776        0.0002        1.9608        1.9609       1.683286       0.02858
   3     718.7        0.2842        0.0002        1.7593        1.7595       1.475256       0.02614
   2     792.3        0.2928        0.0002        1.5761        1.5762       1.283385       0.02201
   1     891.5        0.3076        0.0002        1.3714        1.3716       1.063971       0.01867
   0    1013.0        0.3344        0.0002        1.1584        1.1586       0.824215       0.01665



 Wavenumbers:  3250. -  4000. cm-1, ATM      1
 LEVEL PRESSURE   UPWARD FLUX   DIFDOWN FLUX  DIRDOWN FLUX  DOWNWARD FLUX   NET FLUX    HEATING RATE
          mb          W/m2          W/m2          W/m2        W/m2          W/m2       degree/day
  51    .06700        0.0004        0.0000        5.9117        5.9117       5.911237       0.00000
  50    .07753        0.0004        0.0000        5.9075        5.9075       5.907047       3.35808
  49    .09103        0.0004        0.0000        5.9050        5.9050       5.904604       1.52677
  48    0.1069        0.0004        0.0000        5.9032        5.9032       5.902738       0.99346
  47    0.1255        0.0004        0.0000        5.9014        5.9014       5.900980       0.79708
  46    0.1487        0.0004        0.0000        5.8995        5.8995       5.899091       0.68848
  45    0.1794        0.0004        0.0000        5.8974        5.8974       5.896942       0.58983
  44    0.2165        0.0004        0.0000        5.8952        5.8952       5.894826       0.48155
  43    0.2613        0.0004        0.0000        5.8931        5.8931       5.892667       0.40696
  42    0.3336        0.0004        0.0000        5.8899        5.8899       5.889508       0.36820
  41    0.4307        0.0004        0.0000        5.8861        5.8861       5.885671       0.33365
  40    0.5894        0.0004        0.0000        5.8803        5.8803       5.879869       0.30857
  39     1.339        0.0004        0.0000        5.8597        5.8597       5.859271       0.23189
  38     1.782        0.0004        0.0000        5.8513        5.8513       5.850847       0.16039
  37     2.292        0.0004        0.0000        5.8431        5.8431       5.842675       0.13533
  36     2.964        0.0004        0.0000        5.8334        5.8334       5.833036       0.12100
  35     3.853        0.0004        0.0000        5.8213        5.8213       5.820860       0.11555
  34     5.035        0.0004        0.0000        5.8052        5.8052       5.804765       0.11498
  33     6.613        0.0004        0.0000        5.7833        5.7834       5.782944       0.11666
  32     8.786        0.0004        0.0000        5.7531        5.7531       5.752742       0.11729
  31     11.80        0.0004        0.0000        5.7090        5.7090       5.708574       0.12366
  30     15.07        0.0004        0.0000        5.6615        5.6615       5.661109       0.12254
  29     18.79        0.0004        0.0000        5.6093        5.6094       5.608973       0.11821
  28     23.16        0.0004        0.0000        5.5524        5.5524       5.552048       0.11008
  27     28.12        0.0004        0.0000        5.4935        5.4935       5.493169       0.10009
  26     33.73        0.0004        0.0000        5.4348        5.4349       5.434480       0.08824
  25     40.54        0.0004        0.0001        5.3707        5.3708       5.370418       0.07948
  24     48.69        0.0004        0.0001        5.2985        5.2985       5.298185       0.07475
  23     57.69        0.0003        0.0001        5.2215        5.2216       5.221246       0.07212
  22     68.43        0.0003        0.0001        5.1318        5.1319       5.131586       0.07048
  21     81.20        0.0003        0.0001        5.0284        5.0285       5.028157       0.06834
  20     96.49        0.0003        0.0001        4.9122        4.9123       4.912022       0.06410
  19     114.6        0.0003        0.0001        4.7780        4.7782       4.777912       0.06262
  18     136.5        0.0002        0.0002        4.6285        4.6287       4.628433       0.05748
  17     162.9        0.0002        0.0002        4.4406        4.4407       4.440521       0.06006
  16     196.4        0.0002        0.0002        4.1548        4.1550       4.154847       0.07191
  15     218.7        0.0002        0.0002        3.9564        3.9566       3.956467       0.07532
  14     243.0        0.0001        0.0002        3.7055        3.7058       3.705632       0.08700
  13     269.0        0.0001        0.0002        3.3399        3.3401       3.339993       0.11861
  12     297.5        0.0001        0.0002        2.8954        2.8956       2.895504       0.13183
  11     328.5        0.0001        0.0002        2.4388        2.4390       2.438963       0.12413
  10     361.9        0.0001        0.0002        2.0269        2.0271       2.027024       0.10422
   9     398.1        0.0001        0.0002        1.6753        1.6755       1.675436       0.08191
   8     437.6        0.0000        0.0002        1.3592        1.3594       1.359318       0.06759
   7     480.5        0.0000        0.0002        1.0616        1.0618       1.061736       0.05844
   6     533.0        0.0000        0.0001        0.7543        0.7544       0.754403       0.04944
   5     589.8        0.0000        0.0001        0.4951        0.4952       0.495211       0.03847
   4     651.6        0.0000        0.0001        0.2943        0.2943       0.294317       0.02747
   3     718.7        0.0000        0.0001        0.1528        0.1529       0.152827       0.01778
   2     792.3        0.0000        0.0000        0.0658        0.0658       0.065803       0.00998
   1     891.5        0.0001        0.0000        0.0157        0.0157       0.015575       0.00427
   0    1013.0        0.0004        0.0000        0.0013        0.0013       0.000956       0.00102



 Wavenumbers:  4000. -  4650. cm-1, ATM      1
 LEVEL PRESSURE   UPWARD FLUX   DIFDOWN FLUX  DIRDOWN FLUX  DOWNWARD FLUX   NET FLUX    HEATING RATE
          mb          W/m2          W/m2          W/m2        W/m2          W/m2       degree/day
  51    .06700        1.1275        0.0000        6.9421        6.9421       5.814523       0.00000
  50    .07753        1.1275        0.0000        6.9421        6.9421       5.814522       0.00079
  49    .09103        1.1275        0.0000        6.9421        6.9421       5.814520       0.00078
  48    0.1069        1.1275        0.0000        6.9421        6.9421       5.814519       0.00076
  47    0.1255        1.1275        0.0000        6.9421        6.9421       5.814517       0.00074
  46    0.1487        1.1275        0.0000        6.9421        6.9421       5.814515       0.00075
  45    0.1794        1.1275        0.0000        6.9421        6.9421       5.814512       0.00077
  44    0.2165        1.1275        0.0000        6.9421        6.9421       5.814509       0.00076
  43    0.2613        1.1275        0.0000        6.9420        6.9420       5.814505       0.00074
  42    0.3336        1.1275        0.0000        6.9420        6.9420       5.814499       0.00076
  41    0.4307        1.1275        0.0000        6.9420        6.9420       5.814490       0.00077
  40    0.5894        1.1275        0.0000        6.9420        6.9420       5.814475       0.00079
  39     1.339        1.1275        0.0000        6.9419        6.9419       5.814386       0.00100
  38     1.782        1.1275        0.0000        6.9418        6.9419       5.814317       0.00132
  37     2.292        1.1275        0.0000        6.9418        6.9418       5.814223       0.00155
  36     2.964        1.1275        0.0000        6.9416        6.9416       5.814084       0.00175
  35     3.853        1.1275        0.0000        6.9414        6.9414       5.813877       0.00196
  34     5.035        1.1275        0.0000        6.9411        6.9411       5.813573       0.00218
  33     6.613        1.1275        0.0000        6.9406        6.9406       5.813125       0.00239
  32     8.786        1.1275        0.0000        6.9399        6.9400       5.812465       0.00256
  31     11.80        1.1275        0.0000        6.9389        6.9389       5.811431       0.00290
  30     15.07        1.1275        0.0001        6.9377        6.9377       5.810221       0.00312
  29     18.79        1.1275        0.0001        6.9362        6.9362       5.808764       0.00331
  28     23.16        1.1275        0.0001        6.9343        6.9344       5.806961       0.00349
  27     28.12        1.1275        0.0001        6.9321        6.9322       5.804789       0.00369
  26     33.73        1.1274        0.0001        6.9294        6.9296       5.802124       0.00401
  25     40.54        1.1274        0.0002        6.9258        6.9260       5.798531       0.00446
  24     48.69        1.1274        0.0002        6.9210        6.9212       5.793777       0.00492
  23     57.69        1.1274        0.0002        6.9154        6.9156       5.788185       0.00524
  22     68.43        1.1274        0.0003        6.9083        6.9086       5.781235       0.00546
  21     81.20        1.1273        0.0003        6.8998        6.9001       5.772739       0.00561
  20     96.49        1.1273        0.0004        6.8894        6.8898       5.762482       0.00566
  19     114.6        1.1273        0.0004        6.8765        6.8770       5.749648       0.00599
  18     136.5        1.1273        0.0005        6.8610        6.8615       5.734175       0.00595
  17     162.9        1.1273        0.0006        6.8417        6.8423       5.714940       0.00615
  16     196.4        1.1274        0.0007        6.8147        6.8154       5.687979       0.00679
  15     218.7        1.1275        0.0008        6.7948        6.7957       5.668137       0.00753
  14     243.0        1.1277        0.0009        6.7698        6.7707       5.642987       0.00872
  13     269.0        1.1280        0.0010        6.7349        6.7358       5.607834       0.01140
  12     297.5        1.1285        0.0011        6.6869        6.6879       5.559425       0.01436
  11     328.5        1.1293        0.0012        6.6194        6.6206       5.491289       0.01853
  10     361.9        1.1303        0.0013        6.5295        6.5308       5.400480       0.02298
   9     398.1        1.1316        0.0014        6.4202        6.4216       5.290010       0.02574
   8     437.6        1.1334        0.0015        6.2962        6.2977       5.164318       0.02687
   7     480.5        1.1358        0.0017        6.1555        6.1571       5.021352       0.02808
   6     533.0        1.1397        0.0018        5.9675        5.9693       4.829667       0.03084
   5     589.8        1.1452        0.0019        5.7368        5.7387       4.593443       0.03506
   4     651.6        1.1533        0.0021        5.4662        5.4683       4.314960       0.03808
   3     718.7        1.1644        0.0022        5.1912        5.1934       4.028994       0.03594
   2     792.3        1.1786        0.0023        4.9395        4.9418       3.763161       0.03049
   1     891.5        1.2030        0.0025        4.6486        4.6511       3.448075       0.02681
   0    1013.0        1.2467        0.0026        4.3179        4.3205       3.073777       0.02599



 Wavenumbers:  4650. -  5150. cm-1, ATM      1
 LEVEL PRESSURE   UPWARD FLUX   DIFDOWN FLUX  DIRDOWN FLUX  DOWNWARD FLUX   NET FLUX    HEATING RATE
          mb          W/m2          W/m2          W/m2        W/m2          W/m2       degree/day
  51    .06700        0.7619        0.0000        6.5710        6.5710       5.809088       0.00000
  50    .07753        0.7619        0.0000        6.5708        6.5708       5.808853       0.18887
  49    .09103        0.7619        0.0000        6.5705        6.5705       5.808559       0.18362
  48    0.1069        0.7619        0.0000        6.5701        6.5701       5.808224       0.17806
  47    0.1255        0.7619        0.0000        6.5697        6.5697       5.807844       0.17238
  46    0.1487        0.7619        0.0000        6.5693        6.5693       5.807370       0.17268
  45    0.1794        0.7619        0.0000        6.5686        6.5686       5.806734       0.17473
  44    0.2165        0.7619        0.0000        6.5679        6.5679       5.805996       0.16788
  43    0.2613        0.7619        0.0000        6.5670        6.5670       5.805143       0.16078
  42    0.3336        0.7619        0.0000        6.5657        6.5657       5.803780       0.15894
  41    0.4307        0.7619        0.0000        6.5640        6.5640       5.802058       0.14971
  40    0.5894        0.7619        0.0000        6.5613        6.5613       5.799442       0.13913
  39     1.339        0.7619        0.0000        6.5516        6.5516       5.789664       0.11008
  38     1.782        0.7619        0.0000        6.5473        6.5473       5.785448       0.08026
  37     2.292        0.7619        0.0000        6.5434        6.5435       5.781561       0.06438
  36     2.964        0.7619        0.0000        6.5395        6.5395       5.777607       0.04964
  35     3.853        0.7619        0.0000        6.5355        6.5356       5.773664       0.03742
  34     5.035        0.7619        0.0000        6.5315        6.5315       5.769662       0.02859
  33     6.613        0.7619        0.0000        6.5271        6.5271       5.765268       0.02349
  32     8.786        0.7619        0.0001        6.5216        6.5216       5.759774       0.02134
  31     11.80        0.7619        0.0001        6.5135        6.5135       5.751695       0.02262
  30     15.07        0.7618        0.0001        6.5041        6.5042       5.742328       0.02419
  29     18.79        0.7618        0.0001        6.4925        6.4926       5.730813       0.02611
  28     23.16        0.7618        0.0001        6.4779        6.4780       5.716223       0.02821
  27     28.12        0.7618        0.0002        6.4599        6.4600       5.698250       0.03055
  26     33.73        0.7618        0.0002        6.4384        6.4386       5.676822       0.03222
  25     40.54        0.7618        0.0002        6.4112        6.4115       5.649701       0.03365
  24     48.69        0.7617        0.0003        6.3775        6.3778       5.616071       0.03480
  23     57.69        0.7617        0.0003        6.3404        6.3407       5.578989       0.03476
  22     68.43        0.7617        0.0004        6.2971        6.2975       5.535813       0.03394
  21     81.20        0.7617        0.0005        6.2483        6.2487       5.487017       0.03224
  20     96.49        0.7617        0.0005        6.1948        6.1954       5.433673       0.02944
  19     114.6        0.7617        0.0006        6.1381        6.1388       5.377075       0.02643
  18     136.5        0.7617        0.0007        6.0790        6.0797       5.318018       0.02271
  17     162.9        0.7618        0.0009        6.0160        6.0169       5.255129       0.02010
  16     196.4        0.7619        0.0010        5.9399        5.9409       5.178992       0.01916
  15     218.7        0.7621        0.0011        5.8896        5.8908       5.128737       0.01908
  14     243.0        0.7622        0.0013        5.8322        5.8335       5.071209       0.01995
  13     269.0        0.7626        0.0014        5.7624        5.7638       5.001229       0.02270
  12     297.5        0.7631        0.0015        5.6767        5.6783       4.915189       0.02552
  11     328.5        0.7638        0.0017        5.5726        5.5743       4.810466       0.02847
  10     361.9        0.7648        0.0018        5.4473        5.4491       4.684329       0.03191
   9     398.1        0.7662        0.0019        5.2995        5.3014       4.535240       0.03473
   8     437.6        0.7681        0.0021        5.1275        5.1295       4.361475       0.03715
   7     480.5        0.7707        0.0022        4.9290        4.9312       4.160523       0.03947
   6     533.0        0.7748        0.0024        4.6794        4.6817       3.906965       0.04079
   5     589.8        0.7805        0.0025        4.4188        4.4213       3.640766       0.03951
   4     651.6        0.7886        0.0026        4.1521        4.1547       3.366142       0.03756
   3     718.7        0.7993        0.0027        3.8929        3.8957       3.096369       0.03390
   2     792.3        0.8132        0.0029        3.6469        3.6497       2.836500       0.02980
   1     891.5        0.8369        0.0030        3.3535        3.3565       2.519529       0.02697
   0    1013.0        0.8776        0.0031        3.0383        3.0415       2.163906       0.02469



 Wavenumbers:  5150. -  6150. cm-1, ATM      1
 LEVEL PRESSURE   UPWARD FLUX   DIFDOWN FLUX  DIRDOWN FLUX  DOWNWARD FLUX   NET FLUX    HEATING RATE
          mb          W/m2          W/m2          W/m2        W/m2          W/m2       degree/day
  51    .06700        2.0594        0.0000       16.4735       16.4735      14.414090       0.00000
  50    .07753        2.0594        0.0000       16.4735       16.4735      14.414056       0.02761
  49    .09103        2.0594        0.0000       16.4734       16.4734      14.414011       0.02811
  48    0.1069        2.0594        0.0000       16.4734       16.4734      14.413957       0.02859
  47    0.1255        2.0594        0.0000       16.4733       16.4733      14.413893       0.02904
  46    0.1487        2.0594        0.0000       16.4732       16.4732      14.413809       0.03060
  45    0.1794        2.0594        0.0000       16.4731       16.4731      14.413690       0.03269
  44    0.2165        2.0594        0.0000       16.4730       16.4730      14.413544       0.03331
  43    0.2613        2.0594        0.0000       16.4728       16.4728      14.413364       0.03376
  42    0.3336        2.0594        0.0000       16.4725       16.4725      14.413059       0.03564
  41    0.4307        2.0594        0.0000       16.4720       16.4720      14.412639       0.03645
  40    0.5894        2.0594        0.0000       16.4713       16.4713      14.411938       0.03729
  39     1.339        2.0594        0.0000       16.4679       16.4679      14.408529       0.03838
  38     1.782        2.0594        0.0000       16.4659       16.4659      14.406530       0.03807
  37     2.292        2.0594        0.0001       16.4635       16.4636      14.404238       0.03795
  36     2.964        2.0594        0.0001       16.4605       16.4606      14.401268       0.03728
  35     3.853        2.0593        0.0001       16.4567       16.4568      14.397415       0.03657
  34     5.035        2.0593        0.0001       16.4516       16.4517      14.392417       0.03570
  33     6.613        2.0593        0.0002       16.4451       16.4452      14.385956       0.03454
  32     8.786        2.0592        0.0002       16.4367       16.4369      14.377642       0.03229
  31     11.80        2.0592        0.0003       16.4254       16.4257      14.366489       0.03123
  30     15.07        2.0591        0.0004       16.4141       16.4145      14.355399       0.02863
  29     18.79        2.0590        0.0005       16.4024       16.4029      14.343875       0.02613
  28     23.16        2.0590        0.0006       16.3900       16.3906      14.331610       0.02372
  27     28.12        2.0589        0.0007       16.3771       16.3778      14.318941       0.02154
  26     33.73        2.0588        0.0009       16.3641       16.3650      14.306208       0.01914
  25     40.54        2.0587        0.0011       16.3502       16.3512      14.292560       0.01693
  24     48.69        2.0585        0.0013       16.3354       16.3366      14.278076       0.01499
  23     57.69        2.0584        0.0015       16.3211       16.3226      14.264164       0.01304
  22     68.43        2.0583        0.0018       16.3062       16.3080      14.249761       0.01132
  21     81.20        2.0581        0.0021       16.2903       16.2924      14.234350       0.01018
  20     96.49        2.0579        0.0025       16.2726       16.2751      14.217254       0.00944
  19     114.6        2.0576        0.0030       16.2521       16.2550      14.197414       0.00926
  18     136.5        2.0573        0.0035       16.2245       16.2281      14.170719       0.01026
  17     162.9        2.0570        0.0042       16.1747       16.1789      14.121894       0.01561
  16     196.4        2.0566        0.0050       16.0518       16.0569      14.000234       0.03062
  15     218.7        2.0564        0.0056       15.8984       15.9039      13.847546       0.05797
  14     243.0        2.0561        0.0061       15.6153       15.6213      13.565197       0.09793
  13     269.0        2.0559        0.0066       15.1390       15.1456      13.089628       0.15427
  12     297.5        2.0558        0.0071       14.5779       14.5850      12.529132       0.16624
  11     328.5        2.0558        0.0075       13.8780       13.8855      11.829712       0.19017
  10     361.9        2.0560        0.0079       13.0814       13.0894      11.033353       0.20149
   9     398.1        2.0564        0.0083       12.2728       12.2811      10.224696       0.18840
   8     437.6        2.0572        0.0086       11.4776       11.4861       9.428977       0.17013
   7     480.5        2.0584        0.0088       10.7300       10.7388       8.680356       0.14703
   6     533.0        2.0609        0.0092       10.0326       10.0418       7.980914       0.11252
   5     589.8        2.0647        0.0096        9.5050        9.5146       7.449898       0.07882
   4     651.6        2.0708        0.0101        9.0814        9.0915       7.020686       0.05870
   3     718.7        2.0797        0.0108        8.7024        8.7132       6.633514       0.04866
   2     792.3        2.0918        0.0115        8.3379        8.3494       6.257613       0.04311
   1     891.5        2.1141        0.0123        7.9064        7.9187       5.804560       0.03855
   0    1013.0        2.1600        0.0133        7.4741        7.4874       5.327378       0.03313



 Wavenumbers:  6150. -  7700. cm-1, ATM      1
 LEVEL PRESSURE   UPWARD FLUX   DIFDOWN FLUX  DIRDOWN FLUX  DOWNWARD FLUX   NET FLUX    HEATING RATE
          mb          W/m2          W/m2          W/m2        W/m2          W/m2       degree/day
  51    .06700        3.0383        0.0000       30.4684       30.4684      27.430114       0.00000
  50    .07753        3.0383        0.0000       30.4683       30.4683      27.430063       0.04144
  49    .09103        3.0383        0.0000       30.4683       30.4683      27.429996       0.04174
  48    0.1069        3.0383        0.0000       30.4682       30.4682      27.429917       0.04202
  47    0.1255        3.0383        0.0000       30.4681       30.4681      27.429824       0.04227
  46    0.1487        3.0383        0.0000       30.4680       30.4680      27.429703       0.04411
  45    0.1794        3.0383        0.0000       30.4678       30.4678      27.429533       0.04669
  44    0.2165        3.0383        0.0000       30.4676       30.4676      27.429325       0.04715
  43    0.2613        3.0382        0.0000       30.4673       30.4673      27.429074       0.04744
  42    0.3336        3.0382        0.0000       30.4669       30.4669      27.428647       0.04974
  41    0.4307        3.0382        0.0000       30.4663       30.4663      27.428066       0.05052
  40    0.5894        3.0382        0.0001       30.4653       30.4653      27.427098       0.05146
  39     1.339        3.0381        0.0001       30.4604       30.4606      27.422415       0.05273
  38     1.782        3.0381        0.0002       30.4576       30.4578      27.419665       0.05235
  37     2.292        3.0380        0.0002       30.4543       30.4546      27.416506       0.05231
  36     2.964        3.0380        0.0003       30.4501       30.4504      27.412399       0.05156
  35     3.853        3.0379        0.0004       30.4445       30.4449      27.407042       0.05084
  34     5.035        3.0378        0.0005       30.4373       30.4378      27.400042       0.05000
  33     6.613        3.0376        0.0007       30.4278       30.4285      27.390895       0.04890
  32     8.786        3.0374        0.0010       30.4154       30.4163      27.378942       0.04642
  31     11.80        3.0371        0.0013       30.3984       30.3997      27.362557       0.04587
  30     15.07        3.0368        0.0016       30.3810       30.3826      27.345843       0.04315
  29     18.79        3.0364        0.0021       30.3623       30.3643      27.327943       0.04059
  28     23.16        3.0360        0.0025       30.3417       30.3442      27.308260       0.03806
  27     28.12        3.0355        0.0031       30.3196       30.3226      27.287160       0.03587
  26     33.73        3.0349        0.0037       30.2965       30.3002      27.265241       0.03295
  25     40.54        3.0343        0.0044       30.2708       30.2752      27.240904       0.03019
  24     48.69        3.0334        0.0053       30.2423       30.2476      27.214128       0.02771
  23     57.69        3.0326        0.0063       30.2139       30.2201      27.187563       0.02490
  22     68.43        3.0315        0.0074       30.1834       30.1908      27.159288       0.02223
  21     81.20        3.0302        0.0088       30.1500       30.1588      27.128560       0.02030
  20     96.49        3.0287        0.0104       30.1126       30.1231      27.094343       0.01889
  19     114.6        3.0269        0.0124       30.0695       30.0819      27.054959       0.01839
  18     136.5        3.0248        0.0147       30.0139       30.0286      27.003806       0.01967
  17     162.9        3.0223        0.0175       29.9225       29.9399      26.917631       0.02754
  16     196.4        3.0191        0.0210       29.7333       29.7543      26.735251       0.04591
  15     218.7        3.0170        0.0233       29.5259       29.5491      26.532128       0.07712
  14     243.0        3.0148        0.0256       29.1375       29.1631      26.148313       0.13312
  13     269.0        3.0125        0.0279       28.3800       28.4079      25.395357       0.24426
  12     297.5        3.0103        0.0300       27.3895       27.4195      24.409219       0.29248
  11     328.5        3.0082        0.0319       26.2257       26.2577      23.249434       0.31534
  10     361.9        3.0065        0.0338       24.8453       24.8791      21.872611       0.34835
   9     398.1        3.0053        0.0353       23.3471       23.3824      20.377116       0.34842
   8     437.6        3.0049        0.0366       21.7966       21.8333      18.828356       0.33113
   7     480.5        3.0060        0.0376       20.1977       20.2354      17.229307       0.31405
   6     533.0        3.0100        0.0386       18.4969       18.5356      15.525518       0.27409
   5     589.8        3.0183        0.0396       16.9754       17.0150      13.996741       0.22692
   4     651.6        3.0330        0.0406       15.6022       15.6428      12.609798       0.18967
   3     718.7        3.0557        0.0417       14.4232       14.4649      11.409252       0.15088
   2     792.3        3.0877        0.0431       13.4386       13.4817      10.393999       0.11644
   1     891.5        3.1478        0.0450       12.3736       12.4186       9.270842       0.09558
   0    1013.0        3.2693        0.0471       11.2911       11.3382       8.068980       0.08345



 Wavenumbers:  7700. -  8050. cm-1, ATM      1
 LEVEL PRESSURE   UPWARD FLUX   DIFDOWN FLUX  DIRDOWN FLUX  DOWNWARD FLUX   NET FLUX    HEATING RATE
          mb          W/m2          W/m2          W/m2        W/m2          W/m2       degree/day
  51    .06700        1.5761        0.0000        7.2006        7.2006       5.624510       0.00000
  50    .07753        1.5761        0.0000        7.2006        7.2006       5.624491       0.01502
  49    .09103        1.5761        0.0000        7.2005        7.2005       5.624467       0.01472
  48    0.1069        1.5761        0.0000        7.2005        7.2005       5.624440       0.01441
  47    0.1255        1.5761        0.0000        7.2005        7.2005       5.624409       0.01410
  46    0.1487        1.5761        0.0000        7.2004        7.2005       5.624370       0.01430
  45    0.1794        1.5761        0.0000        7.2004        7.2004       5.624316       0.01472
  44    0.2165        1.5761        0.0000        7.2003        7.2003       5.624253       0.01444
  43    0.2613        1.5761        0.0000        7.2003        7.2003       5.624178       0.01417
  42    0.3336        1.5761        0.0000        7.2001        7.2001       5.624053       0.01450
  41    0.4307        1.5761        0.0000        7.2000        7.2000       5.623888       0.01434
  40    0.5894        1.5761        0.0000        7.1997        7.1997       5.623619       0.01432
  39     1.339        1.5761        0.0001        7.1984        7.1985       5.622346       0.01434
  38     1.782        1.5762        0.0001        7.1977        7.1978       5.621598       0.01424
  37     2.292        1.5762        0.0001        7.1968        7.1969       5.620733       0.01433
  36     2.964        1.5762        0.0001        7.1957        7.1958       5.619597       0.01426
  35     3.853        1.5763        0.0002        7.1942        7.1944       5.618097       0.01423
  34     5.035        1.5763        0.0002        7.1922        7.1925       5.616107       0.01422
  33     6.613        1.5764        0.0003        7.1896        7.1899       5.613450       0.01420
  32     8.786        1.5766        0.0004        7.1860        7.1864       5.609876       0.01388
  31     11.80        1.5767        0.0005        7.1810        7.1815       5.604775       0.01428
  30     15.07        1.5769        0.0007        7.1755        7.1762       5.599314       0.01410
  29     18.79        1.5771        0.0008        7.1694        7.1703       5.593165       0.01394
  28     23.16        1.5773        0.0010        7.1623        7.1634       5.586011       0.01383
  27     28.12        1.5776        0.0012        7.1542        7.1555       5.577866       0.01385
  26     33.73        1.5779        0.0015        7.1452        7.1467       5.568799       0.01363
  25     40.54        1.5783        0.0018        7.1344        7.1362       5.557912       0.01351
  24     48.69        1.5788        0.0021        7.1215        7.1237       5.544885       0.01348
  23     57.69        1.5793        0.0025        7.1074        7.1100       5.530699       0.01330
  22     68.43        1.5799        0.0030        7.0909        7.0939       5.513970       0.01315
  21     81.20        1.5806        0.0036        7.0713        7.0749       5.494273       0.01302
  20     96.49        1.5815        0.0042        7.0484        7.0526       5.471127       0.01278
  19     114.6        1.5826        0.0050        7.0217        7.0267       5.444085       0.01263
  18     136.5        1.5839        0.0059        6.9906        6.9965       5.412630       0.01210
  17     162.9        1.5855        0.0070        6.9544        6.9614       5.375966       0.01172
  16     196.4        1.5875        0.0084        6.9087        6.9172       5.329640       0.01166
  15     218.7        1.5889        0.0094        6.8794        6.8888       5.299854       0.01131
  14     243.0        1.5905        0.0104        6.8481        6.8585       5.267995       0.01105
  13     269.0        1.5922        0.0114        6.8147        6.8262       5.233951       0.01104
  12     297.5        1.5941        0.0126        6.7791        6.7917       5.197543       0.01080
  11     328.5        1.5963        0.0139        6.7409        6.7548       5.158491       0.01062
  10     361.9        1.5988        0.0152        6.7002        6.7154       5.116575       0.01061
   9     398.1        1.6016        0.0167        6.6563        6.6729       5.071305       0.01055
   8     437.6        1.6049        0.0182        6.6089        6.6271       5.022174       0.01050
   7     480.5        1.6087        0.0198        6.5570        6.5768       4.968133       0.01061
   6     533.0        1.6139        0.0218        6.4915        6.5133       4.899405       0.01106
   5     589.8        1.6203        0.0240        6.4182        6.4422       4.821969       0.01149
   4     651.6        1.6280        0.0263        6.3359        6.3621       4.734129       0.01201
   3     718.7        1.6374        0.0287        6.2441        6.2728       4.635412       0.01241
   2     792.3        1.6485        0.0312        6.1437        6.1749       4.526409       0.01250
   1     891.5        1.6654        0.0345        6.0042        6.0387       4.373290       0.01303
   0    1013.0        1.6897        0.0384        5.8249        5.8633       4.173571       0.01387



 Wavenumbers:  8050. - 12850. cm-1, ATM      1
 LEVEL PRESSURE   UPWARD FLUX   DIFDOWN FLUX  DIRDOWN FLUX  DOWNWARD FLUX   NET FLUX    HEATING RATE
          mb          W/m2          W/m2          W/m2        W/m2          W/m2       degree/day
  51    .06700       20.5616        0.0000      100.8135      100.8135      80.251963       0.00000
  50    .07753       20.5615        0.0000      100.8135      100.8135      80.251963       0.00000
  49    .09103       20.5615        0.0001      100.8134      100.8135      80.251963      -0.00000
  48    0.1069       20.5615        0.0001      100.8134      100.8134      80.251963       0.00000
  47    0.1255       20.5614        0.0001      100.8133      100.8134      80.251963       0.00000
  46    0.1487       20.5614        0.0002      100.8132      100.8134      80.251963       0.00000
  45    0.1794       20.5614        0.0002      100.8131      100.8133      80.251963       0.00000
  44    0.2165       20.5613        0.0003      100.8129      100.8132      80.251963       0.00000
  43    0.2613       20.5612        0.0004      100.8127      100.8132      80.251963       0.00000
  42    0.3336       20.5611        0.0006      100.8125      100.8130      80.251963      -0.00000
  41    0.4307       20.5609        0.0008      100.8121      100.8129      80.251963       0.00000
  40    0.5894       20.5606        0.0011      100.8115      100.8126      80.251963      -0.00000
  39     1.339       20.5593        0.0028      100.8085      100.8112      80.251963      -0.00000
  38     1.782       20.5585        0.0037      100.8068      100.8105      80.251963      -0.00000
  37     2.292       20.5576        0.0048      100.8047      100.8096      80.251963       0.00000
  36     2.964       20.5564        0.0063      100.8021      100.8084      80.251963      -0.00000
  35     3.853       20.5548        0.0082      100.7986      100.8068      80.251963      -0.00000
  34     5.035       20.5527        0.0107      100.7940      100.8047      80.251963      -0.00000
  33     6.613       20.5499        0.0141      100.7878      100.8019      80.251963       0.00000
  32     8.786       20.5461        0.0187      100.7794      100.7981      80.251963       0.00000
  31     11.80       20.5407        0.0253      100.7674      100.7927      80.251963      -0.00000
  30     15.07       20.5349        0.0323      100.7546      100.7869      80.251963       0.00000
  29     18.79       20.5283        0.0403      100.7400      100.7803      80.251963      -0.00000
  28     23.16       20.5206        0.0496      100.7230      100.7726      80.251963       0.00000
  27     28.12       20.5118        0.0603      100.7035      100.7638      80.251963       0.00000
  26     33.73       20.5020        0.0723      100.6817      100.7539      80.251963       0.00000
  25     40.54       20.4900        0.0867      100.6552      100.7420      80.251963       0.00000
  24     48.69       20.4756        0.1042      100.6234      100.7276      80.251963       0.00000
  23     57.69       20.4598        0.1234      100.5883      100.7117      80.251963      -0.00000
  22     68.43       20.4408        0.1463      100.5464      100.6928      80.251963      -0.00000
  21     81.20       20.4183        0.1737      100.4965      100.6702      80.251963       0.00000
  20     96.49       20.3913        0.2063      100.4370      100.6433      80.251963       0.00000
  19     114.6       20.3593        0.2451      100.3585      100.6036      80.244284       0.00359
  18     136.5       20.3213        0.2912      100.2634      100.5545      80.233230       0.00425
  17     162.9       20.2759        0.3461      100.1407      100.4867      80.210794       0.00717
  16     196.4       20.2171        0.4174       99.9505      100.3679      80.150826       0.01509
  15     218.7       20.1783        0.4642       99.7889      100.2532      80.074831       0.02885
  14     243.0       20.1363        0.5151       99.5472      100.0622      79.925947       0.05164
  13     269.0       20.0911        0.5698       99.1452       99.7150      79.623931       0.09797
  12     297.5       20.0429        0.6285       98.5975       99.2260      79.183011       0.13077
  11     328.5       19.9921        0.6913       97.8659       98.5571      78.565030       0.16803
  10     361.9       19.9393        0.7579       96.8848       97.6427      77.703398       0.21800
   9     398.1       19.8852        0.8281       95.6330       96.4611      76.575852       0.26269
   8     437.6       19.8316        0.9014       94.0655       94.9669      75.135269       0.30801
   7     480.5       19.7818        0.9769       92.0807       93.0577      73.275873       0.36518
   6     533.0       19.7332        1.0658       89.4449       90.5106      70.777440       0.40192
   5     589.8       19.6993        1.1571       86.5544       87.7115      68.012149       0.41046
   4     651.6       19.6901        1.2504       83.4174       84.6678      64.977679       0.41497
   3     718.7       19.7114        1.3465       80.2037       81.5502      61.838744       0.39448
   2     792.3       19.7685        1.4458       77.0811       78.5269      58.758466       0.35327
   1     891.5       19.9176        1.5736       73.2645       74.8382      54.920571       0.32659
   0    1013.0       20.2840        1.7149       68.9425       70.6574      50.373366       0.31574



 Wavenumbers: 12850. - 16000. cm-1, ATM      1
 LEVEL PRESSURE   UPWARD FLUX   DIFDOWN FLUX  DIRDOWN FLUX  DOWNWARD FLUX   NET FLUX    HEATING RATE
          mb          W/m2          W/m2          W/m2        W/m2          W/m2       degree/day
  51    .06700       30.2598        0.0000       63.1686       63.1686      32.908799       0.00000
  50    .07753       30.2597        0.0001       63.1677       63.1678      32.908021       0.62390
  49    .09103       30.2597        0.0001       63.1666       63.1668      32.907051       0.60618
  48    0.1069       30.2597        0.0002       63.1654       63.1656      32.905947       0.58763
  47    0.1255       30.2596        0.0003       63.1640       63.1643      32.904692       0.56900
  46    0.1487       30.2596        0.0004       63.1623       63.1627      32.903127       0.57031
  45    0.1794       30.2595        0.0006       63.1600       63.1605      32.901030       0.57569
  44    0.2165       30.2594        0.0008       63.1573       63.1581      32.898607       0.55132
  43    0.2613       30.2594        0.0010       63.1542       63.1552      32.895813       0.52656
  42    0.3336       30.2593        0.0013       63.1493       63.1506      32.891367       0.51842
  41    0.4307       30.2592        0.0018       63.1431       63.1450      32.885812       0.48294
  40    0.5894       30.2590        0.0026       63.1338       63.1365      32.877414       0.44659
  39     1.339       30.2596        0.0064       63.0956       63.1020      32.842391       0.39430
  38     1.782       30.2607        0.0086       63.0740       63.0826      32.821933       0.38949
  37     2.292       30.2628        0.0112       63.0477       63.0588      32.796079       0.42820
  36     2.964       30.2666        0.0145       63.0095       63.0241      32.757457       0.48482
  35     3.853       30.2733        0.0190       62.9533       62.9722      32.698925       0.55548
  34     5.035       30.2838        0.0249       62.8725       62.8974      32.613565       0.60978
  33     6.613       30.2986        0.0327       62.7621       62.7948      32.496146       0.62773
  32     8.786       30.3178        0.0433       62.6182       62.6615      32.343756       0.59182
  31     11.80       30.3420        0.0583       62.4284       62.4867      32.144715       0.55725
  30     15.07       30.3643        0.0745       62.2426       62.3171      31.952763       0.49558
  29     18.79       30.3862        0.0926       62.0493       62.1419      31.755700       0.44680
  28     23.16       30.4081        0.1138       61.8424       61.9563      31.548214       0.40121
  27     28.12       30.4286        0.1380       61.6278       61.7658      31.337230       0.35866
  26     33.73       30.4452        0.1650       61.4177       61.5826      31.137454       0.30037
  25     40.54       30.4579        0.1975       61.1983       61.3958      30.937889       0.24758
  24     48.69       30.4662        0.2367       60.9680       61.2047      30.738510       0.20633
  23     57.69       30.4683        0.2797       60.7478       61.0274      30.559149       0.16812
  22     68.43       30.4634        0.3307       60.5202       60.8509      30.387569       0.13488
  21     81.20       30.4473        0.3916       60.2938       60.6854      30.238149       0.09873
  20     96.49       30.4186        0.4640       60.0643       60.5283      30.109684       0.07090
  19     114.6       30.3855        0.5505       59.8078       60.3583      29.972853       0.06389
  18     136.5       30.3418        0.6528       59.5157       60.1685      29.826766       0.05617
  17     162.9       30.2858        0.7743       59.1770       59.9513      29.665562       0.05153
  16     196.4       30.2047        0.9313       58.7604       59.6918      29.487126       0.04491
  15     218.7       30.1483        1.0342       58.4948       59.5290      29.380648       0.04043
  14     243.0       30.0858        1.1457       58.2089       59.3546      29.268822       0.03879
  13     269.0       30.0169        1.2663       57.9006       59.1669      29.150011       0.03854
  12     297.5       29.9415        1.3963       57.5668       58.9631      29.021531       0.03811
  11     328.5       29.8604        1.5363       57.2005       58.7368      28.876396       0.03946
  10     361.9       29.7739        1.6866       56.7963       58.4829      28.708960       0.04236
   9     398.1       29.6825        1.8476       56.3475       58.1951      28.512579       0.04575
   8     437.6       29.5876        2.0197       55.8422       57.8619      28.274329       0.05094
   7     480.5       29.4915        2.2028       55.2625       57.4654      27.973843       0.05901
   6     533.0       29.3830        2.4262       54.4972       56.9233      27.540300       0.06974
   5     589.8       29.2783        2.6635       53.6307       56.2942      27.015924       0.07783
   4     651.6       29.1824        2.9140       52.6606       55.5746      26.392196       0.08530
   3     718.7       29.0978        3.1779       51.6100       54.7880      25.690161       0.08823
   2     792.3       29.0279        3.4551       50.5019       53.9569      24.929057       0.08729
   1     891.5       28.9751        3.8198       49.0197       52.8394      23.864355       0.09060
   0    1013.0       28.9961        4.2418       47.2289       51.4707      22.474608       0.09650



 Wavenumbers: 16000. - 22650. cm-1, ATM      1
 LEVEL PRESSURE   UPWARD FLUX   DIFDOWN FLUX  DIRDOWN FLUX  DOWNWARD FLUX   NET FLUX    HEATING RATE
          mb          W/m2          W/m2          W/m2        W/m2          W/m2       degree/day
  51    .06700       71.6639        0.0000      100.7153      100.7153      29.051374       0.00000
  50    .07753       71.6638        0.0003      100.7147      100.7151      29.051258       0.09239
  49    .09103       71.6636        0.0007      100.7140      100.7147      29.051091       0.10479
  48    0.1069       71.6635        0.0012      100.7131      100.7143      29.050866       0.11949
  47    0.1255       71.6633        0.0017      100.7121      100.7138      29.050566       0.13620
  46    0.1487       71.6630        0.0024      100.7108      100.7132      29.050123       0.16140
  45    0.1794       71.6628        0.0033      100.7089      100.7122      29.049431       0.19003
  44    0.2165       71.6625        0.0044      100.7066      100.7110      29.048492       0.21357
  43    0.2613       71.6622        0.0057      100.7037      100.7094      29.047218       0.24010
  42    0.3336       71.6617        0.0078      100.6987      100.7065      29.044796       0.28235
  41    0.4307       71.6613        0.0107      100.6918      100.7024      29.041146       0.31739
  40    0.5894       71.6609        0.0153      100.6797      100.6950      29.034185       0.37020
  39     1.339       71.6640        0.0372      100.6095      100.6467      28.982763       0.57891
  38     1.782       71.6696        0.0501      100.5585      100.6085      28.938973       0.83370
  37     2.292       71.6796        0.0650      100.4903      100.5552      28.875606       1.04951
  36     2.964       71.6982        0.0845      100.3868      100.4712      28.773002       1.28799
  35     3.853       71.7305        0.1102      100.2306      100.3408      28.610319       1.54390
  34     5.035       71.7810        0.1444      100.0045      100.1489      28.367884       1.73185
  33     6.613       71.8523        0.1900       99.6939       99.8838      28.031515       1.79823
  32     8.786       71.9445        0.2512       99.2881       99.5392      27.594768       1.69617
  31     11.80       72.0615        0.3385       98.7496       99.0881      27.026541       1.59086
  30     15.07       72.1700        0.4318       98.2198       98.6517      26.481663       1.40677
  29     18.79       72.2771        0.5370       97.6651       98.2021      25.925003       1.26212
  28     23.16       72.3843        0.6593       97.0671       97.7264      25.342070       1.12720
  27     28.12       72.4862        0.7986       96.4406       97.2392      24.752976       1.00142
  26     33.73       72.5702        0.9540       95.8179       96.7718      24.201608       0.82900
  25     40.54       72.6372        1.1410       95.1548       96.2959      23.658606       0.67366
  24     48.69       72.6846        1.3656       94.4420       95.8076      23.123024       0.55424
  23     57.69       72.7043        1.6113       93.7416       95.3529      22.648603       0.44470
  22     68.43       72.6931        1.9027       92.9954       94.8980      22.204878       0.34883
  21     81.20       72.6323        2.2483       92.2231       94.4715      21.839156       0.24166
  20     96.49       72.5161        2.6583       91.4110       94.0693      21.553187       0.15783
  19     114.6       72.3567        3.1417       90.5070       93.6487      21.291960       0.12197
  18     136.5       72.1539        3.7096       89.4803       93.1899      21.036000       0.09842
  17     162.9       71.9005        4.3790       88.3022       92.6812      20.780737       0.08159
  16     196.4       71.5452        5.2368       86.8606       92.0975      20.552298       0.05750
  15     218.7       71.3028        5.7939       85.9492       91.7431      20.440260       0.04254
  14     243.0       71.0361        6.3938       84.9789       91.3727      20.336556       0.03597
  13     269.0       70.7440        7.0373       83.9493       90.9866      20.242645       0.03046
  12     297.5       70.4257        7.7254       82.8589       90.5843      20.158642       0.02491
  11     328.5       70.0823        8.4602       81.6982       90.1584      20.076185       0.02242
  10     361.9       69.7137        9.2415       80.4669       89.7085      19.994764       0.02060
   9     398.1       69.3190       10.0711       79.1611       89.2322      19.913200       0.01900
   8     437.6       68.8987       10.9492       77.7777       88.7269      19.828269       0.01816
   7     480.5       68.4527       11.8760       76.3136       88.1896      19.736924       0.01794
   6     533.0       67.9111       12.9965       74.5359       87.5324      19.621283       0.01860
   5     589.8       67.3377       14.1797       72.6469       86.8267      19.488939       0.01964
   4     651.6       66.7344       15.4233       70.6456       86.0689      19.334454       0.02113
   3     718.7       66.1017       16.7250       68.5367       85.2617      19.159969       0.02193
   2     792.3       65.4422       18.0793       66.3287       84.4080      18.965734       0.02228
   1     891.5       64.5844       19.8431       63.4246       83.2677      18.683346       0.02403
   0    1013.0       63.6063       21.8643       60.0483       81.9126      18.306313       0.02618



 Wavenumbers: 22650. - 29000. cm-1, ATM      1
 LEVEL PRESSURE   UPWARD FLUX   DIFDOWN FLUX  DIRDOWN FLUX  DOWNWARD FLUX   NET FLUX    HEATING RATE
          mb          W/m2          W/m2          W/m2        W/m2          W/m2       degree/day
  51    .06700       31.4081        0.0000       38.0063       38.0063       6.598230       0.00000
  50    .07753       31.4079        0.0004       38.0057       38.0061       6.598230       0.00000
  49    .09103       31.4077        0.0008       38.0050       38.0059       6.598230       0.00000
  48    0.1069       31.4074        0.0014       38.0042       38.0056       6.598230      -0.00000
  47    0.1255       31.4071        0.0020       38.0033       38.0053       6.598230       0.00000
  46    0.1487       31.4067        0.0028       38.0022       38.0050       6.598230      -0.00000
  45    0.1794       31.4062        0.0039       38.0006       38.0045       6.598230       0.00000
  44    0.2165       31.4057        0.0052       37.9987       38.0039       6.598230      -0.00000
  43    0.2613       31.4049        0.0067       37.9965       38.0032       6.598230       0.00000
  42    0.3336       31.4038        0.0092       37.9928       38.0020       6.598230      -0.00000
  41    0.4307       31.4022        0.0125       37.9880       38.0005       6.598230       0.00000
  40    0.5894       31.3997        0.0179       37.9800       37.9979       6.598230       0.00000
  39     1.339       31.3877        0.0435       37.9425       37.9860       6.598230       0.00000
  38     1.782       31.3807        0.0585       37.9204       37.9790       6.598230      -0.00000
  37     2.292       31.3726        0.0759       37.8949       37.9708       6.598230       0.00000
  36     2.964       31.3619        0.0987       37.8614       37.9602       6.598230      -0.00000
  35     3.853       31.3479        0.1289       37.8172       37.9461       6.598230       0.00000
  34     5.035       31.3292        0.1688       37.7586       37.9274       6.598230       0.00000
  33     6.613       31.3042        0.2222       37.6803       37.9025       6.598230      -0.00000
  32     8.786       31.2707        0.2939       37.5750       37.8689       6.598230       0.00000
  31     11.80       31.2228        0.3962       37.4249       37.8210       6.598230      -0.00000
  30     15.07       31.1715        0.5056       37.2642       37.7698       6.598230       0.00000
  29     18.79       31.1138        0.6287       37.0833       37.7120       6.598230      -0.00000
  28     23.16       31.0466        0.7718       36.8730       37.6448       6.598230       0.00000
  27     28.12       30.9701        0.9346       36.6338       37.5684       6.598230      -0.00000
  26     33.73       30.8850        1.1155       36.3677       37.4832       6.598230       0.00000
  25     40.54       30.7827        1.3324       36.0486       37.3810       6.598230      -0.00000
  24     48.69       30.6604        1.5914       35.6672       37.2586       6.598230       0.00000
  23     57.69       30.5272        1.8728       35.2527       37.1255       6.598230      -0.00000
  22     68.43       30.3703        2.2036       34.7649       36.9685       6.598230       0.00000
  21     81.20       30.1856        2.5915       34.1922       36.7838       6.598230      -0.00000
  20     96.49       29.9687        3.0452       33.5217       36.5670       6.598230       0.00000
  19     114.6       29.7159        3.5718       32.7424       36.3142       6.598230       0.00000
  18     136.5       29.4226        4.1793       31.8416       36.0208       6.598230       0.00000
  17     162.9       29.0821        4.8796       30.8008       35.6804       6.598230      -0.00000
  16     196.4       28.6543        5.7518       29.5007       35.2525       6.598230       0.00000
  15     218.7       28.3815        6.3031       28.6767       34.9798       6.598230      -0.00000
  14     243.0       28.0921        6.8836       27.8068       34.6904       6.598230       0.00000
  13     269.0       27.7866        7.4915       26.8933       34.3848       6.598230      -0.00000
  12     297.5       27.4655        8.1244       25.9393       34.0637       6.598230       0.00000
  11     328.5       27.1286        8.7817       24.9451       33.7268       6.598230      -0.00000
  10     361.9       26.7771        9.4593       23.9160       33.3754       6.598230       0.00000
   9     398.1       26.4114       10.1555       22.8541       33.0096       6.598230       0.00000
   8     437.6       26.0324       10.8661       21.7645       32.6306       6.598230      -0.00000
   7     480.5       25.6412       11.5873       20.6521       32.2395       6.598230       0.00000
   6     533.0       25.1798       12.4211       19.3569       31.7780       6.598230      -0.00000
   5     589.8       24.7055       13.2570       18.0467       31.3038       6.598230      -0.00000
   4     651.6       24.2207       14.0874       16.7316       30.8190       6.598230       0.00000
   3     718.7       23.7275       14.9043       15.4214       30.3258       6.598230       0.00000
   2     792.3       23.2287       15.6994       14.1276       29.8270       6.598230       0.00000
   1     891.5       22.5995       16.6518       12.5459       29.1977       6.598230       0.00000
   0    1013.0       21.9035       17.6299       10.8717       28.5017       6.598230       0.00000



 Wavenumbers: 29000. - 38000. cm-1, ATM      1
 LEVEL PRESSURE   UPWARD FLUX   DIFDOWN FLUX  DIRDOWN FLUX  DOWNWARD FLUX   NET FLUX    HEATING RATE
          mb          W/m2          W/m2          W/m2        W/m2          W/m2       degree/day
  51    .06700        4.6315        0.0000       13.4026       13.4026       8.771077       0.00000
  50    .07753        4.6313        0.0003       13.3983       13.3986       8.767279       3.04415
  49    .09103        4.6310        0.0007       13.3921       13.3928       8.761760       3.44939
  48    0.1069        4.6307        0.0011       13.3840       13.3851       8.754384       3.92644
  47    0.1255        4.6304        0.0016       13.3733       13.3749       8.744540       4.46280
  46    0.1487        4.6299        0.0022       13.3579       13.3600       8.730099       5.26393
  45    0.1794        4.6294        0.0030       13.3340       13.3371       8.707701       6.14873
  44    0.2165        4.6287        0.0040       13.3024       13.3064       8.677685       6.82815
  43    0.2613        4.6279        0.0051       13.2604       13.2655       8.637634       7.54940
  42    0.3336        4.6267        0.0070       13.1833       13.1903       8.563635       8.62758
  41    0.4307        4.6251        0.0094       13.0729       13.0824       8.457274       9.24783
  40    0.5894        4.6227        0.0133       12.8796       12.8929       8.270253       9.94555
  39     1.339        4.6139        0.0295       11.9165       11.9460       7.332082      10.56210
  38     1.782        4.6104        0.0377       11.4399       11.4776       6.867243       8.84978
  37     2.292        4.6076        0.0465       10.9796       11.0261       6.418512       7.43217
  36     2.964        4.6057        0.0573       10.4786       10.5359       5.930198       6.12981
  35     3.853        4.6057        0.0707        9.9429       10.0136       5.407832       4.95735
  34     5.035        4.6082        0.0873        9.4007        9.4880       4.879820       3.77190
  33     6.613        4.6132        0.1084        8.8752        8.9836       4.370416       2.72328
  32     8.786        4.6202        0.1356        8.3786        8.5142       3.893960       1.85038
  31     11.80        4.6286        0.1729        7.8897        8.0626       3.433972       1.28782
  30     15.07        4.6355        0.2114        7.5108        7.7222       3.086673       0.89666
  29     18.79        4.6416        0.2532        7.1776        7.4309       2.789268       0.67431
  28     23.16        4.6467        0.3004        6.8664        7.1668       2.520089       0.52051
  27     28.12        4.6502        0.3525        6.5780        6.9305       2.280312       0.40760
  26     33.73        4.6497        0.4092        6.3195        6.7287       2.078985       0.30270
  25     40.54        4.6439        0.4761        6.0663        6.5424       1.898493       0.22392
  24     48.69        4.6321        0.5544        5.8128        6.3672       1.735153       0.16903
  23     57.69        4.6146        0.6379        5.5777        6.2156       1.600997       0.12575
  22     68.43        4.5889        0.7345        5.3379        6.0724       1.483454       0.09240
  21     81.20        4.5509        0.8465        5.0965        5.9430       1.392066       0.06039
  20     96.49        4.4993        0.9757        4.8476        5.8233       1.324088       0.03752
  19     114.6        4.4368        1.1220        4.5799        5.7018       1.264987       0.02760
  18     136.5        4.3645        1.2851        4.2891        5.5742       1.209668       0.02127
  17     162.9        4.2818        1.4657        3.9732        5.4388       1.157015       0.01683
  16     196.4        4.1773        1.6814        3.6080        5.2894       1.112096       0.01131
  15     218.7        4.1113        1.8123        3.3898        5.2021       1.090750       0.00810
  14     243.0        4.0426        1.9454        3.1686        5.1140       1.071417       0.00671
  13     269.0        3.9713        2.0796        2.9461        5.0257       1.054392       0.00552
  12     297.5        3.8980        2.2137        2.7239        4.9377       1.039690       0.00436
  11     328.5        3.8232        2.3463        2.5029        4.8492       1.025908       0.00375
  10     361.9        3.7476        2.4760        2.2846        4.7606       1.013065       0.00325
   9     398.1        3.6713        2.6017        2.0708        4.6725       1.001155       0.00277
   8     437.6        3.5949        2.7223        1.8626        4.5848       0.989921       0.00240
   7     480.5        3.5188        2.8361        1.6621        4.4982       0.979484       0.00205
   6     533.0        3.4323        2.9570        1.4437        4.4006       0.968367       0.00179
   5     589.8        3.3471        3.0660        1.2390        4.3049       0.957863       0.00156
   4     651.6        3.2637        3.1615        1.0500        4.2115       0.947831       0.00137
   3     718.7        3.1823        3.2427        0.8778        4.1205       0.938236       0.00121
   2     792.3        3.1032        3.3085        0.7237        4.0323       0.929059       0.00105
   1     891.5        3.0072        3.3689        0.5563        3.9252       0.918018       0.00094
   0    1013.0        2.9048        3.4070        0.4039        3.8110       0.906184       0.00082



 Wavenumbers: 38000. - 50000. cm-1, ATM      1
 LEVEL PRESSURE   UPWARD FLUX   DIFDOWN FLUX  DIRDOWN FLUX  DOWNWARD FLUX   NET FLUX    HEATING RATE
          mb          W/m2          W/m2          W/m2        W/m2          W/m2       degree/day
  51    .06700        0.0051        0.0000        0.8267        0.8267       0.821528       0.00000
  50    .07753        0.0051        0.0001        0.8242        0.8243       0.819196       1.86936
  49    .09103        0.0050        0.0002        0.8207        0.8209       0.815872       2.07705
  48    0.1069        0.0049        0.0002        0.8162        0.8164       0.811514       2.31984
  47    0.1255        0.0048        0.0004        0.8103        0.8106       0.805801       2.59006
  46    0.1487        0.0047        0.0005        0.8018        0.8023       0.797567       3.00143
  45    0.1794        0.0045        0.0007        0.7889        0.7896       0.785013       3.44648
  44    0.2165        0.0044        0.0009        0.7720        0.7729       0.768507       3.75474
  43    0.2613        0.0042        0.0011        0.7500        0.7511       0.746955       4.06246
  42    0.3336        0.0039        0.0015        0.7106        0.7121       0.708267       4.51071
  41    0.4307        0.0035        0.0019        0.6566        0.6584       0.654972       4.63387
  40    0.5894        0.0029        0.0024        0.5680        0.5704       0.567464       4.65357
  39     1.339        0.0015        0.0030        0.2422        0.2452       0.243720       3.64476
  38     1.782        0.0010        0.0026        0.1493        0.1519       0.150889       1.76735
  37     2.292        0.0007        0.0022        0.0924        0.0946       0.093932       0.94336
  36     2.964        0.0005        0.0018        0.0539        0.0557       0.055224       0.48589
  35     3.853        0.0003        0.0013        0.0295        0.0308       0.030502       0.23462
  34     5.035        0.0002        0.0010        0.0154        0.0164       0.016181       0.10230
  33     6.613        0.0001        0.0007        0.0073        0.0080       0.007912       0.04420
  32     8.786        0.0000        0.0004        0.0030        0.0034       0.003390       0.01756
  31     11.80        0.0000        0.0003        0.0010        0.0012       0.001199       0.00613
  30     15.07        0.0000        0.0001        0.0003        0.0005       0.000463       0.00190
  29     18.79        0.0000        0.0001        0.0001        0.0002       0.000182       0.00064
  28     23.16        0.0000        0.0000        0.0000        0.0001       0.000071       0.00022
  27     28.12        0.0000        0.0000        0.0000        0.0000       0.000028       0.00007
  26     33.73        0.0000        0.0000        0.0000        0.0000       0.000011       0.00002
  25     40.54        0.0000        0.0000        0.0000        0.0000       0.000005       0.00001
  24     48.69        0.0000        0.0000        0.0000        0.0000       0.000002       0.00000
  23     57.69        0.0000        0.0000        0.0000        0.0000       0.000001       0.00000
  22     68.43        0.0000        0.0000        0.0000        0.0000       0.000000       0.00000
  21     81.20        0.0000        0.0000        0.0000        0.0000       0.000000       0.00000
  20     96.49        0.0000        0.0000        0.0000        0.0000       0.000000       0.00000
  19     114.6        0.0000        0.0000        0.0000        0.0000       0.000000       0.00000
  18     136.5        0.0000        0.0000        0.0000        0.0000       0.000000       0.00000
  17     162.9        0.0000        0.0000        0.0000        0.0000       0.000000       0.00000
  16     196.4        0.0000        0.0000        0.0000        0.0000       0.000000       0.00000
  15     218.7        0.0000        0.0000        0.0000        0.0000       0.000000       0.00000
  14     243.0        0.0000        0.0000        0.0000        0.0000       0.000000       0.00000
  13     269.0        0.0000        0.0000        0.0000        0.0000       0.000000       0.00000
  12     297.5        0.0000        0.0000        0.0000        0.0000       0.000000       0.00000
  11     328.5        0.0000        0.0000        0.0000        0.0000       0.000000       0.00000
  10     361.9        0.0000        0.0000        0.0000        0.0000       0.000000       0.00000
   9     398.1        0.0000        0.0000        0.0000        0.0000       0.000000       0.00000
   8     437.6        0.0000        0.0000        0.0000        0.0000       0.000000       0.00000
   7     480.5        0.0000        0.0000        0.0000        0.0000       0.000000       0.00000
   6     533.0        0.0000        0.0000        0.0000        0.0000       0.000000       0.00000
   5     589.8        0.0000        0.0000        0.0000        0.0000       0.000000       0.00000
   4     651.6        0.0000        0.0000        0.0000        0.0000       0.000000       0.00000
   3     718.7        0.0000        0.0000        0.0000        0.0000       0.000000       0.00000
   2     792.3        0.0000        0.0000        0.0000        0.0000       0.000000       0.00000
   1     891.5        0.0000        0.0000        0.0000        0.0000       0.000000       0.00000
   0    1013.0        0.0000        0.0000        0.0000        0.0000       0.000000       0.00000



 Wavenumbers:   820. -  2600. cm-1, ATM      1
 LEVEL PRESSURE   UPWARD FLUX   DIFDOWN FLUX  DIRDOWN FLUX  DOWNWARD FLUX   NET FLUX    HEATING RATE
          mb          W/m2          W/m2          W/m2        W/m2          W/m2       degree/day
  51    .06700        0.1889        0.0000        3.8670        3.8670       3.678164       0.00000
  50    .07753        0.1889        0.0000        3.8643        3.8643       3.675447       2.17769
  49    .09103        0.1889        0.0000        3.8635        3.8635       3.674636       0.50638
  48    0.1069        0.1889        0.0000        3.8626        3.8626       3.673746       0.47415
  47    0.1255        0.1889        0.0000        3.8616        3.8616       3.672785       0.43559
  46    0.1487        0.1889        0.0000        3.8605        3.8605       3.671675       0.40437
  45    0.1794        0.1889        0.0000        3.8592        3.8592       3.670340       0.36648
  44    0.2165        0.1889        0.0000        3.8578        3.8578       3.668963       0.31346
  43    0.2613        0.1889        0.0000        3.8564        3.8564       3.667502       0.27522
  42    0.3336        0.1889        0.0000        3.8541        3.8541       3.665271       0.26012
  41    0.4307        0.1889        0.0000        3.8512        3.8512       3.662389       0.25063
  40    0.5894        0.1889        0.0000        3.8465        3.8465       3.657663       0.25134
  39     1.339        0.1889        0.0000        3.8251        3.8251       3.636288       0.24064
  38     1.782        0.1889        0.0000        3.8133        3.8133       3.624475       0.22489
  37     2.292        0.1889        0.0000        3.8003        3.8003       3.611414       0.21633
  36     2.964        0.1889        0.0000        3.7841        3.7841       3.595285       0.20246
  35     3.853        0.1889        0.0000        3.7642        3.7642       3.575371       0.18899
  34     5.035        0.1889        0.0000        3.7395        3.7395       3.550680       0.17638
  33     6.613        0.1889        0.0000        3.7090        3.7090       3.520144       0.16324
  32     8.786        0.1889        0.0000        3.6726        3.6726       3.483752       0.14134
  31     11.80        0.1889        0.0000        3.6320        3.6320       3.443158       0.11365
  30     15.07        0.1889        0.0000        3.6016        3.6016       3.412774       0.07844
  29     18.79        0.1889        0.0000        3.5777        3.5777       3.388877       0.05418
  28     23.16        0.1889        0.0000        3.5564        3.5564       3.367524       0.04129
  27     28.12        0.1889        0.0000        3.5348        3.5348       3.345978       0.03663
  26     33.73        0.1889        0.0000        3.5118        3.5118       3.322946       0.03463
  25     40.54        0.1889        0.0000        3.4849        3.4849       3.296059       0.03336
  24     48.69        0.1889        0.0000        3.4537        3.4537       3.264807       0.03234
  23     57.69        0.1889        0.0000        3.4210        3.4210       3.232135       0.03063
  22     68.43        0.1889        0.0000        3.3844        3.3844       3.195550       0.02876
  21     81.20        0.1889        0.0000        3.3441        3.3441       3.155251       0.02663
  20     96.49        0.1889        0.0000        3.2998        3.2998       3.110887       0.02449
  19     114.6        0.1889        0.0000        3.2506        3.2506       3.061739       0.02295
  18     136.5        0.1889        0.0000        3.1936        3.1936       3.004688       0.02194
  17     162.9        0.1889        0.0000        3.1181        3.1181       2.929181       0.02414
  16     196.4        0.1890        0.0000        3.0090        3.0090       2.819984       0.02749
  15     218.7        0.1890        0.0000        2.9420        2.9420       2.752972       0.02544
  14     243.0        0.1891        0.0000        2.8605        2.8605       2.671398       0.02829
  13     269.0        0.1892        0.0000        2.7419        2.7420       2.552795       0.03847
  12     297.5        0.1893        0.0000        2.5729        2.5729       2.383550       0.05020
  11     328.5        0.1896        0.0000        2.3602        2.3602       2.170596       0.05790
  10     361.9        0.1900        0.0000        2.1524        2.1524       1.962414       0.05267
   9     398.1        0.1906        0.0000        1.9974        1.9974       1.806803       0.03625
   8     437.6        0.1915        0.0000        1.8835        1.8835       1.692031       0.02454
   7     480.5        0.1928        0.0000        1.7734        1.7734       1.580688       0.02187
   6     533.0        0.1949        0.0000        1.6397        1.6398       1.444884       0.02185
   5     589.8        0.1979        0.0000        1.5068        1.5069       1.308904       0.02018
   4     651.6        0.2025        0.0000        1.3807        1.3807       1.178194       0.01788
   3     718.7        0.2086        0.0000        1.2680        1.2680       1.059428       0.01493
   2     792.3        0.2161        0.0000        1.1659        1.1660       0.949876       0.01256
   1     891.5        0.2287        0.0000        1.0372        1.0373       0.808577       0.01202
   0    1013.0        0.2516        0.0000        0.8716        0.8717       0.620111       0.01309

  Modules and versions used in this calculation:

       rrtmg_sw.1col.f90:  $Revision$                    rrtmg_sw_init.f90:  $Revision$        
     rrtmgsw_cldprop.f90:  $Revision$                  rrtmgsw_cldprmc.f90:  NOT USED          
     rrtmg_sw_reftra.f90:  $Revision$                  rrtmg_sw_spcvrt.f90:  NOT USED          
     rrtmg_sw_spcvmc.f90:  NOT USED                    rrtmgsw_setcoef.f90:  NOT USED          
     rrtmg_sw_taumol.f90:  $Revision$                  rrtmg_sw_vrtqdr.f90:  NOT USED          
                rrtatm.f:  NOT USED                             util_xxx.f:  NOT USED          
                 extra.f:  NOT USED                       rrtmg_sw_k_g.f90:  $Revision$        

