

 Wavenumbers:   820. - 50000. cm-1, ATM      1
 LEVEL PRESSURE   UPWARD FLUX   DIFDOWN FLUX  DIRDOWN FLUX  DOWNWARD FLUX   NET FLUX    HEATING RATE
          mb          W/m2          W/m2          W/m2        W/m2          W/m2       degree/day
  51    .06700      154.1988        0.0000      397.8738      397.8738     243.675031       0.00000
  50    .07753      154.1981        0.0011      397.8577      397.8589     243.660754      11.44347
  49    .09103      154.1973        0.0026      397.8418      397.8444     243.647085       8.54330
  48    0.1069      154.1964        0.0042      397.8230      397.8272     243.630763       8.68822
  47    0.1255      154.1954        0.0061      397.7997      397.8057     243.610355       9.25214
  46    0.1487      154.1941        0.0085      397.7676      397.7761     243.581947      10.35480
  45    0.1794      154.1925        0.0117      397.7205      397.7322     243.539733      11.58884
  44    0.2165      154.1906        0.0155      397.6602      397.6758     243.485190      12.40771
  43    0.2613      154.1884        0.0200      397.5829      397.6029     243.414534      13.31830
  42    0.3336      154.1849        0.0274      397.4449      397.4723     243.287362      14.82696
  41    0.4307      154.1806        0.0371      397.2524      397.2895     243.108894      15.51737
  40    0.5894      154.1741        0.0527      396.9253      396.9780     242.803939      16.21713
  39     1.339      154.1529        0.1223      395.4254      395.5476     241.394772      15.86467
  38     1.782      154.1468        0.1612      394.7288      394.8900     240.743229      12.40432
  37     2.292      154.1452        0.2055      394.0572      394.2627     240.117438      10.36474
  36     2.964      154.1514        0.2630      393.3007      393.5637     239.412287       8.85177
  35     3.853      154.1709        0.3382      392.4318      392.7700     238.599086       7.71743
  34     5.035      154.2079        0.4370      391.4441      391.8811     237.673136       6.61460
  33     6.613      154.2637        0.5679      390.3268      390.8946     236.630930       5.57164
  32     8.786      154.3347        0.7428      389.0624      389.8052     235.470562       4.50645
  31     11.80      154.4179        0.9911      387.5500      388.5411     234.123167       3.77228
  30     15.07      154.4858        1.2554      386.1556      387.4110     232.925197       3.09292
  29     18.79      154.5434        1.5515      384.7502      386.3017     231.758314       2.64568
  28     23.16      154.5886        1.8945      383.2686      385.1631     230.574477       2.28916
  27     28.12      154.6146        2.2833      381.7329      384.0162     229.401616       1.99379
  26     33.73      154.6058        2.7152      380.1982      382.9133     228.307574       1.64492
  25     40.54      154.5512        3.2328      378.5384      381.7712     227.220064       1.34918
  24     48.69      154.4435        3.8512      376.7214      380.5726     226.129133       1.12894
  23     57.69      154.2852        4.5237      374.8959      379.4196     225.134372       0.93244
  22     68.43      154.0539        5.3161      372.8999      378.2160     224.162127       0.76431
  21     81.20      153.7191        6.2495      370.7496      376.9991     223.280026       0.58288
  20     96.49      153.2673        7.3470      368.4056      375.7526     222.485244       0.43866
  19     114.6      152.7146        8.6277      365.7513      374.3790     221.664357       0.38330
  18     136.5      152.0507       10.1138      362.7231      372.8369     220.786249       0.33765
  17     162.9      151.2576       11.8394      359.1748      371.0142     219.756584       0.32912
  16     196.4      150.2131       14.0121      354.5718      368.5839     218.370885       0.34880
  15     218.7      149.5270       15.4000      351.4437      366.8436     217.316619       0.40027
  14     243.0      148.7875       16.8745      347.7111      364.5857     215.798194       0.52664
  13     269.0      147.9941       18.4336      342.9441      361.3778     213.383683       0.78326
  12     297.5      147.1476       20.0749      337.4137      357.4886     210.341025       0.90242
  11     328.5      146.2501       21.7993      331.1302      352.9295     206.679439       0.99557
  10     361.9      145.3046       23.6011      324.1219      347.7230     202.418411       1.07808
   9     398.1      144.3118       25.4791      316.6066      342.0856     197.773848       1.08208
   8     437.6      143.2766       27.4282      308.5895      336.0177     192.741124       1.07603
   7     480.5      142.2065       29.4422      299.9349      329.3771     187.170616       1.09403
   6     533.0      140.9472       31.8212      289.7021      321.5233     180.576107       1.06085
   5     589.8      139.6637       34.2687      279.3388      313.6075     173.943816       0.98445
   4     651.6      138.3765       36.7719      268.7786      305.5506     167.174029       0.92579
   3     718.7      137.0972       39.3210      258.2837      297.6046     160.507442       0.83781
   2     792.3      135.8401       41.9009      248.0774      289.9783     154.138230       0.73048
   1     891.5      134.3501       45.1542      235.5216      280.6758     146.325640       0.66481
   0    1013.0      132.9830       48.7353      221.4731      270.2084     137.225430       0.63187



 Wavenumbers:  2600. -  3250. cm-1, ATM      1
 LEVEL PRESSURE   UPWARD FLUX   DIFDOWN FLUX  DIRDOWN FLUX  DOWNWARD FLUX   NET FLUX    HEATING RATE
          mb          W/m2          W/m2          W/m2        W/m2          W/m2       degree/day
  51    .06700        0.2237        0.0000        3.5066        3.5066       3.282877       0.00000
  50    .07753        0.2237        0.0000        3.5066        3.5066       3.282869       0.00640
  49    .09103        0.2237        0.0000        3.5066        3.5066       3.282859       0.00627
  48    0.1069        0.2237        0.0000        3.5066        3.5066       3.282847       0.00613
  47    0.1255        0.2237        0.0000        3.5066        3.5066       3.282834       0.00599
  46    0.1487        0.2237        0.0000        3.5066        3.5066       3.282818       0.00607
  45    0.1794        0.2237        0.0000        3.5065        3.5065       3.282795       0.00624
  44    0.2165        0.2237        0.0000        3.5065        3.5065       3.282768       0.00611
  43    0.2613        0.2237        0.0000        3.5065        3.5065       3.282736       0.00598
  42    0.3336        0.2237        0.0000        3.5064        3.5064       3.282683       0.00615
  41    0.4307        0.2237        0.0000        3.5064        3.5064       3.282612       0.00618
  40    0.5894        0.2237        0.0000        3.5062        3.5062       3.282493       0.00633
  39     1.339        0.2237        0.0000        3.5055        3.5055       3.281795       0.00787
  38     1.782        0.2237        0.0000        3.5050        3.5050       3.281264       0.01011
  37     2.292        0.2237        0.0000        3.5043        3.5043       3.280571       0.01147
  36     2.964        0.2237        0.0000        3.5033        3.5033       3.279580       0.01245
  35     3.853        0.2237        0.0000        3.5019        3.5019       3.278203       0.01307
  34     5.035        0.2237        0.0000        3.5001        3.5001       3.276342       0.01329
  33     6.613        0.2237        0.0000        3.4977        3.4977       3.273932       0.01288
  32     8.786        0.2237        0.0000        3.4947        3.4947       3.270961       0.01154
  31     11.80        0.2237        0.0000        3.4911        3.4911       3.267326       0.01018
  30     15.07        0.2237        0.0000        3.4878        3.4878       3.264105       0.00832
  29     18.79        0.2237        0.0000        3.4848        3.4848       3.261042       0.00695
  28     23.16        0.2237        0.0000        3.4816        3.4816       3.257822       0.00623
  27     28.12        0.2237        0.0000        3.4779        3.4779       3.254204       0.00615
  26     33.73        0.2237        0.0000        3.4735        3.4735       3.249738       0.00671
  25     40.54        0.2237        0.0000        3.4671        3.4671       3.243413       0.00785
  24     48.69        0.2237        0.0000        3.4582        3.4583       3.234518       0.00920
  23     57.69        0.2237        0.0000        3.4472        3.4472       3.223471       0.01036
  22     68.43        0.2237        0.0000        3.4329        3.4329       3.209212       0.01121
  21     81.20        0.2237        0.0000        3.4152        3.4152       3.191485       0.01171
  20     96.49        0.2237        0.0000        3.3940        3.3941       3.170343       0.01167
  19     114.6        0.2237        0.0000        3.3692        3.3692       3.145456       0.01162
  18     136.5        0.2238        0.0001        3.3419        3.3420       3.118242       0.01046
  17     162.9        0.2238        0.0001        3.3129        3.3129       3.089172       0.00929
  16     196.4        0.2238        0.0001        3.2793        3.2794       3.055606       0.00845
  15     218.7        0.2238        0.0001        3.2578        3.2578       3.033995       0.00820
  14     243.0        0.2239        0.0001        3.2320        3.2320       3.008132       0.00897
  13     269.0        0.2240        0.0001        3.1968        3.1969       2.972897       0.01143
  12     297.5        0.2242        0.0001        3.1489        3.1490       2.924835       0.01425
  11     328.5        0.2245        0.0001        3.0821        3.0822       2.857683       0.01826
  10     361.9        0.2249        0.0001        2.9902        2.9904       2.765463       0.02333
   9     398.1        0.2255        0.0001        2.8715        2.8716       2.646147       0.02780
   8     437.6        0.2263        0.0001        2.7276        2.7278       2.501501       0.03093
   7     480.5        0.2275        0.0001        2.5595        2.5597       2.332175       0.03326
   6     533.0        0.2295        0.0001        2.3617        2.3619       2.132414       0.03214
   5     589.8        0.2323        0.0002        2.1649        2.1651       1.932744       0.02964
   4     651.6        0.2365        0.0002        1.9608        1.9609       1.724465       0.02848
   3     718.7        0.2421        0.0002        1.7593        1.7595       1.517416       0.02602
   2     792.3        0.2494        0.0002        1.5761        1.5762       1.326822       0.02186
   1     891.5        0.2620        0.0002        1.3714        1.3716       1.109607       0.01848
   0    1013.0        0.2847        0.0002        1.1584        1.1586       0.873817       0.01637



 Wavenumbers:  3250. -  4000. cm-1, ATM      1
 LEVEL PRESSURE   UPWARD FLUX   DIFDOWN FLUX  DIRDOWN FLUX  DOWNWARD FLUX   NET FLUX    HEATING RATE
          mb          W/m2          W/m2          W/m2        W/m2          W/m2       degree/day
  51    .06700        0.0004        0.0000        5.9117        5.9117       5.911216       0.00000
  50    .07753        0.0004        0.0000        5.9075        5.9075       5.907026       3.35808
  49    .09103        0.0004        0.0000        5.9050        5.9050       5.904584       1.52677
  48    0.1069        0.0004        0.0000        5.9032        5.9032       5.902717       0.99346
  47    0.1255        0.0004        0.0000        5.9014        5.9014       5.900959       0.79708
  46    0.1487        0.0004        0.0000        5.8995        5.8995       5.899070       0.68848
  45    0.1794        0.0004        0.0000        5.8974        5.8974       5.896922       0.58983
  44    0.2165        0.0004        0.0000        5.8952        5.8952       5.894805       0.48155
  43    0.2613        0.0004        0.0000        5.8931        5.8931       5.892646       0.40696
  42    0.3336        0.0004        0.0000        5.8899        5.8899       5.889488       0.36820
  41    0.4307        0.0004        0.0000        5.8861        5.8861       5.885651       0.33365
  40    0.5894        0.0004        0.0000        5.8803        5.8803       5.879848       0.30857
  39     1.339        0.0004        0.0000        5.8597        5.8597       5.859251       0.23189
  38     1.782        0.0004        0.0000        5.8513        5.8513       5.850826       0.16039
  37     2.292        0.0004        0.0000        5.8431        5.8431       5.842655       0.13533
  36     2.964        0.0004        0.0000        5.8334        5.8334       5.833015       0.12100
  35     3.853        0.0004        0.0000        5.8213        5.8213       5.820840       0.11555
  34     5.035        0.0004        0.0000        5.8052        5.8052       5.804745       0.11498
  33     6.613        0.0004        0.0000        5.7833        5.7834       5.782923       0.11666
  32     8.786        0.0004        0.0000        5.7531        5.7531       5.752722       0.11729
  31     11.80        0.0004        0.0000        5.7090        5.7090       5.708553       0.12366
  30     15.07        0.0004        0.0000        5.6615        5.6615       5.661088       0.12254
  29     18.79        0.0004        0.0000        5.6093        5.6094       5.608953       0.11821
  28     23.16        0.0004        0.0000        5.5524        5.5524       5.552027       0.11008
  27     28.12        0.0004        0.0000        5.4935        5.4935       5.493148       0.10009
  26     33.73        0.0004        0.0000        5.4348        5.4349       5.434459       0.08824
  25     40.54        0.0004        0.0001        5.3707        5.3708       5.370398       0.07948
  24     48.69        0.0004        0.0001        5.2985        5.2985       5.298165       0.07475
  23     57.69        0.0004        0.0001        5.2215        5.2216       5.221226       0.07212
  22     68.43        0.0003        0.0001        5.1318        5.1319       5.131566       0.07048
  21     81.20        0.0003        0.0001        5.0284        5.0285       5.028136       0.06834
  20     96.49        0.0003        0.0001        4.9122        4.9123       4.912002       0.06410
  19     114.6        0.0003        0.0001        4.7780        4.7782       4.777891       0.06262
  18     136.5        0.0003        0.0002        4.6285        4.6287       4.628413       0.05748
  17     162.9        0.0002        0.0002        4.4406        4.4407       4.440500       0.06006
  16     196.4        0.0002        0.0002        4.1548        4.1550       4.154827       0.07191
  15     218.7        0.0002        0.0002        3.9564        3.9566       3.956446       0.07532
  14     243.0        0.0002        0.0002        3.7055        3.7058       3.705612       0.08700
  13     269.0        0.0001        0.0002        3.3399        3.3401       3.339973       0.11861
  12     297.5        0.0001        0.0002        2.8954        2.8956       2.895483       0.13183
  11     328.5        0.0001        0.0002        2.4388        2.4390       2.438942       0.12413
  10     361.9        0.0001        0.0002        2.0269        2.0271       2.027003       0.10422
   9     398.1        0.0001        0.0002        1.6753        1.6755       1.675415       0.08191
   8     437.6        0.0001        0.0002        1.3592        1.3594       1.359296       0.06759
   7     480.5        0.0001        0.0002        1.0616        1.0618       1.061713       0.05844
   6     533.0        0.0001        0.0001        0.7543        0.7544       0.754377       0.04944
   5     589.8        0.0001        0.0001        0.4951        0.4952       0.495181       0.03847
   4     651.6        0.0001        0.0001        0.2943        0.2943       0.294278       0.02747
   3     718.7        0.0001        0.0001        0.1528        0.1529       0.152770       0.01778
   2     792.3        0.0001        0.0000        0.0658        0.0658       0.065710       0.00998
   1     891.5        0.0003        0.0000        0.0157        0.0157       0.015360       0.00428
   0    1013.0        0.0013        0.0000        0.0013        0.0013       0.000051       0.00106



 Wavenumbers:  4000. -  4650. cm-1, ATM      1
 LEVEL PRESSURE   UPWARD FLUX   DIFDOWN FLUX  DIRDOWN FLUX  DOWNWARD FLUX   NET FLUX    HEATING RATE
          mb          W/m2          W/m2          W/m2        W/m2          W/m2       degree/day
  51    .06700        0.6297        0.0000        6.9421        6.9421       6.312330       0.00000
  50    .07753        0.6297        0.0000        6.9421        6.9421       6.312329       0.00079
  49    .09103        0.6297        0.0000        6.9421        6.9421       6.312328       0.00078
  48    0.1069        0.6297        0.0000        6.9421        6.9421       6.312326       0.00076
  47    0.1255        0.6297        0.0000        6.9421        6.9421       6.312325       0.00074
  46    0.1487        0.6297        0.0000        6.9421        6.9421       6.312323       0.00075
  45    0.1794        0.6297        0.0000        6.9421        6.9421       6.312320       0.00077
  44    0.2165        0.6297        0.0000        6.9421        6.9421       6.312317       0.00076
  43    0.2613        0.6297        0.0000        6.9420        6.9420       6.312313       0.00074
  42    0.3336        0.6297        0.0000        6.9420        6.9420       6.312306       0.00076
  41    0.4307        0.6297        0.0000        6.9420        6.9420       6.312297       0.00077
  40    0.5894        0.6297        0.0000        6.9420        6.9420       6.312282       0.00079
  39     1.339        0.6297        0.0000        6.9419        6.9419       6.312194       0.00100
  38     1.782        0.6297        0.0000        6.9418        6.9419       6.312124       0.00132
  37     2.292        0.6297        0.0000        6.9418        6.9418       6.312031       0.00155
  36     2.964        0.6297        0.0000        6.9416        6.9416       6.311891       0.00175
  35     3.853        0.6297        0.0000        6.9414        6.9414       6.311685       0.00196
  34     5.035        0.6297        0.0000        6.9411        6.9411       6.311380       0.00218
  33     6.613        0.6297        0.0000        6.9406        6.9406       6.310933       0.00239
  32     8.786        0.6297        0.0000        6.9399        6.9400       6.310273       0.00256
  31     11.80        0.6297        0.0000        6.9389        6.9389       6.309239       0.00290
  30     15.07        0.6297        0.0001        6.9377        6.9377       6.308029       0.00312
  29     18.79        0.6297        0.0001        6.9362        6.9362       6.306572       0.00330
  28     23.16        0.6297        0.0001        6.9343        6.9344       6.304770       0.00348
  27     28.12        0.6296        0.0001        6.9321        6.9322       6.302599       0.00369
  26     33.73        0.6296        0.0001        6.9294        6.9296       6.299935       0.00400
  25     40.54        0.6296        0.0001        6.9258        6.9260       6.296344       0.00445
  24     48.69        0.6296        0.0002        6.9210        6.9212       6.291593       0.00492
  23     57.69        0.6296        0.0002        6.9154        6.9156       6.286005       0.00524
  22     68.43        0.6295        0.0002        6.9083        6.9086       6.279061       0.00546
  21     81.20        0.6295        0.0003        6.8998        6.9001       6.270575       0.00561
  20     96.49        0.6295        0.0004        6.8894        6.8898       6.260331       0.00565
  19     114.6        0.6294        0.0004        6.8765        6.8770       6.247518       0.00598
  18     136.5        0.6294        0.0005        6.8610        6.8615       6.232074       0.00594
  17     162.9        0.6294        0.0006        6.8417        6.8423       6.212886       0.00613
  16     196.4        0.6294        0.0007        6.8147        6.8154       6.186009       0.00677
  15     218.7        0.6294        0.0008        6.7948        6.7956       6.166242       0.00751
  14     243.0        0.6295        0.0009        6.7698        6.7707       6.141201       0.00868
  13     269.0        0.6296        0.0010        6.7349        6.7358       6.106224       0.01135
  12     297.5        0.6298        0.0011        6.6869        6.6879       6.058079       0.01428
  11     328.5        0.6302        0.0012        6.6194        6.6205       5.990319       0.01842
  10     361.9        0.6307        0.0013        6.5295        6.5307       5.900000       0.02285
   9     398.1        0.6314        0.0014        6.4202        6.4216       5.790167       0.02559
   8     437.6        0.6323        0.0015        6.2962        6.2977       5.665307       0.02670
   7     480.5        0.6336        0.0016        6.1555        6.1571       5.523458       0.02786
   6     533.0        0.6357        0.0017        5.9675        5.9693       5.333543       0.03055
   5     589.8        0.6388        0.0019        5.7368        5.7386       5.099852       0.03469
   4     651.6        0.6432        0.0020        5.4662        5.4682       4.825015       0.03758
   3     718.7        0.6493        0.0021        5.1912        5.1933       4.544007       0.03531
   2     792.3        0.6571        0.0022        4.9395        4.9417       4.284553       0.02976
   1     891.5        0.6706        0.0024        4.6486        4.6510       3.980358       0.02589
   0    1013.0        0.6949        0.0025        4.3179        4.3204       3.625519       0.02464



 Wavenumbers:  4650. -  5150. cm-1, ATM      1
 LEVEL PRESSURE   UPWARD FLUX   DIFDOWN FLUX  DIRDOWN FLUX  DOWNWARD FLUX   NET FLUX    HEATING RATE
          mb          W/m2          W/m2          W/m2        W/m2          W/m2       degree/day
  51    .06700        0.4410        0.0000        6.5710        6.5710       6.130036       0.00000
  50    .07753        0.4410        0.0000        6.5708        6.5708       6.129801       0.18887
  49    .09103        0.4410        0.0000        6.5705        6.5705       6.129507       0.18362
  48    0.1069        0.4410        0.0000        6.5701        6.5701       6.129172       0.17806
  47    0.1255        0.4410        0.0000        6.5697        6.5697       6.128792       0.17238
  46    0.1487        0.4410        0.0000        6.5693        6.5693       6.128318       0.17268
  45    0.1794        0.4410        0.0000        6.5686        6.5686       6.127682       0.17473
  44    0.2165        0.4410        0.0000        6.5679        6.5679       6.126944       0.16788
  43    0.2613        0.4410        0.0000        6.5670        6.5670       6.126091       0.16078
  42    0.3336        0.4410        0.0000        6.5657        6.5657       6.124728       0.15894
  41    0.4307        0.4410        0.0000        6.5640        6.5640       6.123006       0.14971
  40    0.5894        0.4410        0.0000        6.5613        6.5613       6.120390       0.13913
  39     1.339        0.4410        0.0000        6.5516        6.5516       6.110612       0.11008
  38     1.782        0.4409        0.0000        6.5473        6.5473       6.106396       0.08026
  37     2.292        0.4409        0.0000        6.5434        6.5435       6.102509       0.06438
  36     2.964        0.4409        0.0000        6.5395        6.5395       6.098555       0.04964
  35     3.853        0.4409        0.0000        6.5355        6.5356       6.094612       0.03742
  34     5.035        0.4409        0.0000        6.5315        6.5315       6.090611       0.02859
  33     6.613        0.4409        0.0000        6.5271        6.5271       6.086217       0.02349
  32     8.786        0.4409        0.0000        6.5216        6.5216       6.080723       0.02134
  31     11.80        0.4409        0.0001        6.5135        6.5135       6.072645       0.02261
  30     15.07        0.4409        0.0001        6.5041        6.5042       6.063279       0.02418
  29     18.79        0.4409        0.0001        6.4925        6.4926       6.051766       0.02610
  28     23.16        0.4408        0.0001        6.4779        6.4780       6.037178       0.02821
  27     28.12        0.4408        0.0002        6.4599        6.4600       6.019208       0.03055
  26     33.73        0.4408        0.0002        6.4384        6.4386       5.997784       0.03221
  25     40.54        0.4408        0.0002        6.4112        6.4114       5.970670       0.03364
  24     48.69        0.4407        0.0003        6.3775        6.3778       5.937049       0.03479
  23     57.69        0.4407        0.0003        6.3404        6.3407       5.899977       0.03475
  22     68.43        0.4407        0.0004        6.2971        6.2975       5.856816       0.03393
  21     81.20        0.4407        0.0004        6.2483        6.2487       5.808042       0.03223
  20     96.49        0.4406        0.0005        6.1948        6.1953       5.754727       0.02943
  19     114.6        0.4406        0.0006        6.1381        6.1388       5.698169       0.02641
  18     136.5        0.4406        0.0007        6.0790        6.0797       5.639167       0.02269
  17     162.9        0.4405        0.0009        6.0160        6.0169       5.576355       0.02008
  16     196.4        0.4406        0.0010        5.9399        5.9409       5.500339       0.01913
  15     218.7        0.4406        0.0011        5.8896        5.8908       5.450180       0.01904
  14     243.0        0.4406        0.0012        5.8322        5.8334       5.392779       0.01991
  13     269.0        0.4408        0.0014        5.7624        5.7638       5.322983       0.02264
  12     297.5        0.4410        0.0015        5.6767        5.6782       5.237206       0.02544
  11     328.5        0.4414        0.0016        5.5726        5.5742       5.132842       0.02838
  10     361.9        0.4419        0.0018        5.4473        5.4491       5.007190       0.03179
   9     398.1        0.4426        0.0019        5.2995        5.3014       4.858745       0.03458
   8     437.6        0.4437        0.0020        5.1275        5.1295       4.685839       0.03697
   7     480.5        0.4451        0.0022        4.9290        4.9311       4.486046       0.03924
   6     533.0        0.4474        0.0023        4.6794        4.6817       4.234304       0.04050
   5     589.8        0.4506        0.0024        4.4188        4.4212       3.970610       0.03914
   4     651.6        0.4552        0.0025        4.1521        4.1546       3.699472       0.03708
   3     718.7        0.4613        0.0027        3.8929        3.8956       3.434332       0.03332
   2     792.3        0.4692        0.0028        3.6469        3.6496       3.180439       0.02912
   1     891.5        0.4828        0.0029        3.3535        3.3564       2.873609       0.02611
   0    1013.0        0.5061        0.0030        3.0383        3.0414       2.535312       0.02349



 Wavenumbers:  5150. -  6150. cm-1, ATM      1
 LEVEL PRESSURE   UPWARD FLUX   DIFDOWN FLUX  DIRDOWN FLUX  DOWNWARD FLUX   NET FLUX    HEATING RATE
          mb          W/m2          W/m2          W/m2        W/m2          W/m2       degree/day
  51    .06700        1.2368        0.0000       16.4735       16.4735      15.236726       0.00000
  50    .07753        1.2368        0.0000       16.4735       16.4735      15.236692       0.02761
  49    .09103        1.2368        0.0000       16.4734       16.4734      15.236647       0.02810
  48    0.1069        1.2368        0.0000       16.4734       16.4734      15.236593       0.02859
  47    0.1255        1.2368        0.0000       16.4733       16.4733      15.236529       0.02904
  46    0.1487        1.2368        0.0000       16.4732       16.4732      15.236445       0.03059
  45    0.1794        1.2368        0.0000       16.4731       16.4731      15.236326       0.03269
  44    0.2165        1.2368        0.0000       16.4730       16.4730      15.236180       0.03331
  43    0.2613        1.2368        0.0000       16.4728       16.4728      15.236001       0.03376
  42    0.3336        1.2368        0.0000       16.4725       16.4725      15.235695       0.03564
  41    0.4307        1.2368        0.0000       16.4720       16.4720      15.235276       0.03645
  40    0.5894        1.2368        0.0000       16.4713       16.4713      15.234575       0.03728
  39     1.339        1.2368        0.0000       16.4679       16.4679      15.231166       0.03837
  38     1.782        1.2367        0.0000       16.4659       16.4659      15.229167       0.03806
  37     2.292        1.2367        0.0001       16.4635       16.4636      15.226876       0.03795
  36     2.964        1.2367        0.0001       16.4605       16.4606      15.223907       0.03727
  35     3.853        1.2367        0.0001       16.4567       16.4567      15.220054       0.03656
  34     5.035        1.2367        0.0001       16.4516       16.4517      15.215058       0.03569
  33     6.613        1.2366        0.0002       16.4451       16.4452      15.208599       0.03453
  32     8.786        1.2366        0.0002       16.4367       16.4369      15.200288       0.03227
  31     11.80        1.2365        0.0003       16.4254       16.4257      15.189140       0.03121
  30     15.07        1.2365        0.0004       16.4141       16.4145      15.178056       0.02862
  29     18.79        1.2364        0.0005       16.4024       16.4029      15.166539       0.02611
  28     23.16        1.2363        0.0006       16.3900       16.3906      15.154282       0.02370
  27     28.12        1.2362        0.0007       16.3771       16.3778      15.141624       0.02152
  26     33.73        1.2361        0.0009       16.3641       16.3650      15.128905       0.01912
  25     40.54        1.2359        0.0010       16.3502       16.3512      15.115275       0.01691
  24     48.69        1.2358        0.0012       16.3354       16.3366      15.100815       0.01496
  23     57.69        1.2356        0.0015       16.3211       16.3225      15.086933       0.01301
  22     68.43        1.2354        0.0017       16.3062       16.3080      15.072567       0.01129
  21     81.20        1.2352        0.0021       16.2903       16.2924      15.057203       0.01015
  20     96.49        1.2349        0.0024       16.2726       16.2751      15.040164       0.00940
  19     114.6        1.2346        0.0029       16.2521       16.2550      15.020394       0.00923
  18     136.5        1.2342        0.0034       16.2245       16.2280      14.993786       0.01023
  17     162.9        1.2338        0.0041       16.1747       16.1788      14.945068       0.01557
  16     196.4        1.2332        0.0049       16.0518       16.0568      14.823554       0.03059
  15     218.7        1.2328        0.0054       15.8984       15.9038      14.670966       0.05793
  14     243.0        1.2325        0.0060       15.6153       15.6212      14.388733       0.09789
  13     269.0        1.2321        0.0064       15.1390       15.1454      13.913308       0.15423
  12     297.5        1.2318        0.0069       14.5779       14.5848      13.352993       0.16618
  11     328.5        1.2316        0.0073       13.8780       13.8854      12.653808       0.19011
  10     361.9        1.2314        0.0077       13.0814       13.0892      11.857758       0.20141
   9     398.1        1.2314        0.0080       12.2728       12.2809      11.049505       0.18830
   8     437.6        1.2316        0.0083       11.4776       11.4859      10.254330       0.17001
   7     480.5        1.2321        0.0086       10.7300       10.7385       9.506471       0.14688
   6     533.0        1.2332        0.0089       10.0326       10.0415       8.808284       0.11232
   5     589.8        1.2352        0.0093        9.5050        9.5143       8.279115       0.07855
   4     651.6        1.2385        0.0098        9.0814        9.0912       7.852656       0.05832
   3     718.7        1.2435        0.0104        8.7024        8.7128       7.469360       0.04817
   2     792.3        1.2503        0.0110        8.3379        8.3490       7.098656       0.04252
   1     891.5        1.2632        0.0119        7.9064        7.9182       6.655027       0.03775
   0    1013.0        1.2900        0.0128        7.4741        7.4869       6.196831       0.03181



 Wavenumbers:  6150. -  7700. cm-1, ATM      1
 LEVEL PRESSURE   UPWARD FLUX   DIFDOWN FLUX  DIRDOWN FLUX  DOWNWARD FLUX   NET FLUX    HEATING RATE
          mb          W/m2          W/m2          W/m2        W/m2          W/m2       degree/day
  51    .06700        1.8640        0.0000       30.4684       30.4684      28.604366       0.00000
  50    .07753        1.8640        0.0000       30.4683       30.4683      28.604314       0.04144
  49    .09103        1.8640        0.0000       30.4683       30.4683      28.604247       0.04174
  48    0.1069        1.8640        0.0000       30.4682       30.4682      28.604169       0.04202
  47    0.1255        1.8640        0.0000       30.4681       30.4681      28.604075       0.04227
  46    0.1487        1.8640        0.0000       30.4680       30.4680      28.603954       0.04411
  45    0.1794        1.8640        0.0000       30.4678       30.4678      28.603784       0.04669
  44    0.2165        1.8640        0.0000       30.4676       30.4676      28.603577       0.04715
  43    0.2613        1.8640        0.0000       30.4673       30.4673      28.603325       0.04744
  42    0.3336        1.8640        0.0000       30.4669       30.4669      28.602899       0.04974
  41    0.4307        1.8640        0.0000       30.4663       30.4663      28.602318       0.05052
  40    0.5894        1.8640        0.0001       30.4653       30.4653      28.601350       0.05146
  39     1.339        1.8639        0.0001       30.4604       30.4606      28.596666       0.05273
  38     1.782        1.8638        0.0002       30.4576       30.4578      28.593917       0.05235
  37     2.292        1.8638        0.0002       30.4543       30.4545      28.590758       0.05231
  36     2.964        1.8637        0.0003       30.4501       30.4504      28.586651       0.05156
  35     3.853        1.8636        0.0004       30.4445       30.4449      28.581294       0.05084
  34     5.035        1.8635        0.0005       30.4373       30.4378      28.574294       0.05000
  33     6.613        1.8634        0.0007       30.4278       30.4285      28.565146       0.04890
  32     8.786        1.8631        0.0009       30.4154       30.4163      28.553194       0.04642
  31     11.80        1.8628        0.0013       30.3984       30.3996      28.536808       0.04587
  30     15.07        1.8625        0.0016       30.3810       30.3826      28.520095       0.04315
  29     18.79        1.8621        0.0020       30.3623       30.3643      28.502194       0.04059
  28     23.16        1.8617        0.0025       30.3417       30.3442      28.482512       0.03806
  27     28.12        1.8612        0.0030       30.3196       30.3226      28.461412       0.03587
  26     33.73        1.8606        0.0036       30.2965       30.3001      28.439494       0.03295
  25     40.54        1.8599        0.0043       30.2708       30.2751      28.415157       0.03019
  24     48.69        1.8591        0.0052       30.2423       30.2475      28.388381       0.02771
  23     57.69        1.8582        0.0062       30.2139       30.2200      28.361816       0.02490
  22     68.43        1.8571        0.0073       30.1834       30.1907      28.333542       0.02223
  21     81.20        1.8558        0.0087       30.1500       30.1587      28.302815       0.02030
  20     96.49        1.8543        0.0103       30.1126       30.1229      28.268599       0.01888
  19     114.6        1.8525        0.0122       30.0695       30.0817      28.229216       0.01839
  18     136.5        1.8503        0.0145       30.0139       30.0284      28.178066       0.01967
  17     162.9        1.8478        0.0172       29.9225       29.9397      28.091897       0.02754
  16     196.4        1.8445        0.0206       29.7333       29.7540      27.909529       0.04590
  15     218.7        1.8423        0.0229       29.5259       29.5487      27.706420       0.07711
  14     243.0        1.8400        0.0252       29.1375       29.1626      27.322629       0.13311
  13     269.0        1.8377        0.0274       28.3800       28.4074      26.569727       0.24424
  12     297.5        1.8353        0.0294       27.3895       27.4190      25.583696       0.29245
  11     328.5        1.8330        0.0314       26.2257       26.2571      24.424108       0.31529
  10     361.9        1.8308        0.0331       24.8453       24.8785      23.047626       0.34826
   9     398.1        1.8290        0.0346       23.3471       23.3817      21.552687       0.34829
   8     437.6        1.8277        0.0359       21.7966       21.8325      20.004823       0.33094
   7     480.5        1.8272        0.0368       20.1977       20.2345      18.407255       0.31376
   6     533.0        1.8284        0.0377       18.4969       18.5346      16.706211       0.27364
   5     589.8        1.8321        0.0386       16.9754       17.0140      15.181838       0.22627
   4     651.6        1.8398        0.0395       15.6022       15.6416      13.801849       0.18872
   3     718.7        1.8522        0.0405       14.4232       14.4637      12.611435       0.14960
   2     792.3        1.8703        0.0417       13.4386       13.4803      11.610019       0.11485
   1     891.5        1.9050        0.0435       12.3736       12.4171      10.512107       0.09343
   0    1013.0        1.9765        0.0454       11.2911       11.3365       9.360046       0.07999



 Wavenumbers:  7700. -  8050. cm-1, ATM      1
 LEVEL PRESSURE   UPWARD FLUX   DIFDOWN FLUX  DIRDOWN FLUX  DOWNWARD FLUX   NET FLUX    HEATING RATE
          mb          W/m2          W/m2          W/m2        W/m2          W/m2       degree/day
  51    .06700        0.9894        0.0000        7.2006        7.2006       6.211217       0.00000
  50    .07753        0.9894        0.0000        7.2006        7.2006       6.211199       0.01472
  49    .09103        0.9894        0.0000        7.2005        7.2005       6.211176       0.01442
  48    0.1069        0.9894        0.0000        7.2005        7.2005       6.211149       0.01412
  47    0.1255        0.9894        0.0000        7.2005        7.2005       6.211119       0.01382
  46    0.1487        0.9894        0.0000        7.2004        7.2005       6.211080       0.01402
  45    0.1794        0.9894        0.0000        7.2004        7.2004       6.211028       0.01443
  44    0.2165        0.9894        0.0000        7.2003        7.2003       6.210965       0.01415
  43    0.2613        0.9894        0.0000        7.2003        7.2003       6.210892       0.01389
  42    0.3336        0.9894        0.0000        7.2001        7.2001       6.210770       0.01421
  41    0.4307        0.9894        0.0000        7.2000        7.2000       6.210608       0.01405
  40    0.5894        0.9894        0.0000        7.1997        7.1997       6.210344       0.01403
  39     1.339        0.9894        0.0001        7.1984        7.1985       6.209096       0.01405
  38     1.782        0.9894        0.0001        7.1977        7.1978       6.208363       0.01395
  37     2.292        0.9894        0.0001        7.1968        7.1969       6.207515       0.01405
  36     2.964        0.9894        0.0001        7.1957        7.1958       6.206402       0.01397
  35     3.853        0.9894        0.0002        7.1942        7.1944       6.204933       0.01394
  34     5.035        0.9895        0.0002        7.1922        7.1924       6.202982       0.01393
  33     6.613        0.9895        0.0003        7.1896        7.1899       6.200380       0.01391
  32     8.786        0.9895        0.0004        7.1860        7.1864       6.196878       0.01360
  31     11.80        0.9896        0.0005        7.1810        7.1815       6.191880       0.01399
  30     15.07        0.9897        0.0006        7.1755        7.1762       6.186531       0.01381
  29     18.79        0.9897        0.0008        7.1694        7.1702       6.180508       0.01366
  28     23.16        0.9898        0.0010        7.1623        7.1633       6.173501       0.01355
  27     28.12        0.9899        0.0012        7.1542        7.1555       6.165526       0.01356
  26     33.73        0.9900        0.0014        7.1452        7.1467       6.156649       0.01335
  25     40.54        0.9902        0.0017        7.1344        7.1362       6.145993       0.01322
  24     48.69        0.9903        0.0021        7.1215        7.1236       6.133246       0.01319
  23     57.69        0.9905        0.0025        7.1074        7.1099       6.119369       0.01301
  22     68.43        0.9908        0.0029        7.0909        7.0938       6.103010       0.01286
  21     81.20        0.9910        0.0034        7.0713        7.0748       6.083757       0.01272
  20     96.49        0.9914        0.0041        7.0484        7.0525       6.061143       0.01248
  19     114.6        0.9918        0.0048        7.0217        7.0265       6.034740       0.01233
  18     136.5        0.9923        0.0057        6.9906        6.9963       6.004049       0.01180
  17     162.9        0.9929        0.0068        6.9544        6.9612       5.968308       0.01142
  16     196.4        0.9937        0.0082        6.9087        6.9169       5.923196       0.01136
  15     218.7        0.9942        0.0090        6.8794        6.8885       5.894220       0.01100
  14     243.0        0.9949        0.0100        6.8481        6.8581       5.863253       0.01074
  13     269.0        0.9956        0.0111        6.8147        6.8258       5.830193       0.01072
  12     297.5        0.9964        0.0122        6.7791        6.7913       5.794873       0.01048
  11     328.5        0.9973        0.0134        6.7409        6.7543       5.757032       0.01029
  10     361.9        0.9984        0.0147        6.7002        6.7148       5.716469       0.01026
   9     398.1        0.9996        0.0161        6.6563        6.6724       5.672718       0.01019
   8     437.6        1.0011        0.0176        6.6089        6.6264       5.625301       0.01014
   7     480.5        1.0029        0.0191        6.5570        6.5761       5.573226       0.01023
   6     533.0        1.0054        0.0211        6.4915        6.5126       5.507110       0.01064
   5     589.8        1.0086        0.0231        6.4182        6.4414       5.432763       0.01104
   4     651.6        1.0126        0.0253        6.3359        6.3612       5.348603       0.01151
   3     718.7        1.0175        0.0276        6.2441        6.2718       5.254241       0.01186
   2     792.3        1.0235        0.0301        6.1437        6.1738       5.150309       0.01192
   1     891.5        1.0327        0.0333        6.0042        6.0375       5.004756       0.01239
   0    1013.0        1.0462        0.0370        5.8249        5.8619       4.815646       0.01313



 Wavenumbers:  8050. - 12850. cm-1, ATM      1
 LEVEL PRESSURE   UPWARD FLUX   DIFDOWN FLUX  DIRDOWN FLUX  DOWNWARD FLUX   NET FLUX    HEATING RATE
          mb          W/m2          W/m2          W/m2        W/m2          W/m2       degree/day
  51    .06700       17.3097        0.0000      100.8135      100.8135      83.503788       0.00000
  50    .07753       17.3097        0.0000      100.8135      100.8135      83.503788       0.00000
  49    .09103       17.3097        0.0001      100.8134      100.8135      83.503788      -0.00000
  48    0.1069       17.3097        0.0001      100.8134      100.8134      83.503788       0.00000
  47    0.1255       17.3096        0.0001      100.8133      100.8134      83.503788       0.00000
  46    0.1487       17.3096        0.0002      100.8132      100.8134      83.503788      -0.00000
  45    0.1794       17.3095        0.0002      100.8131      100.8133      83.503788       0.00000
  44    0.2165       17.3095        0.0003      100.8129      100.8132      83.503788       0.00000
  43    0.2613       17.3094        0.0004      100.8127      100.8132      83.503788       0.00000
  42    0.3336       17.3092        0.0006      100.8125      100.8130      83.503788       0.00000
  41    0.4307       17.3091        0.0008      100.8121      100.8129      83.503788       0.00000
  40    0.5894       17.3088        0.0011      100.8115      100.8126      83.503788       0.00000
  39     1.339       17.3074        0.0027      100.8085      100.8112      83.503788      -0.00000
  38     1.782       17.3066        0.0037      100.8068      100.8104      83.503788       0.00000
  37     2.292       17.3057        0.0047      100.8047      100.8095      83.503788       0.00000
  36     2.964       17.3045        0.0062      100.8021      100.8083      83.503788      -0.00000
  35     3.853       17.3029        0.0081      100.7986      100.8067      83.503788      -0.00000
  34     5.035       17.3007        0.0106      100.7940      100.8045      83.503788      -0.00000
  33     6.613       17.2979        0.0139      100.7878      100.8017      83.503788       0.00000
  32     8.786       17.2941        0.0184      100.7794      100.7978      83.503788       0.00000
  31     11.80       17.2886        0.0249      100.7674      100.7923      83.503788       0.00000
  30     15.07       17.2826        0.0319      100.7546      100.7864      83.503788       0.00000
  29     18.79       17.2759        0.0397      100.7400      100.7797      83.503788      -0.00000
  28     23.16       17.2681        0.0489      100.7230      100.7719      83.503788      -0.00000
  27     28.12       17.2592        0.0595      100.7035      100.7630      83.503788       0.00000
  26     33.73       17.2491        0.0713      100.6817      100.7529      83.503788       0.00000
  25     40.54       17.2370        0.0855      100.6552      100.7408      83.503788       0.00000
  24     48.69       17.2223        0.1028      100.6234      100.7261      83.503788       0.00000
  23     57.69       17.2062        0.1217      100.5883      100.7100      83.503788       0.00000
  22     68.43       17.1870        0.1443      100.5464      100.6908      83.503788       0.00000
  21     81.20       17.1640        0.1713      100.4965      100.6678      83.503788      -0.00000
  20     96.49       17.1366        0.2034      100.4370      100.6404      83.503788      -0.00000
  19     114.6       17.1040        0.2417      100.3585      100.6002      83.496117       0.00358
  18     136.5       17.0654        0.2871      100.2634      100.5504      83.485073       0.00425
  17     162.9       17.0192        0.3412      100.1407      100.4819      83.462654       0.00717
  16     196.4       16.9593        0.4115       99.9505      100.3620      83.402717       0.01509
  15     218.7       16.9199        0.4577       99.7889      100.2467      83.326743       0.02884
  14     243.0       16.8771        0.5078       99.5472      100.0550      83.177896       0.05163
  13     269.0       16.8310        0.5618       99.1452       99.7070      82.875969       0.09794
  12     297.5       16.7818        0.6196       98.5975       99.2171      82.435237       0.13072
  11     328.5       16.7297        0.6815       97.8659       98.5473      81.817620       0.16793
  10     361.9       16.6752        0.7471       96.8848       97.6319      80.956644       0.21784
   9     398.1       16.6190        0.8162       95.6330       96.4492      79.830200       0.26244
   8     437.6       16.5624        0.8884       94.0655       94.9539      78.391441       0.30762
   7     480.5       16.5082        0.9626       92.0807       93.0434      76.535128       0.36457
   6     533.0       16.4523        1.0499       89.4449       90.4948      74.042415       0.40100
   5     589.8       16.4078        1.1396       86.5544       87.6940      71.286184       0.40912
   4     651.6       16.3827        1.2311       83.4174       84.6485      68.265795       0.41305
   3     718.7       16.3819        1.3252       80.2037       81.5289      65.147028       0.39194
   2     792.3       16.4096        1.4225       77.0811       78.5036      62.093960       0.35015
   1     891.5       16.5072        1.5475       73.2645       74.8120      58.304867       0.32243
   0    1013.0       16.7796        1.6854       68.9425       70.6279      53.848273       0.30944



 Wavenumbers: 12850. - 16000. cm-1, ATM      1
 LEVEL PRESSURE   UPWARD FLUX   DIFDOWN FLUX  DIRDOWN FLUX  DOWNWARD FLUX   NET FLUX    HEATING RATE
          mb          W/m2          W/m2          W/m2        W/m2          W/m2       degree/day
  51    .06700       25.9560        0.0000       63.1686       63.1686      37.212581       0.00000
  50    .07753       25.9560        0.0001       63.1677       63.1678      37.211804       0.62314
  49    .09103       25.9559        0.0001       63.1666       63.1668      37.210836       0.60532
  48    0.1069       25.9559        0.0002       63.1654       63.1656      37.209733       0.58665
  47    0.1255       25.9558        0.0003       63.1640       63.1643      37.208481       0.56788
  46    0.1487       25.9558        0.0004       63.1623       63.1627      37.206920       0.56899
  45    0.1794       25.9557        0.0006       63.1600       63.1605      37.204829       0.57413
  44    0.2165       25.9556        0.0007       63.1573       63.1580      37.202413       0.54956
  43    0.2613       25.9555        0.0010       63.1542       63.1552      37.199630       0.52458
  42    0.3336       25.9554        0.0013       63.1493       63.1506      37.195203       0.51610
  41    0.4307       25.9553        0.0018       63.1431       63.1449      37.189679       0.48032
  40    0.5894       25.9551        0.0026       63.1338       63.1364      37.181338       0.44354
  39     1.339       25.9551        0.0062       63.0956       63.1018      37.146738       0.38953
  38     1.782       25.9558        0.0084       63.0740       63.0824      37.126641       0.38261
  37     2.292       25.9573        0.0109       63.0477       63.0586      37.101311       0.41954
  36     2.964       25.9602        0.0142       63.0095       63.0237      37.063536       0.47418
  35     3.853       25.9654        0.0185       62.9533       62.9718      37.006349       0.54272
  34     5.035       25.9738        0.0243       62.8725       62.8968      36.922999       0.59542
  33     6.613       25.9856        0.0319       62.7621       62.7940      36.808377       0.61277
  32     8.786       26.0008        0.0422       62.6182       62.6605      36.659639       0.57764
  31     11.80       26.0199        0.0569       62.4284       62.4853      36.465380       0.54387
  30     15.07       26.0372        0.0727       62.2426       62.3153      36.278048       0.48365
  29     18.79       26.0540        0.0904       62.0493       62.1397      36.085741       0.43602
  28     23.16       26.0702        0.1111       61.8424       61.9535      35.883277       0.39150
  27     28.12       26.0850        0.1346       61.6278       61.7625      35.677410       0.34996
  26     33.73       26.0962        0.1610       61.4177       61.5786      35.482470       0.29310
  25     40.54       26.1033        0.1927       61.1983       61.3910      35.287712       0.24162
  24     48.69       26.1057        0.2309       60.9680       61.1989      35.093121       0.20137
  23     57.69       26.1025        0.2728       60.7478       61.0206      34.918041       0.16411
  22     68.43       26.0923        0.3226       60.5202       60.8428      34.750498       0.13171
  21     81.20       26.0713        0.3819       60.2938       60.6757      34.604432       0.09652
  20     96.49       26.0381        0.4525       60.0643       60.5168      34.478614       0.06944
  19     114.6       25.9994        0.5367       59.8078       60.3445      34.345048       0.06237
  18     136.5       25.9499        0.6363       59.5157       60.1520      34.202188       0.05493
  17     162.9       25.8874        0.7546       59.1770       59.9316      34.044231       0.05049
  16     196.4       25.7991        0.9074       58.7604       59.6679      33.868747       0.04417
  15     218.7       25.7386        1.0075       58.4948       59.5023      33.763749       0.03986
  14     243.0       25.6716        1.1160       58.2089       59.3250      33.653328       0.03830
  13     269.0       25.5981        1.2334       57.9006       59.1339      33.535857       0.03811
  12     297.5       25.5179        1.3598       57.5668       58.9265      33.408685       0.03772
  11     328.5       25.4314        1.4959       57.2005       58.6964      33.264995       0.03907
  10     361.9       25.3391        1.6419       56.7963       58.4383      33.099234       0.04194
   9     398.1       25.2411        1.7984       56.3475       58.1459      32.904891       0.04528
   8     437.6       25.1385        1.9656       55.8422       57.8078      32.669293       0.05037
   7     480.5       25.0334        2.1433       55.2625       57.4059      32.372510       0.05829
   6     533.0       24.9122        2.3600       54.4972       56.8572      31.944992       0.06877
   5     589.8       24.7918        2.5901       53.6307       56.2208      31.428959       0.07660
   4     651.6       24.6765        2.8327       52.6606       55.4933      30.816762       0.08372
   3     718.7       24.5683        3.0882       51.6100       54.6982      30.129913       0.08632
   2     792.3       24.4698        3.3562       50.5019       53.8580      29.388233       0.08506
   1     891.5       24.3719        3.7085       49.0197       52.7281      28.356239       0.08782
   0    1013.0       24.3252        4.1155       47.2289       51.3444      27.019186       0.09284



 Wavenumbers: 16000. - 22650. cm-1, ATM      1
 LEVEL PRESSURE   UPWARD FLUX   DIFDOWN FLUX  DIRDOWN FLUX  DOWNWARD FLUX   NET FLUX    HEATING RATE
          mb          W/m2          W/m2          W/m2        W/m2          W/m2       degree/day
  51    .06700       68.4888        0.0000      100.7153      100.7153      32.226459       0.00000
  50    .07753       68.4887        0.0003      100.7147      100.7151      32.226345       0.09122
  49    .09103       68.4885        0.0007      100.7140      100.7147      32.226179       0.10347
  48    0.1069       68.4884        0.0012      100.7131      100.7143      32.225957       0.11799
  47    0.1255       68.4882        0.0017      100.7121      100.7138      32.225661       0.13449
  46    0.1487       68.4879        0.0024      100.7108      100.7131      32.225224       0.15937
  45    0.1794       68.4876        0.0033      100.7089      100.7122      32.224540       0.18764
  44    0.2165       68.4873        0.0044      100.7066      100.7109      32.223613       0.21089
  43    0.2613       68.4870        0.0056      100.7037      100.7093      32.222355       0.23708
  42    0.3336       68.4865        0.0078      100.6987      100.7065      32.219964       0.27880
  41    0.4307       68.4860        0.0106      100.6918      100.7023      32.216360       0.31339
  40    0.5894       68.4854        0.0151      100.6797      100.6949      32.209486       0.36554
  39     1.339       68.4876        0.0368      100.6095      100.6463      32.158712       0.57162
  38     1.782       68.4925        0.0495      100.5585      100.6080      32.115473       0.82320
  37     2.292       68.5016        0.0643      100.4903      100.5545      32.052906       1.03628
  36     2.964       68.5187        0.0836      100.3868      100.4703      31.951597       1.27173
  35     3.853       68.5487        0.1091      100.2306      100.3397      31.790971       1.52437
  34     5.035       68.5957        0.1429      100.0045      100.1473      31.551612       1.70988
  33     6.613       68.6623        0.1879       99.6939       99.8818      31.219528       1.77533
  32     8.786       68.7482        0.2485       99.2881       99.5365      30.788373       1.67445
  31     11.80       68.8569        0.3348       98.7496       99.0844      30.227474       1.57034
  30     15.07       68.9573        0.4272       98.2198       98.6470      29.689680       1.38848
  29     18.79       69.0560        0.5311       97.6651       98.1963      29.140314       1.24558
  28     23.16       69.1541        0.6521       97.0671       97.7192      28.565085       1.11231
  27     28.12       69.2466        0.7899       96.4406       97.2304      27.983844       0.98807
  26     33.73       69.3215        0.9435       95.8179       96.7614      27.439893       0.81785
  25     40.54       69.3790        1.1284       95.1548       96.2833      26.904259       0.66451
  24     48.69       69.4165        1.3505       94.4420       95.7925      26.376013       0.54665
  23     57.69       69.4268        1.5934       93.7416       95.3350      25.908149       0.43855
  22     68.43       69.4061        1.8814       92.9954       94.8767      25.470612       0.34396
  21     81.20       69.3361        2.2230       92.2231       94.4462      25.110037       0.23826
  20     96.49       69.2110        2.6282       91.4110       94.0392      24.828128       0.15559
  19     114.6       69.0421        3.1058       90.5070       93.6128      24.570659       0.12022
  18     136.5       68.8287        3.6669       89.4803       93.1472      24.318417       0.09699
  17     162.9       68.5634        4.3281       88.3022       92.6303      24.066903       0.08039
  16     196.4       68.1941        5.1753       86.8606       92.0359      23.841862       0.05665
  15     218.7       67.9430        5.7253       85.9492       91.6745      23.731508       0.04190
  14     243.0       67.6671        6.3175       84.9789       91.2965      23.629376       0.03542
  13     269.0       67.3652        6.9528       83.9493       90.9021      23.536897       0.03000
  12     297.5       67.0365        7.6317       82.8589       90.4907      23.454180       0.02453
  11     328.5       66.6820        8.3568       81.6982       90.0550      23.372988       0.02208
  10     361.9       66.3016        9.1274       80.4669       89.5944      23.292813       0.02028
   9     398.1       65.8942        9.9455       79.1611       89.1067      23.212491       0.01871
   8     437.6       65.4601       10.8112       77.7777       88.5889      23.128841       0.01788
   7     480.5       64.9993       11.7245       76.3136       88.0382      23.038853       0.01767
   6     533.0       64.4394       12.8284       74.5359       87.3643      22.924913       0.01833
   5     589.8       63.8459       13.9935       72.6469       86.6405      22.794514       0.01936
   4     651.6       63.2207       15.2175       70.6456       85.8630      22.642330       0.02081
   3     718.7       62.5640       16.4978       68.5367       85.0345      22.470521       0.02159
   2     792.3       61.8783       17.8290       66.3287       84.1577      22.279406       0.02192
   1     891.5       60.9841       19.5613       63.4246       82.9860      22.001834       0.02362
   0    1013.0       59.9608       21.5442       60.0483       81.5925      21.631735       0.02570



 Wavenumbers: 22650. - 29000. cm-1, ATM      1
 LEVEL PRESSURE   UPWARD FLUX   DIFDOWN FLUX  DIRDOWN FLUX  DOWNWARD FLUX   NET FLUX    HEATING RATE
          mb          W/m2          W/m2          W/m2        W/m2          W/m2       degree/day
  51    .06700       32.2919        0.0000       38.0063       38.0063       5.714362       0.00000
  50    .07753       32.2918        0.0004       38.0057       38.0061       5.714362       0.00000
  49    .09103       32.2915        0.0009       38.0050       38.0059       5.714362      -0.00000
  48    0.1069       32.2913        0.0014       38.0042       38.0056       5.714362       0.00000
  47    0.1255       32.2910        0.0020       38.0033       38.0054       5.714362       0.00000
  46    0.1487       32.2906        0.0028       38.0022       38.0050       5.714362       0.00000
  45    0.1794       32.2901        0.0039       38.0006       38.0045       5.714362      -0.00000
  44    0.2165       32.2896        0.0052       37.9987       38.0039       5.714362       0.00000
  43    0.2613       32.2889        0.0067       37.9965       38.0032       5.714362       0.00000
  42    0.3336       32.2877        0.0092       37.9928       38.0021       5.714362      -0.00000
  41    0.4307       32.2862        0.0126       37.9880       38.0006       5.714362       0.00000
  40    0.5894       32.2837        0.0180       37.9800       37.9981       5.714362      -0.00000
  39     1.339       32.2719        0.0438       37.9425       37.9863       5.714362       0.00000
  38     1.782       32.2650        0.0590       37.9204       37.9794       5.714362      -0.00000
  37     2.292       32.2570        0.0765       37.8949       37.9714       5.714362       0.00000
  36     2.964       32.2465        0.0995       37.8614       37.9609       5.714362       0.00000
  35     3.853       32.2327        0.1298       37.8172       37.9470       5.714362       0.00000
  34     5.035       32.2143        0.1701       37.7586       37.9286       5.714362       0.00000
  33     6.613       32.1897        0.2238       37.6803       37.9041       5.714362      -0.00000
  32     8.786       32.1567        0.2960       37.5750       37.8711       5.714362       0.00000
  31     11.80       32.1096        0.3991       37.4249       37.8239       5.714362       0.00000
  30     15.07       32.0591        0.5093       37.2642       37.7735       5.714362       0.00000
  29     18.79       32.0023        0.6334       37.0833       37.7167       5.714362       0.00000
  28     23.16       31.9362        0.7776       36.8730       37.6506       5.714362       0.00000
  27     28.12       31.8610        0.9416       36.6338       37.5753       5.714362      -0.00000
  26     33.73       31.7772        1.1239       36.3677       37.4916       5.714362      -0.00000
  25     40.54       31.6766        1.3425       36.0486       37.3910       5.714362       0.00000
  24     48.69       31.5564        1.6035       35.6672       37.2707       5.714362      -0.00000
  23     57.69       31.4254        1.8871       35.2527       37.1398       5.714362       0.00000
  22     68.43       31.2711        2.2205       34.7649       36.9854       5.714362       0.00000
  21     81.20       31.0895        2.6117       34.1922       36.8039       5.714362       0.00000
  20     96.49       30.8765        3.0691       33.5217       36.5909       5.714362      -0.00000
  19     114.6       30.6282        3.6002       32.7424       36.3426       5.714362       0.00000
  18     136.5       30.3403        4.2131       31.8416       36.0546       5.714362      -0.00000
  17     162.9       30.0062        4.9198       30.8008       35.7206       5.714362      -0.00000
  16     196.4       29.5867        5.8004       29.5007       35.3010       5.714362       0.00000
  15     218.7       29.3194        6.3571       28.6767       35.0338       5.714362       0.00000
  14     243.0       29.0360        6.9436       27.8068       34.7504       5.714362       0.00000
  13     269.0       28.7370        7.5580       26.8933       34.4514       5.714362       0.00000
  12     297.5       28.4230        8.1980       25.9393       34.1373       5.714362      -0.00000
  11     328.5       28.0937        8.8630       24.9451       33.8081       5.714362      -0.00000
  10     361.9       27.7506        9.5489       23.9160       33.4649       5.714362       0.00000
   9     398.1       27.3938       10.2540       22.8541       33.1081       5.714362       0.00000
   8     437.6       27.0245       10.9744       21.7645       32.7388       5.714362       0.00000
   7     480.5       26.6438       11.7060       20.6521       32.3582       5.714362       0.00000
   6     533.0       26.1953       12.5528       19.3569       31.9097       5.714362       0.00000
   5     589.8       25.7352       13.4028       18.0467       31.4496       5.714362       0.00000
   4     651.6       25.2657       14.2485       16.7316       30.9801       5.714362       0.00000
   3     718.7       24.7891       15.0821       15.4214       30.5035       5.714362       0.00000
   2     792.3       24.3083       15.8951       14.1276       30.0227       5.714362      -0.00000
   1     891.5       23.7036       16.8721       12.5459       29.4180       5.714362       0.00000
   0    1013.0       23.0376       17.8802       10.8717       28.7519       5.714362      -0.00000



 Wavenumbers: 29000. - 38000. cm-1, ATM      1
 LEVEL PRESSURE   UPWARD FLUX   DIFDOWN FLUX  DIRDOWN FLUX  DOWNWARD FLUX   NET FLUX    HEATING RATE
          mb          W/m2          W/m2          W/m2        W/m2          W/m2       degree/day
  51    .06700        4.6347        0.0000       13.4026       13.4026       8.767886       0.00000
  50    .07753        4.6345        0.0003       13.3983       13.3986       8.764088       3.04415
  49    .09103        4.6342        0.0007       13.3921       13.3928       8.758569       3.44939
  48    0.1069        4.6339        0.0011       13.3840       13.3851       8.751192       3.92645
  47    0.1255        4.6336        0.0016       13.3733       13.3749       8.741348       4.46281
  46    0.1487        4.6331        0.0022       13.3579       13.3600       8.726907       5.26394
  45    0.1794        4.6325        0.0030       13.3340       13.3371       8.704509       6.14873
  44    0.2165        4.6319        0.0040       13.3024       13.3064       8.674493       6.82816
  43    0.2613        4.6311        0.0051       13.2604       13.2655       8.634442       7.54941
  42    0.3336        4.6298        0.0070       13.1833       13.1903       8.560443       8.62758
  41    0.4307        4.6283        0.0094       13.0729       13.0824       8.454082       9.24784
  40    0.5894        4.6258        0.0133       12.8796       12.8929       8.267061       9.94556
  39     1.339        4.6171        0.0295       11.9165       11.9460       7.328889      10.56212
  38     1.782        4.6136        0.0377       11.4399       11.4776       6.864048       8.84981
  37     2.292        4.6108        0.0465       10.9796       11.0261       6.415315       7.43220
  36     2.964        4.6090        0.0573       10.4786       10.5359       5.926998       6.12986
  35     3.853        4.6089        0.0707        9.9429       10.0136       5.404627       4.95739
  34     5.035        4.6114        0.0873        9.4007        9.4880       4.876607       3.77195
  33     6.613        4.6164        0.1084        8.8752        8.9836       4.367192       2.72333
  32     8.786        4.6235        0.1356        8.3786        8.5142       3.890723       1.85043
  31     11.80        4.6319        0.1729        7.8897        8.0626       3.430717       1.28787
  30     15.07        4.6388        0.2114        7.5108        7.7222       3.083401       0.89670
  29     18.79        4.6449        0.2533        7.1776        7.4309       2.785978       0.67435
  28     23.16        4.6501        0.3004        6.8664        7.1669       2.516780       0.52054
  27     28.12        4.6536        0.3525        6.5780        6.9306       2.276984       0.40764
  26     33.73        4.6531        0.4093        6.3195        6.7288       2.075638       0.30273
  25     40.54        4.6473        0.4762        6.0663        6.5424       1.895128       0.22394
  24     48.69        4.6356        0.5545        5.8128        6.3673       1.731769       0.16905
  23     57.69        4.6181        0.6380        5.5777        6.2157       1.597595       0.12577
  22     68.43        4.5925        0.7346        5.3379        6.0725       1.480035       0.09242
  21     81.20        4.5545        0.8466        5.0965        5.9431       1.388633       0.06040
  20     96.49        4.5029        0.9759        4.8476        5.8235       1.320644       0.03753
  19     114.6        4.4405        1.1222        4.5799        5.7020       1.261532       0.02760
  18     136.5        4.3682        1.2854        4.2891        5.5744       1.206201       0.02128
  17     162.9        4.2856        1.4660        3.9732        5.4391       1.153537       0.01683
  16     196.4        4.1811        1.6817        3.6080        5.2897       1.108607       0.01131
  15     218.7        4.1152        1.8127        3.3898        5.2025       1.087256       0.00811
  14     243.0        4.0465        1.9459        3.1686        5.1145       1.067917       0.00671
  13     269.0        3.9754        2.0802        2.9461        5.0262       1.050888       0.00552
  12     297.5        3.9021        2.2143        2.7239        4.9382       1.036181       0.00436
  11     328.5        3.8274        2.3469        2.5029        4.8498       1.022394       0.00375
  10     361.9        3.7518        2.4768        2.2846        4.7613       1.009547       0.00325
   9     398.1        3.6756        2.6025        2.0708        4.6733       0.997632       0.00278
   8     437.6        3.5993        2.7231        1.8626        4.5857       0.986393       0.00240
   7     480.5        3.5232        2.8371        1.6621        4.4992       0.975951       0.00205
   6     533.0        3.4369        2.9580        1.4437        4.4017       0.964828       0.00179
   5     589.8        3.3518        3.0671        1.2390        4.3061       0.954319       0.00156
   4     651.6        3.2685        3.1628        1.0500        4.2128       0.944281       0.00137
   3     718.7        3.1873        3.2442        0.8778        4.1220       0.934679       0.00121
   2     792.3        3.1083        3.3101        0.7237        4.0338       0.925496       0.00105
   1     891.5        3.0125        3.3707        0.5563        3.9270       0.914446       0.00094
   0    1013.0        2.9104        3.4091        0.4039        3.8130       0.902602       0.00082



 Wavenumbers: 38000. - 50000. cm-1, ATM      1
 LEVEL PRESSURE   UPWARD FLUX   DIFDOWN FLUX  DIRDOWN FLUX  DOWNWARD FLUX   NET FLUX    HEATING RATE
          mb          W/m2          W/m2          W/m2        W/m2          W/m2       degree/day
  51    .06700        0.0051        0.0000        0.8267        0.8267       0.821528       0.00000
  50    .07753        0.0051        0.0001        0.8242        0.8243       0.819196       1.86936
  49    .09103        0.0050        0.0002        0.8207        0.8209       0.815872       2.07705
  48    0.1069        0.0049        0.0002        0.8162        0.8164       0.811514       2.31984
  47    0.1255        0.0048        0.0004        0.8103        0.8106       0.805801       2.59006
  46    0.1487        0.0047        0.0005        0.8018        0.8023       0.797567       3.00143
  45    0.1794        0.0045        0.0007        0.7889        0.7896       0.785013       3.44648
  44    0.2165        0.0044        0.0009        0.7720        0.7729       0.768507       3.75474
  43    0.2613        0.0042        0.0011        0.7500        0.7511       0.746955       4.06246
  42    0.3336        0.0039        0.0015        0.7106        0.7121       0.708267       4.51071
  41    0.4307        0.0035        0.0019        0.6566        0.6584       0.654972       4.63387
  40    0.5894        0.0029        0.0024        0.5680        0.5704       0.567464       4.65357
  39     1.339        0.0015        0.0030        0.2422        0.2452       0.243720       3.64476
  38     1.782        0.0010        0.0026        0.1493        0.1519       0.150889       1.76735
  37     2.292        0.0007        0.0022        0.0924        0.0946       0.093932       0.94336
  36     2.964        0.0005        0.0018        0.0539        0.0557       0.055224       0.48589
  35     3.853        0.0003        0.0013        0.0295        0.0308       0.030502       0.23462
  34     5.035        0.0002        0.0010        0.0154        0.0164       0.016181       0.10230
  33     6.613        0.0001        0.0007        0.0073        0.0080       0.007912       0.04420
  32     8.786        0.0000        0.0004        0.0030        0.0034       0.003390       0.01756
  31     11.80        0.0000        0.0003        0.0010        0.0012       0.001199       0.00613
  30     15.07        0.0000        0.0001        0.0003        0.0005       0.000463       0.00190
  29     18.79        0.0000        0.0001        0.0001        0.0002       0.000182       0.00064
  28     23.16        0.0000        0.0000        0.0000        0.0001       0.000071       0.00022
  27     28.12        0.0000        0.0000        0.0000        0.0000       0.000028       0.00007
  26     33.73        0.0000        0.0000        0.0000        0.0000       0.000011       0.00002
  25     40.54        0.0000        0.0000        0.0000        0.0000       0.000005       0.00001
  24     48.69        0.0000        0.0000        0.0000        0.0000       0.000002       0.00000
  23     57.69        0.0000        0.0000        0.0000        0.0000       0.000001       0.00000
  22     68.43        0.0000        0.0000        0.0000        0.0000       0.000000       0.00000
  21     81.20        0.0000        0.0000        0.0000        0.0000       0.000000       0.00000
  20     96.49        0.0000        0.0000        0.0000        0.0000       0.000000       0.00000
  19     114.6        0.0000        0.0000        0.0000        0.0000       0.000000       0.00000
  18     136.5        0.0000        0.0000        0.0000        0.0000       0.000000       0.00000
  17     162.9        0.0000        0.0000        0.0000        0.0000       0.000000       0.00000
  16     196.4        0.0000        0.0000        0.0000        0.0000       0.000000       0.00000
  15     218.7        0.0000        0.0000        0.0000        0.0000       0.000000       0.00000
  14     243.0        0.0000        0.0000        0.0000        0.0000       0.000000       0.00000
  13     269.0        0.0000        0.0000        0.0000        0.0000       0.000000       0.00000
  12     297.5        0.0000        0.0000        0.0000        0.0000       0.000000       0.00000
  11     328.5        0.0000        0.0000        0.0000        0.0000       0.000000       0.00000
  10     361.9        0.0000        0.0000        0.0000        0.0000       0.000000       0.00000
   9     398.1        0.0000        0.0000        0.0000        0.0000       0.000000       0.00000
   8     437.6        0.0000        0.0000        0.0000        0.0000       0.000000       0.00000
   7     480.5        0.0000        0.0000        0.0000        0.0000       0.000000       0.00000
   6     533.0        0.0000        0.0000        0.0000        0.0000       0.000000       0.00000
   5     589.8        0.0000        0.0000        0.0000        0.0000       0.000000       0.00000
   4     651.6        0.0000        0.0000        0.0000        0.0000       0.000000       0.00000
   3     718.7        0.0000        0.0000        0.0000        0.0000       0.000000       0.00000
   2     792.3        0.0000        0.0000        0.0000        0.0000       0.000000       0.00000
   1     891.5        0.0000        0.0000        0.0000        0.0000       0.000000       0.00000
   0    1013.0        0.0000        0.0000        0.0000        0.0000       0.000000       0.00000



 Wavenumbers:   820. -  2600. cm-1, ATM      1
 LEVEL PRESSURE   UPWARD FLUX   DIFDOWN FLUX  DIRDOWN FLUX  DOWNWARD FLUX   NET FLUX    HEATING RATE
          mb          W/m2          W/m2          W/m2        W/m2          W/m2       degree/day
  51    .06700        0.1274        0.0000        3.8670        3.8670       3.739658       0.00000
  50    .07753        0.1274        0.0000        3.8643        3.8643       3.736941       2.17769
  49    .09103        0.1274        0.0000        3.8635        3.8635       3.736131       0.50638
  48    0.1069        0.1274        0.0000        3.8626        3.8626       3.735240       0.47415
  47    0.1255        0.1274        0.0000        3.8616        3.8616       3.734279       0.43559
  46    0.1487        0.1274        0.0000        3.8605        3.8605       3.733170       0.40437
  45    0.1794        0.1274        0.0000        3.8592        3.8592       3.731835       0.36647
  44    0.2165        0.1274        0.0000        3.8578        3.8578       3.730457       0.31346
  43    0.2613        0.1274        0.0000        3.8564        3.8564       3.728997       0.27522
  42    0.3336        0.1274        0.0000        3.8541        3.8541       3.726766       0.26012
  41    0.4307        0.1274        0.0000        3.8512        3.8512       3.723883       0.25063
  40    0.5894        0.1274        0.0000        3.8465        3.8465       3.719157       0.25133
  39     1.339        0.1274        0.0000        3.8251        3.8251       3.697782       0.24064
  38     1.782        0.1274        0.0000        3.8133        3.8133       3.685969       0.22489
  37     2.292        0.1274        0.0000        3.8003        3.8003       3.672908       0.21632
  36     2.964        0.1274        0.0000        3.7841        3.7841       3.656780       0.20246
  35     3.853        0.1274        0.0000        3.7642        3.7642       3.636865       0.18899
  34     5.035        0.1274        0.0000        3.7395        3.7395       3.612175       0.17638
  33     6.613        0.1274        0.0000        3.7090        3.7090       3.581640       0.16324
  32     8.786        0.1274        0.0000        3.6726        3.6726       3.545247       0.14133
  31     11.80        0.1274        0.0000        3.6320        3.6320       3.504654       0.11365
  30     15.07        0.1274        0.0000        3.6016        3.6016       3.474271       0.07844
  29     18.79        0.1274        0.0000        3.5777        3.5777       3.450374       0.05418
  28     23.16        0.1274        0.0000        3.5564        3.5564       3.429022       0.04129
  27     28.12        0.1274        0.0000        3.5348        3.5348       3.407477       0.03662
  26     33.73        0.1274        0.0000        3.5118        3.5118       3.384446       0.03463
  25     40.54        0.1274        0.0000        3.4849        3.4849       3.357560       0.03335
  24     48.69        0.1274        0.0000        3.4537        3.4537       3.326311       0.03234
  23     57.69        0.1274        0.0000        3.4210        3.4210       3.293640       0.03062
  22     68.43        0.1274        0.0000        3.3844        3.3844       3.257057       0.02876
  21     81.20        0.1274        0.0000        3.3441        3.3441       3.216761       0.02663
  20     96.49        0.1274        0.0000        3.2998        3.2998       3.172400       0.02448
  19     114.6        0.1274        0.0000        3.2506        3.2506       3.123255       0.02295
  18     136.5        0.1274        0.0000        3.1936        3.1936       3.066209       0.02194
  17     162.9        0.1274        0.0000        3.1181        3.1181       2.990711       0.02413
  16     196.4        0.1274        0.0000        3.0090        3.0090       2.881530       0.02748
  15     218.7        0.1275        0.0000        2.9420        2.9420       2.814531       0.02544
  14     243.0        0.1275        0.0000        2.8605        2.8605       2.732975       0.02829
  13     269.0        0.1276        0.0000        2.7419        2.7420       2.614404       0.03846
  12     297.5        0.1277        0.0000        2.5729        2.5729       2.445213       0.05018
  11     328.5        0.1279        0.0000        2.3602        2.3602       2.232345       0.05788
  10     361.9        0.1281        0.0000        2.1524        2.1524       2.024300       0.05264
   9     398.1        0.1285        0.0000        1.9974        1.9974       1.868887       0.03621
   8     437.6        0.1291        0.0000        1.8835        1.8835       1.754396       0.02448
   7     480.5        0.1300        0.0000        1.7734        1.7734       1.643466       0.02179
   6     533.0        0.1314        0.0000        1.6397        1.6398       1.508355       0.02174
   5     589.8        0.1335        0.0000        1.5068        1.5069       1.373375       0.02004
   4     651.6        0.1366        0.0000        1.3807        1.3807       1.244160       0.01767
   3     718.7        0.1407        0.0000        1.2680        1.2680       1.127377       0.01468
   2     792.3        0.1457        0.0000        1.1659        1.1660       1.020264       0.01228
   1     891.5        0.1542        0.0000        1.0372        1.0373       0.883066       0.01167
   0    1013.0        0.1696        0.0000        0.8716        0.8717       0.702049       0.01257

  Modules and versions used in this calculation:

       rrtmg_sw.1col.f90:  $Revision$                    rrtmg_sw_init.f90:  $Revision$        
     rrtmgsw_cldprop.f90:  $Revision$                  rrtmgsw_cldprmc.f90:  NOT USED          
     rrtmg_sw_reftra.f90:  $Revision$                  rrtmg_sw_spcvrt.f90:  NOT USED          
     rrtmg_sw_spcvmc.f90:  NOT USED                    rrtmgsw_setcoef.f90:  NOT USED          
     rrtmg_sw_taumol.f90:  $Revision$                  rrtmg_sw_vrtqdr.f90:  NOT USED          
                rrtatm.f:  NOT USED                             util_xxx.f:  NOT USED          
                 extra.f:  NOT USED                       rrtmg_sw_k_g.f90:  $Revision$        

