

 Wavenumbers:   820. - 50000. cm-1, ATM      1
 LEVEL PRESSURE   UPWARD FLUX   DIFDOWN FLUX  DIRDOWN FLUX  DOWNWARD FLUX   NET FLUX    HEATING RATE
          mb          W/m2          W/m2          W/m2        W/m2          W/m2       degree/day
  51    .06700      234.8739        0.0000      397.8738      397.8738     162.999915       0.00000
  50    .07753      234.8733        0.0012      397.8577      397.8589     162.985581      11.48859
  49    .09103      234.8726        0.0027      397.8417      397.8444     162.971844       8.58638
  48    0.1069      234.8718        0.0044      397.8228      397.8272     162.955441       8.73114
  47    0.1255      234.8709        0.0064      397.7995      397.8058     162.934939       9.29474
  46    0.1487      234.8698        0.0089      397.7674      397.7762     162.906405      10.40076
  45    0.1794      234.8684        0.0122      397.7202      397.7324     162.864012      11.63799
  44    0.2165      234.8668        0.0162      397.6598      397.6760     162.809243      12.45886
  43    0.2613      234.8650        0.0209      397.5823      397.6033     162.738295      13.37344
  42    0.3336      234.8622        0.0287      397.4441      397.4728     162.610594      14.88866
  41    0.4307      234.8588        0.0389      397.2513      397.2902     162.431387      15.58166
  40    0.5894      234.8539        0.0552      396.9238      396.9790     162.125104      16.28773
  39     1.339      234.8429        0.1284      395.4223      395.5507     160.707760      15.95673
  38     1.782      234.8445        0.1694      394.7250      394.8944     160.049895      12.52469
  37     2.292      234.8535        0.2162      394.0527      394.2689     159.415384      10.50914
  36     2.964      234.8760        0.2769      393.2958      393.5727     158.696704       9.02161
  35     3.853      234.9205        0.3563      392.4268      392.7831     157.862647       7.91536
  34     5.035      234.9941        0.4607      391.4394      391.9001     156.905993       6.83394
  33     6.613      235.1005        0.5992      390.3226      390.9218     155.821228       5.79916
  32     8.786      235.2379        0.7843      389.0591      389.8434     154.605496       4.72146
  31     11.80      235.4095        1.0471      387.5485      388.5956     153.186181       3.97364
  30     15.07      235.5643        1.3271      386.1563      387.4834     151.919116       3.27132
  29     18.79      235.7130        1.6410      384.7539      386.3949     150.681856       2.80525
  28     23.16      235.8567        2.0047      383.2764      385.2811     149.424373       2.43157
  27     28.12      235.9858        2.4173      381.7455      384.1629     148.177073       2.12033
  26     33.73      236.0787        2.8759      380.2168      383.0926     147.013923       1.74883
  25     40.54      236.1313        3.4259      378.5644      381.9903     145.859025       1.43278
  24     48.69      236.1374        4.0834      376.7572      380.8406     144.703196       1.19610
  23     57.69      236.0892        4.7990      374.9411      379.7401     143.650914       0.98636
  22     68.43      235.9730        5.6430      372.9538      378.5968     142.623828       0.80743
  21     81.20      235.7531        6.6382      370.8117      377.4499     141.696850       0.61253
  20     96.49      235.4175        7.8095      368.4756      376.2852     140.867658       0.45765
  19     114.6      234.9973        9.1786      365.8339      375.0126     140.015233       0.39802
  18     136.5      234.4825       10.7698      362.8400      373.6099     139.127371       0.34140
  17     162.9      233.8598       12.6212      359.3892      372.0104     138.150639       0.31220
  16     196.4      233.0203       14.9578      355.0144      369.9722     136.951906       0.30174
  15     218.7      232.4634       16.4538      351.9594      368.4132     135.949854       0.38044
  14     243.0      231.8618       18.0464      348.2675      366.3139     134.452113       0.51947
  13     269.0      231.2153       19.7340      343.7550      363.4890     132.273672       0.70668
  12     297.5      230.5255       21.5149      338.5068      360.0216     129.496129       0.82379
  11     328.5      229.7962       23.3912      332.8831      356.2743     126.478011       0.82062
  10     361.9      229.0305       25.3579      326.8113      352.1692     123.138708       0.84488
   9     398.1      228.2302       27.4153      320.2372      347.6525     119.422304       0.86584
   8     437.6      227.4013       29.5581      313.1616      342.7197     115.318420       0.87744
   7     480.5      226.5485       31.7836      305.6964      337.4800     110.931505       0.86157
   6     533.0      225.5545       34.4254      296.6807      331.1061     105.551626       0.86545
   5     589.8      224.5636       37.1595      287.0555      324.2150      99.651440       0.87578
   4     651.6      223.6247       39.9751      276.4494      316.4244      92.799674       0.93700
   3     718.7      222.7907       42.8569      265.1657      308.0227      85.232021       0.95104
   2     792.3      222.1812       45.7874      252.9748      298.7622      76.580974       0.99218
   1     891.5      222.0146       49.4964      236.8133      286.3097      64.295104       1.04547
   0    1013.0      223.2007       53.6169      218.9853      272.6021      49.401393       1.03415



 Wavenumbers:  2600. -  3250. cm-1, ATM      1
 LEVEL PRESSURE   UPWARD FLUX   DIFDOWN FLUX  DIRDOWN FLUX  DOWNWARD FLUX   NET FLUX    HEATING RATE
          mb          W/m2          W/m2          W/m2        W/m2          W/m2       degree/day
  51    .06700        0.0188        0.0000        3.5066        3.5066       3.487807       0.00000
  50    .07753        0.0188        0.0000        3.5066        3.5066       3.487799       0.00640
  49    .09103        0.0188        0.0000        3.5066        3.5066       3.487789       0.00627
  48    0.1069        0.0188        0.0000        3.5066        3.5066       3.487778       0.00613
  47    0.1255        0.0188        0.0000        3.5066        3.5066       3.487765       0.00599
  46    0.1487        0.0188        0.0000        3.5066        3.5066       3.487748       0.00607
  45    0.1794        0.0188        0.0000        3.5065        3.5065       3.487725       0.00624
  44    0.2165        0.0188        0.0000        3.5065        3.5065       3.487698       0.00611
  43    0.2613        0.0188        0.0000        3.5065        3.5065       3.487667       0.00598
  42    0.3336        0.0188        0.0000        3.5064        3.5064       3.487614       0.00615
  41    0.4307        0.0188        0.0000        3.5064        3.5064       3.487543       0.00618
  40    0.5894        0.0188        0.0000        3.5062        3.5062       3.487424       0.00633
  39     1.339        0.0188        0.0000        3.5055        3.5055       3.486725       0.00787
  38     1.782        0.0188        0.0000        3.5050        3.5050       3.486194       0.01010
  37     2.292        0.0188        0.0000        3.5043        3.5043       3.485502       0.01147
  36     2.964        0.0188        0.0000        3.5033        3.5033       3.484510       0.01245
  35     3.853        0.0188        0.0000        3.5019        3.5019       3.483133       0.01307
  34     5.035        0.0188        0.0000        3.5001        3.5001       3.481272       0.01329
  33     6.613        0.0188        0.0000        3.4977        3.4977       3.478863       0.01288
  32     8.786        0.0188        0.0000        3.4947        3.4947       3.475892       0.01154
  31     11.80        0.0188        0.0000        3.4911        3.4911       3.472257       0.01018
  30     15.07        0.0188        0.0000        3.4878        3.4878       3.469036       0.00832
  29     18.79        0.0188        0.0000        3.4848        3.4848       3.465973       0.00694
  28     23.16        0.0188        0.0000        3.4816        3.4816       3.462754       0.00623
  27     28.12        0.0188        0.0000        3.4779        3.4779       3.459136       0.00615
  26     33.73        0.0188        0.0000        3.4735        3.4735       3.454671       0.00671
  25     40.54        0.0188        0.0000        3.4671        3.4671       3.448347       0.00785
  24     48.69        0.0188        0.0000        3.4582        3.4583       3.439454       0.00920
  23     57.69        0.0188        0.0000        3.4472        3.4472       3.428409       0.01035
  22     68.43        0.0188        0.0000        3.4329        3.4329       3.414154       0.01121
  21     81.20        0.0188        0.0000        3.4152        3.4152       3.396433       0.01171
  20     96.49        0.0188        0.0000        3.3940        3.3941       3.375298       0.01166
  19     114.6        0.0188        0.0000        3.3693        3.3694       3.350590       0.01154
  18     136.5        0.0188        0.0000        3.3424        3.3425       3.323714       0.01033
  17     162.9        0.0188        0.0001        3.3141        3.3142       3.295407       0.00905
  16     196.4        0.0188        0.0001        3.2825        3.2826       3.263824       0.00795
  15     218.7        0.0188        0.0001        3.2621        3.2622       3.243461       0.00773
  14     243.0        0.0187        0.0001        3.2371        3.2372       3.218459       0.00867
  13     269.0        0.0187        0.0001        3.2052        3.2053       3.186587       0.01034
  12     297.5        0.0188        0.0001        3.1631        3.1632       3.144407       0.01251
  11     328.5        0.0188        0.0001        3.1094        3.1095       3.090775       0.01458
  10     361.9        0.0188        0.0001        3.0408        3.0409       3.022168       0.01736
   9     398.1        0.0188        0.0001        2.9535        2.9536       2.934829       0.02035
   8     437.6        0.0188        0.0001        2.8452        2.8453       2.826469       0.02317
   7     480.5        0.0189        0.0001        2.7179        2.7180       2.699162       0.02500
   6     533.0        0.0190        0.0002        2.5566        2.5568       2.537789       0.02596
   5     589.8        0.0191        0.0002        2.3805        2.3807       2.361617       0.02615
   4     651.6        0.0193        0.0002        2.1827        2.1828       2.163554       0.02709
   3     718.7        0.0196        0.0002        1.9647        1.9649       1.945300       0.02743
   2     792.3        0.0201        0.0002        1.7211        1.7212       1.701080       0.02801
   1     891.5        0.0213        0.0002        1.4114        1.4116       1.390254       0.02645
   0    1013.0        0.0239        0.0001        1.1008        1.1009       1.077020       0.02175



 Wavenumbers:  3250. -  4000. cm-1, ATM      1
 LEVEL PRESSURE   UPWARD FLUX   DIFDOWN FLUX  DIRDOWN FLUX  DOWNWARD FLUX   NET FLUX    HEATING RATE
          mb          W/m2          W/m2          W/m2        W/m2          W/m2       degree/day
  51    .06700        0.0004        0.0000        5.9117        5.9117       5.911213       0.00000
  50    .07753        0.0004        0.0000        5.9074        5.9074       5.907002       3.37561
  49    .09103        0.0004        0.0000        5.9050        5.9050       5.904537       1.54074
  48    0.1069        0.0004        0.0000        5.9031        5.9031       5.902648       1.00535
  47    0.1255        0.0004        0.0000        5.9013        5.9013       5.900870       0.80634
  46    0.1487        0.0004        0.0000        5.8994        5.8994       5.898957       0.69708
  45    0.1794        0.0004        0.0000        5.8972        5.8972       5.896781       0.59741
  44    0.2165        0.0004        0.0000        5.8951        5.8951       5.894634       0.48841
  43    0.2613        0.0004        0.0000        5.8929        5.8929       5.892438       0.41398
  42    0.3336        0.0004        0.0000        5.8897        5.8897       5.889218       0.37536
  41    0.4307        0.0004        0.0000        5.8857        5.8857       5.885307       0.34011
  40    0.5894        0.0004        0.0000        5.8798        5.8798       5.879400       0.31410
  39     1.339        0.0004        0.0000        5.8590        5.8590       5.858598       0.23419
  38     1.782        0.0004        0.0000        5.8506        5.8506       5.850130       0.16123
  37     2.292        0.0004        0.0000        5.8424        5.8424       5.841925       0.13590
  36     2.964        0.0004        0.0000        5.8327        5.8327       5.832276       0.12112
  35     3.853        0.0004        0.0000        5.8206        5.8206       5.820129       0.11528
  34     5.035        0.0004        0.0000        5.8045        5.8045       5.804097       0.11452
  33     6.613        0.0004        0.0000        5.7828        5.7828       5.782361       0.11620
  32     8.786        0.0004        0.0000        5.7527        5.7527       5.752258       0.11691
  31     11.80        0.0004        0.0000        5.7088        5.7089       5.708436       0.12269
  30     15.07        0.0004        0.0000        5.6617        5.6618       5.661344       0.12158
  29     18.79        0.0004        0.0000        5.6101        5.6102       5.609759       0.11696
  28     23.16        0.0004        0.0000        5.5539        5.5539       5.553497       0.10879
  27     28.12        0.0004        0.0000        5.4957        5.4958       5.495349       0.09885
  26     33.73        0.0004        0.0000        5.4379        5.4379       5.437539       0.08692
  25     40.54        0.0004        0.0001        5.3749        5.3750       5.374579       0.07811
  24     48.69        0.0004        0.0001        5.3044        5.3045       5.304117       0.07292
  23     57.69        0.0004        0.0001        5.2294        5.2295       5.229114       0.07030
  22     68.43        0.0004        0.0001        5.1416        5.1417       5.141352       0.06899
  21     81.20        0.0003        0.0001        5.0402        5.0403       5.039939       0.06701
  20     96.49        0.0003        0.0001        4.9260        4.9261       4.925757       0.06302
  19     114.6        0.0003        0.0001        4.7954        4.7956       4.795282       0.06092
  18     136.5        0.0003        0.0002        4.6558        4.6560       4.655689       0.05368
  17     162.9        0.0002        0.0002        4.4963        4.4964       4.496198       0.05098
  16     196.4        0.0002        0.0002        4.2728        4.2731       4.272844       0.05622
  15     218.7        0.0002        0.0002        4.0724        4.0727       4.072475       0.07607
  14     243.0        0.0002        0.0002        3.8102        3.8105       3.810328       0.09092
  13     269.0        0.0001        0.0002        3.4720        3.4722       3.472078       0.10973
  12     297.5        0.0001        0.0002        3.0589        3.0591       3.058992       0.12252
  11     328.5        0.0001        0.0002        2.6499        2.6502       2.650070       0.11118
  10     361.9        0.0001        0.0002        2.2815        2.2817       2.281613       0.09322
   9     398.1        0.0001        0.0002        1.9524        1.9526       1.952511       0.07667
   8     437.6        0.0001        0.0002        1.6512        1.6515       1.651404       0.06438
   7     480.5        0.0000        0.0002        1.3776        1.3778       1.377760       0.05374
   6     533.0        0.0000        0.0002        1.0886        1.0888       1.088783       0.04649
   5     589.8        0.0000        0.0002        0.8105        0.8106       0.810590       0.04129
   4     651.6        0.0000        0.0001        0.5333        0.5334       0.533396       0.03791
   3     718.7        0.0000        0.0001        0.3032        0.3033       0.303281       0.02892
   2     792.3        0.0000        0.0001        0.1278        0.1279       0.127852       0.02012
   1     891.5        0.0000        0.0000        0.0187        0.0187       0.018737       0.00929
   0    1013.0        0.0000        0.0000        0.0004        0.0004       0.000378       0.00127



 Wavenumbers:  4000. -  4650. cm-1, ATM      1
 LEVEL PRESSURE   UPWARD FLUX   DIFDOWN FLUX  DIRDOWN FLUX  DOWNWARD FLUX   NET FLUX    HEATING RATE
          mb          W/m2          W/m2          W/m2        W/m2          W/m2       degree/day
  51    .06700        0.2138        0.0000        6.9421        6.9421       6.728219       0.00000
  50    .07753        0.2138        0.0000        6.9421        6.9421       6.728218       0.00080
  49    .09103        0.2138        0.0000        6.9421        6.9421       6.728217       0.00078
  48    0.1069        0.2138        0.0000        6.9421        6.9421       6.728215       0.00076
  47    0.1255        0.2138        0.0000        6.9421        6.9421       6.728214       0.00075
  46    0.1487        0.2138        0.0000        6.9421        6.9421       6.728212       0.00076
  45    0.1794        0.2138        0.0000        6.9421        6.9421       6.728209       0.00078
  44    0.2165        0.2138        0.0000        6.9421        6.9421       6.728205       0.00076
  43    0.2613        0.2138        0.0000        6.9420        6.9421       6.728202       0.00075
  42    0.3336        0.2138        0.0000        6.9420        6.9420       6.728195       0.00077
  41    0.4307        0.2138        0.0000        6.9420        6.9420       6.728186       0.00077
  40    0.5894        0.2138        0.0000        6.9420        6.9420       6.728171       0.00080
  39     1.339        0.2138        0.0000        6.9419        6.9419       6.728082       0.00101
  38     1.782        0.2138        0.0000        6.9418        6.9419       6.728012       0.00133
  37     2.292        0.2138        0.0000        6.9418        6.9418       6.727918       0.00156
  36     2.964        0.2138        0.0000        6.9416        6.9416       6.727778       0.00176
  35     3.853        0.2138        0.0000        6.9414        6.9414       6.727570       0.00197
  34     5.035        0.2138        0.0000        6.9411        6.9411       6.727264       0.00219
  33     6.613        0.2138        0.0000        6.9406        6.9406       6.726814       0.00241
  32     8.786        0.2138        0.0000        6.9399        6.9400       6.726151       0.00258
  31     11.80        0.2138        0.0000        6.9389        6.9389       6.725112       0.00291
  30     15.07        0.2138        0.0001        6.9376        6.9377       6.723896       0.00314
  29     18.79        0.2138        0.0001        6.9361        6.9362       6.722432       0.00332
  28     23.16        0.2138        0.0001        6.9343        6.9344       6.720620       0.00350
  27     28.12        0.2138        0.0001        6.9321        6.9322       6.718437       0.00371
  26     33.73        0.2137        0.0001        6.9294        6.9295       6.715760       0.00403
  25     40.54        0.2137        0.0001        6.9257        6.9259       6.712150       0.00448
  24     48.69        0.2137        0.0002        6.9209        6.9211       6.707372       0.00494
  23     57.69        0.2137        0.0002        6.9152        6.9154       6.701752       0.00527
  22     68.43        0.2136        0.0002        6.9081        6.9084       6.694769       0.00549
  21     81.20        0.2136        0.0003        6.8995        6.8998       6.686233       0.00564
  20     96.49        0.2135        0.0003        6.8891        6.8895       6.675930       0.00569
  19     114.6        0.2135        0.0004        6.8762        6.8766       6.663169       0.00596
  18     136.5        0.2134        0.0005        6.8608        6.8613       6.647909       0.00587
  17     162.9        0.2133        0.0006        6.8421        6.8427       6.629358       0.00593
  16     196.4        0.2133        0.0007        6.8166        6.8173       6.604030       0.00638
  15     218.7        0.2132        0.0008        6.7976        6.7983       6.585103       0.00719
  14     243.0        0.2132        0.0008        6.7731        6.7740       6.560805       0.00843
  13     269.0        0.2131        0.0009        6.7409        6.7419       6.528738       0.01040
  12     297.5        0.2131        0.0010        6.6982        6.6992       6.486072       0.01265
  11     328.5        0.2132        0.0011        6.6434        6.6446       6.431391       0.01487
  10     361.9        0.2132        0.0012        6.5741        6.5754       6.362127       0.01752
   9     398.1        0.2133        0.0013        6.4889        6.4903       6.276952       0.01984
   8     437.6        0.2135        0.0015        6.3876        6.3891       6.175649       0.02166
   7     480.5        0.2136        0.0016        6.2749        6.2764       6.062805       0.02216
   6     533.0        0.2139        0.0017        6.1332        6.1349       5.920955       0.02282
   5     589.8        0.2144        0.0019        5.9653        5.9672       5.752770       0.02496
   4     651.6        0.2152        0.0020        5.7389        5.7409       5.525732       0.03105
   3     718.7        0.2164        0.0021        5.4502        5.4523       5.235910       0.03642
   2     792.3        0.2185        0.0022        5.1134        5.1156       4.897071       0.03886
   1     891.5        0.2234        0.0023        4.6750        4.6773       4.453881       0.03771
   0    1013.0        0.2346        0.0024        4.1801        4.1825       3.947816       0.03514



 Wavenumbers:  4650. -  5150. cm-1, ATM      1
 LEVEL PRESSURE   UPWARD FLUX   DIFDOWN FLUX  DIRDOWN FLUX  DOWNWARD FLUX   NET FLUX    HEATING RATE
          mb          W/m2          W/m2          W/m2        W/m2          W/m2       degree/day
  51    .06700        0.0411        0.0000        6.5710        6.5710       6.529917       0.00000
  50    .07753        0.0411        0.0000        6.5708        6.5708       6.529682       0.18877
  49    .09103        0.0411        0.0000        6.5705        6.5705       6.529388       0.18352
  48    0.1069        0.0411        0.0000        6.5701        6.5701       6.529054       0.17796
  47    0.1255        0.0411        0.0000        6.5697        6.5697       6.528674       0.17229
  46    0.1487        0.0411        0.0000        6.5693        6.5693       6.528200       0.17259
  45    0.1794        0.0411        0.0000        6.5686        6.5686       6.527564       0.17464
  44    0.2165        0.0411        0.0000        6.5679        6.5679       6.526826       0.16778
  43    0.2613        0.0411        0.0000        6.5670        6.5670       6.525974       0.16069
  42    0.3336        0.0411        0.0000        6.5657        6.5657       6.524611       0.15885
  41    0.4307        0.0411        0.0000        6.5640        6.5640       6.522891       0.14962
  40    0.5894        0.0411        0.0000        6.5613        6.5613       6.520276       0.13905
  39     1.339        0.0411        0.0000        6.5516        6.5516       6.510504       0.11001
  38     1.782        0.0411        0.0000        6.5473        6.5474       6.506291       0.08021
  37     2.292        0.0411        0.0000        6.5435        6.5435       6.502407       0.06433
  36     2.964        0.0411        0.0000        6.5395        6.5395       6.498455       0.04960
  35     3.853        0.0411        0.0000        6.5356        6.5356       6.494516       0.03739
  34     5.035        0.0410        0.0000        6.5315        6.5316       6.490517       0.02856
  33     6.613        0.0410        0.0000        6.5271        6.5272       6.486128       0.02347
  32     8.786        0.0410        0.0000        6.5216        6.5217       6.480640       0.02131
  31     11.80        0.0410        0.0001        6.5135        6.5136       6.472572       0.02259
  30     15.07        0.0410        0.0001        6.5041        6.5042       6.463216       0.02415
  29     18.79        0.0410        0.0001        6.4926        6.4927       6.451716       0.02607
  28     23.16        0.0410        0.0001        6.4780        6.4781       6.437145       0.02818
  27     28.12        0.0409        0.0002        6.4600        6.4601       6.419197       0.03051
  26     33.73        0.0409        0.0002        6.4385        6.4387       6.397800       0.03217
  25     40.54        0.0409        0.0002        6.4114        6.4116       6.370719       0.03360
  24     48.69        0.0408        0.0003        6.3777        6.3780       6.337141       0.03475
  23     57.69        0.0408        0.0003        6.3406        6.3409       6.300119       0.03470
  22     68.43        0.0407        0.0004        6.2974        6.2977       6.257017       0.03388
  21     81.20        0.0407        0.0004        6.2485        6.2490       6.208314       0.03218
  20     96.49        0.0406        0.0005        6.1952        6.1957       6.155084       0.02938
  19     114.6        0.0405        0.0006        6.1386        6.1392       6.098648       0.02635
  18     136.5        0.0404        0.0007        6.0795        6.0802       6.039838       0.02261
  17     162.9        0.0403        0.0008        6.0168        6.0176       5.977353       0.01997
  16     196.4        0.0401        0.0010        5.9412        5.9422       5.902084       0.01895
  15     218.7        0.0401        0.0011        5.8915        5.8926       5.852502       0.01882
  14     243.0        0.0400        0.0012        5.8346        5.8358       5.795886       0.01964
  13     269.0        0.0399        0.0013        5.7676        5.7689       5.729059       0.02168
  12     297.5        0.0398        0.0014        5.6858        5.6872       5.647467       0.02420
  11     328.5        0.0397        0.0016        5.5899        5.5915       5.551839       0.02600
  10     361.9        0.0396        0.0017        5.4787        5.4805       5.440897       0.02807
   9     398.1        0.0395        0.0018        5.3502        5.3521       5.312625       0.02988
   8     437.6        0.0394        0.0020        5.2035        5.2054       5.166056       0.03134
   7     480.5        0.0393        0.0021        5.0390        5.0411       5.001784       0.03226
   6     533.0        0.0393        0.0023        4.8308        4.8331       4.793801       0.03346
   5     589.8        0.0393        0.0024        4.6030        4.6054       4.566160       0.03379
   4     651.6        0.0394        0.0025        4.3500        4.3526       4.313205       0.03459
   3     718.7        0.0396        0.0027        4.0793        4.0819       4.042346       0.03404
   2     792.3        0.0400        0.0027        3.7904        3.7931       3.753126       0.03317
   1     891.5        0.0410        0.0028        3.4079        3.4108       3.369737       0.03262
   0    1013.0        0.0432        0.0029        2.9969        2.9998       2.956565       0.02869



 Wavenumbers:  5150. -  6150. cm-1, ATM      1
 LEVEL PRESSURE   UPWARD FLUX   DIFDOWN FLUX  DIRDOWN FLUX  DOWNWARD FLUX   NET FLUX    HEATING RATE
          mb          W/m2          W/m2          W/m2        W/m2          W/m2       degree/day
  51    .06700        0.5327        0.0000       16.4735       16.4735      15.940855       0.00000
  50    .07753        0.5327        0.0000       16.4735       16.4735      15.940815       0.03155
  49    .09103        0.5327        0.0000       16.4734       16.4734      15.940764       0.03204
  48    0.1069        0.5327        0.0000       16.4734       16.4734      15.940703       0.03254
  47    0.1255        0.5327        0.0000       16.4733       16.4733      15.940630       0.03304
  46    0.1487        0.5327        0.0000       16.4732       16.4732      15.940534       0.03480
  45    0.1794        0.5326        0.0000       16.4730       16.4730      15.940400       0.03704
  44    0.2165        0.5326        0.0000       16.4729       16.4729      15.940234       0.03759
  43    0.2613        0.5326        0.0000       16.4727       16.4727      15.940032       0.03815
  42    0.3336        0.5326        0.0000       16.4723       16.4723      15.939686       0.04029
  41    0.4307        0.5326        0.0000       16.4719       16.4719      15.939217       0.04079
  40    0.5894        0.5326        0.0000       16.4711       16.4711      15.938432       0.04174
  39     1.339        0.5326        0.0000       16.4673       16.4673      15.934669       0.04236
  38     1.782        0.5326        0.0000       16.4651       16.4651      15.932493       0.04143
  37     2.292        0.5326        0.0001       16.4626       16.4626      15.930043       0.04059
  36     2.964        0.5326        0.0001       16.4595       16.4595      15.926948       0.03884
  35     3.853        0.5326        0.0001       16.4555       16.4556      15.923047       0.03703
  34     5.035        0.5325        0.0001       16.4505       16.4506      15.918072       0.03554
  33     6.613        0.5325        0.0002       16.4440       16.4442      15.911701       0.03406
  32     8.786        0.5324        0.0002       16.4358       16.4360      15.903584       0.03153
  31     11.80        0.5324        0.0003       16.4249       16.4252      15.892841       0.03008
  30     15.07        0.5323        0.0004       16.4143       16.4146      15.882338       0.02712
  29     18.79        0.5322        0.0005       16.4034       16.4039      15.871652       0.02423
  28     23.16        0.5321        0.0006       16.3920       16.3925      15.860435       0.02169
  27     28.12        0.5320        0.0007       16.3803       16.3810      15.848999       0.01944
  26     33.73        0.5319        0.0008       16.3687       16.3696      15.837698       0.01699
  25     40.54        0.5317        0.0010       16.3564       16.3574      15.825694       0.01489
  24     48.69        0.5315        0.0012       16.3435       16.3447      15.813174       0.01296
  23     57.69        0.5313        0.0014       16.3309       16.3323      15.801009       0.01140
  22     68.43        0.5311        0.0017       16.3174       16.3191      15.788024       0.01021
  21     81.20        0.5308        0.0020       16.3027       16.3047      15.773886       0.00934
  20     96.49        0.5305        0.0024       16.2861       16.2885      15.758052       0.00874
  19     114.6        0.5301        0.0029       16.2671       16.2699      15.739830       0.00851
  18     136.5        0.5296        0.0034       16.2445       16.2479      15.718293       0.00828
  17     162.9        0.5291        0.0040       16.2108       16.2148      15.685742       0.01040
  16     196.4        0.5284        0.0048       16.1360       16.1408      15.612448       0.01845
  15     218.7        0.5279        0.0054       16.0099       16.0153      15.487354       0.04749
  14     243.0        0.5274        0.0059       15.7396       15.7455      15.218108       0.09338
  13     269.0        0.5269        0.0064       15.3077       15.3141      14.787160       0.13980
  12     297.5        0.5264        0.0069       14.7951       14.8019      14.275535       0.15174
  11     328.5        0.5259        0.0073       14.2426       14.2500      13.724060       0.14994
  10     361.9        0.5254        0.0078       13.6155       13.6233      13.097890       0.15843
   9     398.1        0.5249        0.0082       12.9439       12.9521      12.427194       0.15626
   8     437.6        0.5244        0.0086       12.2429       12.2515      11.727053       0.14969
   7     480.5        0.5240        0.0090       11.5524       11.5614      11.037352       0.13545
   6     533.0        0.5236        0.0093       10.8188       10.8282      10.304556       0.11788
   5     589.8        0.5234        0.0097       10.1668       10.1765       9.653143       0.09669
   4     651.6        0.5235        0.0101        9.5867        9.5967       9.073253       0.07930
   3     718.7        0.5241        0.0105        9.1006        9.1111       8.586929       0.06112
   2     792.3        0.5259        0.0110        8.6172        8.6282       8.102311       0.05558
   1     891.5        0.5310        0.0116        7.9587        7.9702       7.439243       0.05642
   0    1013.0        0.5446        0.0121        7.3371        7.3492       6.804628       0.04406



 Wavenumbers:  6150. -  7700. cm-1, ATM      1
 LEVEL PRESSURE   UPWARD FLUX   DIFDOWN FLUX  DIRDOWN FLUX  DOWNWARD FLUX   NET FLUX    HEATING RATE
          mb          W/m2          W/m2          W/m2        W/m2          W/m2       degree/day
  51    .06700        1.2822        0.0000       30.4684       30.4684      29.186213       0.00000
  50    .07753        1.2822        0.0000       30.4683       30.4683      29.186156       0.04553
  49    .09103        1.2822        0.0000       30.4682       30.4683      29.186083       0.04582
  48    0.1069        1.2822        0.0000       30.4682       30.4682      29.185996       0.04613
  47    0.1255        1.2822        0.0000       30.4681       30.4681      29.185894       0.04643
  46    0.1487        1.2822        0.0000       30.4679       30.4679      29.185761       0.04850
  45    0.1794        1.2822        0.0000       30.4677       30.4677      29.185574       0.05124
  44    0.2165        1.2822        0.0000       30.4675       30.4675      29.185347       0.05163
  43    0.2613        1.2822        0.0000       30.4672       30.4672      29.185071       0.05205
  42    0.3336        1.2821        0.0000       30.4667       30.4667      29.184603       0.05464
  41    0.4307        1.2821        0.0000       30.4661       30.4661      29.183969       0.05511
  40    0.5894        1.2821        0.0001       30.4650       30.4650      29.182912       0.05619
  39     1.339        1.2820        0.0001       30.4598       30.4599      29.177848       0.05701
  38     1.782        1.2820        0.0002       30.4567       30.4569      29.174905       0.05603
  37     2.292        1.2819        0.0002       30.4533       30.4535      29.171570       0.05523
  36     2.964        1.2819        0.0003       30.4489       30.4492      29.167320       0.05335
  35     3.853        1.2818        0.0004       30.4433       30.4437      29.161898       0.05146
  34     5.035        1.2817        0.0005       30.4360       30.4366      29.154906       0.04995
  33     6.613        1.2815        0.0007       30.4266       30.4273      29.145836       0.04849
  32     8.786        1.2813        0.0009       30.4144       30.4154      29.134075       0.04567
  31     11.80        1.2810        0.0013       30.3978       30.3991      29.118135       0.04463
  30     15.07        1.2806        0.0016       30.3811       30.3827      29.102094       0.04141
  29     18.79        1.2803        0.0020       30.3635       30.3655      29.085231       0.03823
  28     23.16        1.2798        0.0025       30.3443       30.3468      29.066976       0.03530
  27     28.12        1.2793        0.0030       30.3239       30.3269      29.047622       0.03290
  26     33.73        1.2787        0.0036       30.3029       30.3065      29.027801       0.02980
  25     40.54        1.2780        0.0043       30.2799       30.2842      29.006117       0.02690
  24     48.69        1.2772        0.0052       30.2548       30.2599      28.982729       0.02420
  23     57.69        1.2763        0.0061       30.2296       30.2357      28.959394       0.02187
  22     68.43        1.2752        0.0072       30.2020       30.2092      28.934024       0.01994
  21     81.20        1.2739        0.0086       30.1714       30.1800      28.906093       0.01846
  20     96.49        1.2724        0.0102       30.1369       30.1471      28.874687       0.01733
  19     114.6        1.2705        0.0121       30.0970       30.1091      28.838592       0.01685
  18     136.5        1.2683        0.0144       30.0504       30.0648      28.796440       0.01621
  17     162.9        1.2657        0.0171       29.9842       30.0012      28.735504       0.01948
  16     196.4        1.2624        0.0205       29.8533       29.8738      28.611441       0.03123
  15     218.7        1.2602        0.0228       29.6742       29.6970      28.436823       0.06630
  14     243.0        1.2578        0.0251       29.3154       29.3405      28.082640       0.12284
  13     269.0        1.2554        0.0274       28.6682       28.6956      27.440157       0.20842
  12     297.5        1.2529        0.0295       27.7720       27.8015      26.548659       0.26441
  11     328.5        1.2503        0.0317       26.8285       26.8601      25.609829       0.25527
  10     361.9        1.2477        0.0338       25.7886       25.8224      24.574720       0.26189
   9     398.1        1.2451        0.0358       24.6047       24.6405      23.395367       0.27476
   8     437.6        1.2426        0.0376       23.3058       23.3434      22.100758       0.27680
   7     480.5        1.2403        0.0391       21.9700       22.0091      20.768792       0.26159
   6     533.0        1.2381        0.0407       20.4313       20.4720      19.233964       0.24691
   5     589.8        1.2366        0.0420       18.8913       18.9333      17.696671       0.22818
   4     651.6        1.2368        0.0427       17.2864       17.3292      16.092384       0.21939
   3     718.7        1.2398        0.0432       15.7330       15.7762      14.536395       0.19554
   2     792.3        1.2480        0.0434       14.2351       14.2785      13.030427       0.17272
   1     891.5        1.2720        0.0434       12.5248       12.5682      11.296181       0.14758
   0    1013.0        1.3350        0.0434       10.9349       10.9783       9.643366       0.11476



 Wavenumbers:  7700. -  8050. cm-1, ATM      1
 LEVEL PRESSURE   UPWARD FLUX   DIFDOWN FLUX  DIRDOWN FLUX  DOWNWARD FLUX   NET FLUX    HEATING RATE
          mb          W/m2          W/m2          W/m2        W/m2          W/m2       degree/day
  51    .06700        2.3163        0.0000        7.2006        7.2006       4.884286       0.00000
  50    .07753        2.3163        0.0000        7.2006        7.2006       4.884266       0.01539
  49    .09103        2.3163        0.0000        7.2005        7.2005       4.884242       0.01508
  48    0.1069        2.3163        0.0000        7.2005        7.2005       4.884215       0.01476
  47    0.1255        2.3163        0.0000        7.2005        7.2005       4.884183       0.01445
  46    0.1487        2.3163        0.0000        7.2004        7.2005       4.884143       0.01466
  45    0.1794        2.3163        0.0000        7.2004        7.2004       4.884088       0.01508
  44    0.2165        2.3163        0.0000        7.2003        7.2003       4.884023       0.01480
  43    0.2613        2.3163        0.0000        7.2003        7.2003       4.883946       0.01452
  42    0.3336        2.3163        0.0000        7.2001        7.2001       4.883818       0.01486
  41    0.4307        2.3163        0.0000        7.2000        7.2000       4.883649       0.01469
  40    0.5894        2.3164        0.0000        7.1997        7.1997       4.883373       0.01468
  39     1.339        2.3164        0.0001        7.1984        7.1985       4.882068       0.01469
  38     1.782        2.3165        0.0001        7.1977        7.1978       4.881302       0.01459
  37     2.292        2.3165        0.0001        7.1968        7.1969       4.880415       0.01469
  36     2.964        2.3166        0.0001        7.1957        7.1958       4.879251       0.01461
  35     3.853        2.3167        0.0002        7.1942        7.1944       4.877714       0.01459
  34     5.035        2.3168        0.0002        7.1922        7.1925       4.875674       0.01457
  33     6.613        2.3169        0.0003        7.1896        7.1899       4.872951       0.01456
  32     8.786        2.3172        0.0004        7.1860        7.1864       4.869287       0.01423
  31     11.80        2.3175        0.0005        7.1810        7.1815       4.864057       0.01464
  30     15.07        2.3178        0.0007        7.1755        7.1762       4.858458       0.01446
  29     18.79        2.3182        0.0009        7.1694        7.1703       4.852152       0.01430
  28     23.16        2.3186        0.0011        7.1623        7.1634       4.844814       0.01419
  27     28.12        2.3191        0.0013        7.1543        7.1555       4.836458       0.01420
  26     33.73        2.3196        0.0016        7.1453        7.1468       4.827155       0.01399
  25     40.54        2.3203        0.0019        7.1344        7.1363       4.815981       0.01386
  24     48.69        2.3211        0.0022        7.1215        7.1238       4.802607       0.01384
  23     57.69        2.3221        0.0026        7.1075        7.1101       4.788037       0.01366
  22     68.43        2.3232        0.0031        7.0909        7.0940       4.770848       0.01351
  21     81.20        2.3245        0.0037        7.0714        7.0751       4.750600       0.01338
  20     96.49        2.3260        0.0044        7.0484        7.0528       4.726790       0.01314
  19     114.6        2.3279        0.0052        7.0217        7.0269       4.698957       0.01300
  18     136.5        2.3302        0.0062        6.9906        6.9968       4.666552       0.01246
  17     162.9        2.3330        0.0073        6.9544        6.9617       4.628747       0.01208
  16     196.4        2.3366        0.0088        6.9088        6.9176       4.580921       0.01204
  15     218.7        2.3391        0.0098        6.8795        6.8892       4.550139       0.01169
  14     243.0        2.3418        0.0108        6.8482        6.8590       4.517187       0.01143
  13     269.0        2.3448        0.0119        6.8148        6.8268       4.481983       0.01142
  12     297.5        2.3481        0.0132        6.7794        6.7925       4.444409       0.01114
  11     328.5        2.3518        0.0145        6.7415        6.7560       4.404215       0.01093
  10     361.9        2.3559        0.0159        6.7014        6.7173       4.361379       0.01084
   9     398.1        2.3605        0.0174        6.6586        6.6760       4.315504       0.01069
   8     437.6        2.3657        0.0190        6.6128        6.6318       4.266155       0.01055
   7     480.5        2.3715        0.0207        6.5638        6.5845       4.212953       0.01045
   6     533.0        2.3792        0.0228        6.5031        6.5259       4.146639       0.01067
   5     589.8        2.3883        0.0251        6.4362        6.4613       4.073010       0.01093
   4     651.6        2.3993        0.0275        6.3609        6.3884       3.989055       0.01148
   3     718.7        2.4129        0.0300        6.2745        6.3045       3.891571       0.01225
   2     792.3        2.4304        0.0327        6.1727        6.2054       3.774995       0.01337
   1     891.5        2.4598        0.0362        6.0169        6.0531       3.593208       0.01547
   0    1013.0        2.5063        0.0402        5.8007        5.8408       3.334537       0.01796



 Wavenumbers:  8050. - 12850. cm-1, ATM      1
 LEVEL PRESSURE   UPWARD FLUX   DIFDOWN FLUX  DIRDOWN FLUX  DOWNWARD FLUX   NET FLUX    HEATING RATE
          mb          W/m2          W/m2          W/m2        W/m2          W/m2       degree/day
  51    .06700       51.2710        0.0000      100.8135      100.8135      49.542558       0.00000
  50    .07753       51.2709        0.0000      100.8135      100.8135      49.542558       0.00000
  49    .09103       51.2709        0.0001      100.8134      100.8135      49.542558       0.00000
  48    0.1069       51.2709        0.0001      100.8134      100.8135      49.542558      -0.00000
  47    0.1255       51.2709        0.0001      100.8133      100.8134      49.542558      -0.00000
  46    0.1487       51.2708        0.0002      100.8132      100.8134      49.542558       0.00000
  45    0.1794       51.2708        0.0003      100.8131      100.8133      49.542558      -0.00000
  44    0.2165       51.2707        0.0004      100.8129      100.8133      49.542558       0.00000
  43    0.2613       51.2707        0.0005      100.8127      100.8132      49.542558       0.00000
  42    0.3336       51.2706        0.0007      100.8125      100.8131      49.542558      -0.00000
  41    0.4307       51.2704        0.0009      100.8121      100.8130      49.542558       0.00000
  40    0.5894       51.2702        0.0013      100.8115      100.8127      49.542558      -0.00000
  39     1.339       51.2691        0.0031      100.8085      100.8116      49.542558      -0.00000
  38     1.782       51.2684        0.0042      100.8068      100.8110      49.542558      -0.00000
  37     2.292       51.2676        0.0054      100.8047      100.8102      49.542558       0.00000
  36     2.964       51.2666        0.0071      100.8021      100.8092      49.542558       0.00000
  35     3.853       51.2653        0.0093      100.7986      100.8079      49.542558      -0.00000
  34     5.035       51.2635        0.0121      100.7940      100.8061      49.542558       0.00000
  33     6.613       51.2612        0.0160      100.7878      100.8037      49.542558       0.00000
  32     8.786       51.2580        0.0212      100.7794      100.8006      49.542558      -0.00000
  31     11.80       51.2535        0.0286      100.7674      100.7960      49.542558       0.00000
  30     15.07       51.2486        0.0366      100.7546      100.7912      49.542558      -0.00000
  29     18.79       51.2431        0.0456      100.7400      100.7856      49.542558       0.00000
  28     23.16       51.2366        0.0562      100.7230      100.7792      49.542558       0.00000
  27     28.12       51.2292        0.0683      100.7035      100.7718      49.542558       0.00000
  26     33.73       51.2209        0.0818      100.6817      100.7635      49.542558      -0.00000
  25     40.54       51.2109        0.0982      100.6552      100.7535      49.542558      -0.00000
  24     48.69       51.1988        0.1180      100.6234      100.7414      49.542558       0.00000
  23     57.69       51.1855        0.1398      100.5883      100.7281      49.542558       0.00000
  22     68.43       51.1696        0.1657      100.5464      100.7122      49.542558       0.00000
  21     81.20       51.1507        0.1967      100.4965      100.6932      49.542558       0.00000
  20     96.49       51.1281        0.2337      100.4370      100.6706      49.542558      -0.00000
  19     114.6       51.1013        0.2776      100.3601      100.6377      49.536447       0.00285
  18     136.5       51.0694        0.3298      100.2685      100.5983      49.528879       0.00291
  17     162.9       51.0314        0.3921      100.1557      100.5478      49.516339       0.00401
  16     196.4       50.9821        0.4730       99.9935      100.4664      49.484342       0.00805
  15     218.7       50.9497        0.5261       99.8490      100.3751      49.425404       0.02238
  14     243.0       50.9147        0.5839       99.6218      100.2057      49.290957       0.04663
  13     269.0       50.8773        0.6462       99.2701       99.9163      49.038993       0.08174
  12     297.5       50.8380        0.7132       98.7863       99.4995      48.661536       0.11195
  11     328.5       50.7968        0.7854       98.2127       98.9981      48.201263       0.12515
  10     361.9       50.7544        0.8626       97.5096       98.3722      47.617735       0.14764
   9     398.1       50.7119        0.9450       96.6249       97.5699      46.857960       0.17701
   8     437.6       50.6710        1.0322       95.5141       96.5462      45.875213       0.21012
   7     480.5       50.6341        1.1241       94.1664       95.2905      44.656411       0.23937
   6     533.0       50.6013        1.2345       92.2972       93.5318      42.930422       0.27766
   5     589.8       50.5892        1.3494       90.0044       91.3537      40.764529       0.32149
   4     651.6       50.6238        1.4659       87.0975       88.5634      37.939607       0.38632
   3     718.7       50.7382        1.5829       83.6639       85.2468      34.508557       0.43119
   2     792.3       51.0039        1.6972       79.5919       81.2891      30.285153       0.48438
   1     891.5       51.7285        1.8326       73.8807       75.7133      23.984795       0.53613
   0    1013.0       53.4764        1.9741       67.5841       69.5583      16.081871       0.54874



 Wavenumbers: 12850. - 16000. cm-1, ATM      1
 LEVEL PRESSURE   UPWARD FLUX   DIFDOWN FLUX  DIRDOWN FLUX  DOWNWARD FLUX   NET FLUX    HEATING RATE
          mb          W/m2          W/m2          W/m2        W/m2          W/m2       degree/day
  51    .06700       48.5313        0.0000       63.1686       63.1686      14.637305       0.00000
  50    .07753       48.5313        0.0001       63.1677       63.1678      14.636523       0.62706
  49    .09103       48.5312        0.0001       63.1666       63.1668      14.635547       0.60976
  48    0.1069       48.5312        0.0002       63.1654       63.1656      14.634435       0.59172
  47    0.1255       48.5312        0.0003       63.1640       63.1644      14.633170       0.57366
  46    0.1487       48.5312        0.0005       63.1623       63.1627      14.631590       0.57584
  45    0.1794       48.5311        0.0006       63.1600       63.1606      14.629470       0.58219
  44    0.2165       48.5311        0.0008       63.1573       63.1581      14.627014       0.55863
  43    0.2613       48.5311        0.0011       63.1542       63.1553      14.624177       0.53478
  42    0.3336       48.5311        0.0015       63.1493       63.1508      14.619647       0.52809
  41    0.4307       48.5312        0.0020       63.1431       63.1452      14.613968       0.49381
  40    0.5894       48.5314        0.0029       63.1338       63.1367      14.605331       0.45928
  39     1.339       48.5341        0.0070       63.0956       63.1026      14.568544       0.41416
  38     1.782       48.5369        0.0095       63.0740       63.0835      14.546582       0.41812
  37     2.292       48.5414        0.0123       63.0477       63.0600      14.518551       0.46426
  36     2.964       48.5491        0.0160       63.0095       63.0255      14.476402       0.52910
  35     3.853       48.5619        0.0209       62.9533       62.9741      14.412268       0.60864
  34     5.035       48.5813        0.0274       62.8725       62.8999      14.318541       0.66955
  33     6.613       48.6086        0.0360       62.7621       62.7981      14.189472       0.69001
  32     8.786       48.6440        0.0476       62.6182       62.6659      14.021881       0.65086
  31     11.80       48.6897        0.0642       62.4284       62.4926      13.802932       0.61299
  30     15.07       48.7329        0.0820       62.2426       62.3246      13.591745       0.54524
  29     18.79       48.7765        0.1021       62.0493       62.1514      13.374881       0.49170
  28     23.16       48.8214        0.1255       61.8425       61.9679      13.146490       0.44163
  27     28.12       48.8658        0.1521       61.6278       61.7800      12.914197       0.39488
  26     33.73       48.9053        0.1820       61.4177       61.5996      12.694293       0.33063
  25     40.54       48.9415        0.2179       61.1983       61.4162      12.474716       0.27241
  24     48.69       48.9738        0.2612       60.9680       61.2292      12.255407       0.22695
  23     57.69       48.9983        0.3087       60.7478       61.0565      12.058226       0.18483
  22     68.43       49.0156        0.3653       60.5202       60.8855      11.869846       0.14809
  21     81.20       49.0200        0.4326       60.2938       60.7265      11.706468       0.10796
  20     96.49       49.0101        0.5129       60.0643       60.5771      11.566986       0.07698
  19     114.6       49.0004        0.6089       59.8078       60.4167      11.416274       0.07037
  18     136.5       48.9818        0.7225       59.5158       60.2383      11.256492       0.06144
  17     162.9       48.9532        0.8576       59.1773       60.0349      11.081690       0.05587
  16     196.4       48.9023        1.0323       58.7611       59.7935      10.891166       0.04796
  15     218.7       48.8639        1.1468       58.4958       59.6427      10.778766       0.04267
  14     243.0       48.8200        1.2711       58.2104       59.4815      10.661495       0.04067
  13     269.0       48.7704        1.4056       57.9039       59.3095      10.539024       0.03973
  12     297.5       48.7152        1.5506       57.5736       59.1242      10.409028       0.03856
  11     328.5       48.6552        1.7070       57.2160       58.9230      10.267844       0.03839
  10     361.9       48.5908        1.8750       56.8288       58.7038      10.113013       0.03917
   9     398.1       48.5223        2.0554       56.4074       58.4628       9.940459       0.04020
   8     437.6       48.4511        2.2486       55.9445       58.1931       9.742072       0.04242
   7     480.5       48.3781        2.4549       55.4356       57.8906       9.512486       0.04509
   6     533.0       48.2951        2.7078       54.7850       57.4928       9.197684       0.05064
   5     589.8       48.2189        2.9786       54.0438       57.0224       8.803529       0.05851
   4     651.6       48.1641        3.2668       53.1687       56.4354       8.271317       0.07278
   3     718.7       48.1401        3.5704       52.1625       55.7329       7.592830       0.08527
   2     792.3       48.1779        3.8861       50.9845       54.8706       6.692757       0.10323
   1     891.5       48.3760        4.2935       49.2385       53.5321       5.156070       0.13076
   0    1013.0       48.8904        4.7548       47.0085       51.7633       2.872861       0.15853



 Wavenumbers: 16000. - 22650. cm-1, ATM      1
 LEVEL PRESSURE   UPWARD FLUX   DIFDOWN FLUX  DIRDOWN FLUX  DOWNWARD FLUX   NET FLUX    HEATING RATE
          mb          W/m2          W/m2          W/m2        W/m2          W/m2       degree/day
  51    .06700       87.6055        0.0000      100.7153      100.7153      13.109774       0.00000
  50    .07753       87.6054        0.0003      100.7147      100.7151      13.109652       0.09820
  49    .09103       87.6053        0.0008      100.7140      100.7148      13.109473       0.11138
  48    0.1069       87.6052        0.0013      100.7131      100.7144      13.109235       0.12700
  47    0.1255       87.6050        0.0018      100.7121      100.7139      13.108916       0.14477
  46    0.1487       87.6049        0.0025      100.7108      100.7133      13.108445       0.17155
  45    0.1794       87.6047        0.0035      100.7089      100.7124      13.107709       0.20198
  44    0.2165       87.6045        0.0046      100.7066      100.7112      13.106711       0.22700
  43    0.2613       87.6043        0.0060      100.7037      100.7097      13.105357       0.25520
  42    0.3336       87.6042        0.0083      100.6987      100.7070      13.102783       0.30011
  41    0.4307       87.6041        0.0112      100.6918      100.7030      13.098903       0.33735
  40    0.5894       87.6044        0.0161      100.6797      100.6959      13.091504       0.39349
  39     1.339       87.6119        0.0392      100.6095      100.6487      13.036847       0.61534
  38     1.782       87.6209        0.0528      100.5585      100.6112      12.990298       0.88621
  37     2.292       87.6358        0.0684      100.4903      100.5587      12.922937       1.11567
  36     2.964       87.6619        0.0890      100.3868      100.4758      12.813858       1.36928
  35     3.853       87.7059        0.1162      100.2306      100.3468      12.640887       1.64152
  34     5.035       87.7736        0.1522      100.0045      100.1566      12.383079       1.84167
  33     6.613       87.8688        0.2002       99.6939       99.8941      12.025294       1.91272
  32     8.786       87.9922        0.2647       99.2881       99.5528      11.560589       1.80475
  31     11.80       88.1507        0.3568       98.7496       99.1064      10.955729       1.69342
  30     15.07       88.2997        0.4553       98.2198       98.6751      10.375444       1.49818
  29     18.79       88.4490        0.5662       97.6651       98.2313       9.782321       1.34479
  28     23.16       88.6016        0.6953       97.0671       97.7624       9.160883       1.20166
  27     28.12       88.7504        0.8424       96.4406       97.2830       8.532531       1.06816
  26     33.73       88.8803        1.0065       95.8179       96.8244       7.944094       0.88473
  25     40.54       88.9947        1.2042       95.1548       96.3590       7.364260       0.71935
  24     48.69       89.0915        1.4416       94.4420       95.8836       6.792015       0.59218
  23     57.69       89.1582        1.7014       93.7416       95.4430       6.284818       0.47542
  22     68.43       89.1948        2.0096       92.9954       95.0050       5.810160       0.37314
  21     81.20       89.1800        2.3756       92.2231       94.5987       5.418714       0.25866
  20     96.49       89.1083        2.8097       91.4110       94.2207       5.112453       0.16903
  19     114.6       88.9965        3.3219       90.5070       93.8289       4.832401       0.13076
  18     136.5       88.8467        3.9242       89.4803       93.4045       4.557823       0.10558
  17     162.9       88.6531        4.6347       88.3023       92.9369       4.283812       0.08758
  16     196.4       88.3683        5.5460       86.8607       92.4067       4.038454       0.06176
  15     218.7       88.1697        6.1383       85.9494       92.0877       3.918049       0.04571
  14     243.0       87.9493        6.7767       84.9792       91.7559       3.806567       0.03867
  13     269.0       87.7062        7.4622       83.9498       91.4120       3.705854       0.03267
  12     297.5       87.4396        8.1957       82.8601       91.0558       3.616155       0.02660
  11     328.5       87.1515        8.9798       81.7009       90.6807       3.529191       0.02365
  10     361.9       86.8417        9.8143       80.4725       90.2868       3.445074       0.02128
   9     398.1       86.5097       10.7015       79.1714       89.8728       3.363131       0.01909
   8     437.6       86.1559       11.6416       77.7953       89.4369       3.280982       0.01756
   7     480.5       85.7802       12.6352       76.3434       88.9786       3.198456       0.01621
   6     533.0       85.3237       13.8386       74.5859       88.4245       3.100761       0.01572
   5     589.8       84.8411       15.1119       72.7227       87.8347       2.993538       0.01592
   4     651.6       84.3363       16.4539       70.7478       87.2016       2.865377       0.01753
   3     718.7       83.8130       17.8628       68.6568       86.5196       2.706664       0.01995
   2     792.3       83.2815       19.3339       66.4416       85.7755       2.494024       0.02439
   1     891.5       82.6252       21.2556       63.4790       84.7345       2.109297       0.03274
   0    1013.0       81.9329       23.4695       59.9822       83.4517       1.518821       0.04100



 Wavenumbers: 22650. - 29000. cm-1, ATM      1
 LEVEL PRESSURE   UPWARD FLUX   DIFDOWN FLUX  DIRDOWN FLUX  DOWNWARD FLUX   NET FLUX    HEATING RATE
          mb          W/m2          W/m2          W/m2        W/m2          W/m2       degree/day
  51    .06700       37.6761        0.0000       38.0063       38.0063       0.330195       0.00000
  50    .07753       37.6759        0.0004       38.0057       38.0061       0.330195       0.00000
  49    .09103       37.6757        0.0009       38.0050       38.0059       0.330195       0.00000
  48    0.1069       37.6755        0.0015       38.0042       38.0057       0.330195       0.00000
  47    0.1255       37.6753        0.0021       38.0033       38.0055       0.330195       0.00000
  46    0.1487       37.6749        0.0030       38.0022       38.0051       0.330195      -0.00000
  45    0.1794       37.6745        0.0041       38.0006       38.0047       0.330195       0.00000
  44    0.2165       37.6740        0.0054       37.9987       38.0042       0.330195       0.00000
  43    0.2613       37.6733        0.0070       37.9965       38.0035       0.330195       0.00000
  42    0.3336       37.6723        0.0096       37.9928       38.0025       0.330195      -0.00000
  41    0.4307       37.6709        0.0131       37.9880       38.0011       0.330195       0.00000
  40    0.5894       37.6687        0.0188       37.9800       37.9989       0.330195       0.00000
  39     1.339       37.6581        0.0458       37.9425       37.9883       0.330195       0.00000
  38     1.782       37.6518        0.0616       37.9204       37.9820       0.330195      -0.00000
  37     2.292       37.6446        0.0799       37.8949       37.9748       0.330195       0.00000
  36     2.964       37.6352        0.1039       37.8614       37.9654       0.330195       0.00000
  35     3.853       37.6227        0.1356       37.8172       37.9529       0.330195       0.00000
  34     5.035       37.6061        0.1777       37.7586       37.9363       0.330195      -0.00000
  33     6.613       37.5840        0.2338       37.6803       37.9142       0.330195       0.00000
  32     8.786       37.5542        0.3094       37.5750       37.8844       0.330195      -0.00000
  31     11.80       37.5118        0.4171       37.4249       37.8420       0.330195      -0.00000
  30     15.07       37.4663        0.5324       37.2642       37.7965       0.330195       0.00000
  29     18.79       37.4152        0.6621       37.0833       37.7454       0.330195       0.00000
  28     23.16       37.3558        0.8130       36.8730       37.6860       0.330195      -0.00000
  27     28.12       37.2882        0.9846       36.6338       37.6184       0.330195       0.00000
  26     33.73       37.2129        1.1754       36.3677       37.5431       0.330195      -0.00000
  25     40.54       37.1227        1.4044       36.0486       37.4529       0.330195      -0.00000
  24     48.69       37.0149        1.6779       35.6672       37.3451       0.330195       0.00000
  23     57.69       36.8977        1.9752       35.2527       37.2279       0.330195      -0.00000
  22     68.43       36.7598        2.3250       34.7649       37.0900       0.330195       0.00000
  21     81.20       36.5978        2.7358       34.1922       36.9280       0.330195       0.00000
  20     96.49       36.4081        3.2166       33.5217       36.7383       0.330195       0.00000
  19     114.6       36.1876        3.7755       32.7424       36.5178       0.330195      -0.00000
  18     136.5       35.9328        4.4214       31.8416       36.2629       0.330195       0.00000
  17     162.9       35.6382        5.1675       30.8008       35.9684       0.330195       0.00000
  16     196.4       35.2700        6.0995       29.5007       35.6002       0.330195      -0.00000
  15     218.7       35.0367        6.6901       28.6767       35.3668       0.330195       0.00000
  14     243.0       34.7902        7.3136       27.8068       35.1204       0.330195      -0.00000
  13     269.0       34.5313        7.9681       26.8934       34.8615       0.330195      -0.00000
  12     297.5       34.2608        8.6516       25.9394       34.5910       0.330195       0.00000
  11     328.5       33.9789        9.3637       24.9454       34.3091       0.330195      -0.00000
  10     361.9       33.6869       10.1005       23.9166       34.0171       0.330195      -0.00000
   9     398.1       33.3856       10.8607       22.8551       33.7158       0.330195       0.00000
   8     437.6       33.0763       11.6399       21.7666       33.4065       0.330195      -0.00000
   7     480.5       32.7604       12.4355       20.6551       33.0906       0.330195       0.00000
   6     533.0       32.3926       13.3603       19.3625       32.7228       0.330195       0.00000
   5     589.8       32.0204       14.2949       18.0557       32.3506       0.330195      -0.00000
   4     651.6       31.6457       15.2345       16.7414       31.9759       0.330195       0.00000
   3     718.7       31.2721       16.1693       15.4330       31.6023       0.330195       0.00000
   2     792.3       30.9018       17.0938       14.1382       31.2320       0.330195      -0.00000
   1     891.5       30.4475       18.2248       12.5529       30.7777       0.330195       0.00000
   0    1013.0       29.9629       19.4258       10.8674       30.2931       0.330195       0.00000



 Wavenumbers: 29000. - 38000. cm-1, ATM      1
 LEVEL PRESSURE   UPWARD FLUX   DIFDOWN FLUX  DIRDOWN FLUX  DOWNWARD FLUX   NET FLUX    HEATING RATE
          mb          W/m2          W/m2          W/m2        W/m2          W/m2       degree/day
  51    .06700        5.3703        0.0000       13.4026       13.4026       8.032309       0.00000
  50    .07753        5.3701        0.0003       13.3983       13.3986       8.028510       3.04483
  49    .09103        5.3698        0.0007       13.3921       13.3928       8.022990       3.45018
  48    0.1069        5.3695        0.0011       13.3840       13.3851       8.015612       3.92736
  47    0.1255        5.3692        0.0016       13.3733       13.3749       8.005765       4.46386
  46    0.1487        5.3687        0.0022       13.3579       13.3601       7.991321       5.26521
  45    0.1794        5.3682        0.0031       13.3340       13.3371       7.968917       6.15026
  44    0.2165        5.3675        0.0040       13.3024       13.3064       7.938893       6.82990
  43    0.2613        5.3668        0.0052       13.2604       13.2656       7.898832       7.55140
  42    0.3336        5.3656        0.0071       13.1833       13.1904       7.824812       8.62998
  41    0.4307        5.3641        0.0096       13.0729       13.0825       7.718420       9.25059
  40    0.5894        5.3618        0.0135       12.8796       12.8931       7.531337       9.94885
  39     1.339        5.3538        0.0300       11.9165       11.9465       6.592694      10.56741
  38     1.782        5.3509        0.0384       11.4399       11.4784       6.127457       8.85737
  37     2.292        5.3489        0.0475       10.9796       11.0271       5.678160       7.44152
  36     2.964        5.3482        0.0586       10.4786       10.5372       5.188948       6.14108
  35     3.853        5.3500        0.0723        9.9429       10.0152       4.665180       4.97066
  34     5.035        5.3550        0.0894        9.4007        9.4901       4.135101       3.78667
  33     6.613        5.3636        0.1112        8.8752        8.9864       3.622848       2.73850
  32     8.786        5.3752        0.1393        8.3786        8.5179       3.142695       1.86474
  31     11.80        5.3897        0.1779        7.8897        8.0676       2.677867       1.30137
  30     15.07        5.4027        0.2178        7.5108        7.7286       2.325864       0.90880
  29     18.79        5.4153        0.2613        7.1776        7.4389       2.023572       0.68539
  28     23.16        5.4276        0.3103        6.8664        7.1767       1.749164       0.53062
  27     28.12        5.4386        0.3646        6.5780        6.9426       1.503963       0.41682
  26     33.73        5.4458        0.4238        6.3195        6.7432       1.297417       0.31055
  25     40.54        5.4482        0.4936        6.0663        6.5599       1.111634       0.23048
  24     48.69        5.4455        0.5755        5.8128        6.3884       0.942910       0.17460
  23     57.69        5.4370        0.6631        5.5777        6.2408       0.803829       0.13037
  22     68.43        5.4209        0.7645        5.3379        6.1024       0.681530       0.09614
  21     81.20        5.3928        0.8824        5.0965        5.9789       0.586091       0.06306
  20     96.49        5.3515        1.0186        4.8476        5.8663       0.514840       0.03933
  19     114.6        5.3006        1.1734        4.5799        5.7532       0.452655       0.02904
  18     136.5        5.2415        1.3466        4.2891        5.6357       0.394192       0.02248
  17     162.9        5.1742        1.5393        3.9732        5.5124       0.338263       0.01788
  16     196.4        5.0886        1.7709        3.6080        5.3789       0.290253       0.01208
  15     218.7        5.0348        1.9123        3.3898        5.3021       0.267307       0.00871
  14     243.0        4.9791        2.0569        3.1686        5.2255       0.246427       0.00724
  13     269.0        4.9218        2.2037        2.9461        5.1498       0.227948       0.00599
  12     297.5        4.8635        2.3514        2.7239        5.0754       0.211902       0.00476
  11     328.5        4.8049        2.4988        2.5029        5.0017       0.196768       0.00411
  10     361.9        4.7467        2.6447        2.2846        4.9292       0.182574       0.00359
   9     398.1        4.6892        2.7878        2.0708        4.8585       0.169316       0.00309
   8     437.6        4.6332        2.9268        1.8631        4.7899       0.156714       0.00269
   7     480.5        4.5787        3.0611        1.6626        4.7237       0.144905       0.00232
   6     533.0        4.5193        3.2070        1.4445        4.6515       0.132202       0.00204
   5     589.8        4.4635        3.3434        1.2402        4.5836       0.120064       0.00180
   4     651.6        4.4120        3.4688        1.0514        4.5203       0.108324       0.00161
   3     718.7        4.3651        3.5827        0.8794        4.4620       0.096945       0.00143
   2     792.3        4.3232        3.6841        0.7250        4.4091       0.085901       0.00127
   1     891.5        4.2780        3.7935        0.5569        4.3503       0.072377       0.00115
   0    1013.0        4.2377        3.8916        0.4037        4.2952       0.057556       0.00103



 Wavenumbers: 38000. - 50000. cm-1, ATM      1
 LEVEL PRESSURE   UPWARD FLUX   DIFDOWN FLUX  DIRDOWN FLUX  DOWNWARD FLUX   NET FLUX    HEATING RATE
          mb          W/m2          W/m2          W/m2        W/m2          W/m2       degree/day
  51    .06700        0.0051        0.0000        0.8267        0.8267       0.821528       0.00000
  50    .07753        0.0051        0.0001        0.8242        0.8243       0.819196       1.86936
  49    .09103        0.0050        0.0002        0.8207        0.8209       0.815872       2.07705
  48    0.1069        0.0049        0.0002        0.8162        0.8164       0.811514       2.31984
  47    0.1255        0.0048        0.0004        0.8103        0.8106       0.805801       2.59006
  46    0.1487        0.0047        0.0005        0.8018        0.8023       0.797567       3.00143
  45    0.1794        0.0045        0.0007        0.7889        0.7896       0.785013       3.44648
  44    0.2165        0.0044        0.0009        0.7720        0.7729       0.768507       3.75474
  43    0.2613        0.0042        0.0011        0.7500        0.7511       0.746955       4.06246
  42    0.3336        0.0039        0.0015        0.7106        0.7121       0.708267       4.51071
  41    0.4307        0.0035        0.0019        0.6566        0.6584       0.654972       4.63387
  40    0.5894        0.0029        0.0024        0.5680        0.5704       0.567464       4.65357
  39     1.339        0.0015        0.0030        0.2422        0.2452       0.243720       3.64476
  38     1.782        0.0010        0.0026        0.1493        0.1519       0.150889       1.76735
  37     2.292        0.0007        0.0022        0.0924        0.0946       0.093932       0.94336
  36     2.964        0.0005        0.0018        0.0539        0.0557       0.055224       0.48589
  35     3.853        0.0003        0.0013        0.0295        0.0308       0.030502       0.23462
  34     5.035        0.0002        0.0010        0.0154        0.0164       0.016181       0.10230
  33     6.613        0.0001        0.0007        0.0073        0.0080       0.007912       0.04420
  32     8.786        0.0000        0.0004        0.0030        0.0034       0.003390       0.01756
  31     11.80        0.0000        0.0003        0.0010        0.0012       0.001199       0.00613
  30     15.07        0.0000        0.0001        0.0003        0.0005       0.000463       0.00190
  29     18.79        0.0000        0.0001        0.0001        0.0002       0.000182       0.00064
  28     23.16        0.0000        0.0000        0.0000        0.0001       0.000071       0.00022
  27     28.12        0.0000        0.0000        0.0000        0.0000       0.000028       0.00007
  26     33.73        0.0000        0.0000        0.0000        0.0000       0.000011       0.00002
  25     40.54        0.0000        0.0000        0.0000        0.0000       0.000005       0.00001
  24     48.69        0.0000        0.0000        0.0000        0.0000       0.000002       0.00000
  23     57.69        0.0000        0.0000        0.0000        0.0000       0.000001       0.00000
  22     68.43        0.0000        0.0000        0.0000        0.0000       0.000000       0.00000
  21     81.20        0.0000        0.0000        0.0000        0.0000       0.000000       0.00000
  20     96.49        0.0000        0.0000        0.0000        0.0000       0.000000       0.00000
  19     114.6        0.0000        0.0000        0.0000        0.0000       0.000000       0.00000
  18     136.5        0.0000        0.0000        0.0000        0.0000       0.000000       0.00000
  17     162.9        0.0000        0.0000        0.0000        0.0000       0.000000       0.00000
  16     196.4        0.0000        0.0000        0.0000        0.0000       0.000000       0.00000
  15     218.7        0.0000        0.0000        0.0000        0.0000       0.000000       0.00000
  14     243.0        0.0000        0.0000        0.0000        0.0000       0.000000       0.00000
  13     269.0        0.0000        0.0000        0.0000        0.0000       0.000000       0.00000
  12     297.5        0.0000        0.0000        0.0000        0.0000       0.000000       0.00000
  11     328.5        0.0000        0.0000        0.0000        0.0000       0.000000       0.00000
  10     361.9        0.0000        0.0000        0.0000        0.0000       0.000000       0.00000
   9     398.1        0.0000        0.0000        0.0000        0.0000       0.000000       0.00000
   8     437.6        0.0000        0.0000        0.0000        0.0000       0.000000       0.00000
   7     480.5        0.0000        0.0000        0.0000        0.0000       0.000000       0.00000
   6     533.0        0.0000        0.0000        0.0000        0.0000       0.000000       0.00000
   5     589.8        0.0000        0.0000        0.0000        0.0000       0.000000       0.00000
   4     651.6        0.0000        0.0000        0.0000        0.0000       0.000000       0.00000
   3     718.7        0.0000        0.0000        0.0000        0.0000       0.000000       0.00000
   2     792.3        0.0000        0.0000        0.0000        0.0000       0.000000       0.00000
   1     891.5        0.0000        0.0000        0.0000        0.0000       0.000000       0.00000
   0    1013.0        0.0000        0.0000        0.0000        0.0000       0.000000       0.00000



 Wavenumbers:   820. -  2600. cm-1, ATM      1
 LEVEL PRESSURE   UPWARD FLUX   DIFDOWN FLUX  DIRDOWN FLUX  DOWNWARD FLUX   NET FLUX    HEATING RATE
          mb          W/m2          W/m2          W/m2        W/m2          W/m2       degree/day
  51    .06700        0.0093        0.0000        3.8670        3.8670       3.857736       0.00000
  50    .07753        0.0093        0.0000        3.8643        3.8643       3.855009       2.18510
  49    .09103        0.0093        0.0000        3.8635        3.8635       3.854187       0.51376
  48    0.1069        0.0093        0.0000        3.8626        3.8626       3.853283       0.48157
  47    0.1255        0.0093        0.0000        3.8616        3.8616       3.852305       0.44310
  46    0.1487        0.0093        0.0000        3.8605        3.8605       3.851174       0.41229
  45    0.1794        0.0093        0.0000        3.8591        3.8591       3.849809       0.37466
  44    0.2165        0.0093        0.0000        3.8577        3.8577       3.848396       0.32151
  43    0.2613        0.0093        0.0000        3.8562        3.8562       3.846892       0.28348
  42    0.3336        0.0093        0.0000        3.8539        3.8539       3.844586       0.26886
  41    0.4307        0.0093        0.0000        3.8509        3.8509       3.841610       0.25878
  40    0.5894        0.0093        0.0000        3.8460        3.8460       3.836727       0.25968
  39     1.339        0.0093        0.0000        3.8240        3.8240       3.814707       0.24790
  38     1.782        0.0093        0.0000        3.8119        3.8119       3.802589       0.23071
  37     2.292        0.0093        0.0000        3.7986        3.7986       3.789272       0.22056
  36     2.964        0.0093        0.0000        3.7823        3.7823       3.772980       0.20451
  35     3.853        0.0093        0.0000        3.7623        3.7623       3.753050       0.18914
  34     5.035        0.0093        0.0000        3.7378        3.7378       3.728535       0.17512
  33     6.613        0.0093        0.0000        3.7076        3.7076       3.698295       0.16166
  32     8.786        0.0093        0.0000        3.6716        3.6716       3.662302       0.13978
  31     11.80        0.0093        0.0000        3.6316        3.6316       3.622291       0.11202
  30     15.07        0.0093        0.0000        3.6017        3.6017       3.592464       0.07701
  29     18.79        0.0093        0.0000        3.5785        3.5785       3.569231       0.05267
  28     23.16        0.0093        0.0000        3.5580        3.5581       3.548771       0.03956
  27     28.12        0.0093        0.0000        3.5377        3.5377       3.528401       0.03463
  26     33.73        0.0093        0.0000        3.5162        3.5162       3.506931       0.03228
  25     40.54        0.0093        0.0000        3.4913        3.4914       3.482071       0.03084
  24     48.69        0.0093        0.0000        3.4628        3.4628       3.453516       0.02955
  23     57.69        0.0093        0.0000        3.4327        3.4327       3.423452       0.02818
  22     68.43        0.0093        0.0000        3.3986        3.3986       3.389349       0.02681
  21     81.20        0.0093        0.0000        3.3606        3.3606       3.351327       0.02512
  20     96.49        0.0093        0.0000        3.3183        3.3183       3.309028       0.02335
  19     114.6        0.0093        0.0000        3.2715        3.2715       3.262192       0.02187
  18     136.5        0.0093        0.0000        3.2206        3.2206       3.211354       0.01955
  17     162.9        0.0093        0.0000        3.1613        3.1613       3.152030       0.01896
  16     196.4        0.0093        0.0000        3.0792        3.0792       3.069907       0.02067
  15     218.7        0.0093        0.0000        3.0115        3.0115       3.002277       0.02568
  14     243.0        0.0093        0.0000        2.9223        2.9223       2.913058       0.03094
  13     269.0        0.0093        0.0000        2.8151        2.8152       2.805895       0.03476
  12     297.5        0.0093        0.0000        2.6710        2.6710       2.661772       0.04275
  11     328.5        0.0093        0.0000        2.4998        2.4998       2.490571       0.04655
  10     361.9        0.0093        0.0000        2.3186        2.3186       2.309322       0.04586
   9     398.1        0.0093        0.0000        2.1555        2.1556       2.146261       0.03799
   8     437.6        0.0093        0.0000        2.0290        2.0290       2.019701       0.02706
   7     480.5        0.0093        0.0000        1.9377        1.9378       1.928445       0.01792
   6     533.0        0.0094        0.0000        1.8432        1.8432       1.833875       0.01521
   5     589.8        0.0094        0.0000        1.7350        1.7350       1.725623       0.01607
   4     651.6        0.0095        0.0000        1.6037        1.6038       1.594274       0.01796
   3     718.7        0.0097        0.0000        1.4647        1.4648       1.455098       0.01749
   2     792.3        0.0100        0.0000        1.3161        1.3161       1.306082       0.01709
   1     891.5        0.0108        0.0000        1.0919        1.0920       1.081129       0.01914
   0    1013.0        0.0129        0.0000        0.7886        0.7886       0.775780       0.02120

  Modules and versions used in this calculation:

       rrtmg_sw.1col.f90:  $Revision$                    rrtmg_sw_init.f90:  $Revision$        
     rrtmgsw_cldprop.f90:  $Revision$                  rrtmgsw_cldprmc.f90:  NOT USED          
     rrtmg_sw_reftra.f90:  $Revision$                  rrtmg_sw_spcvrt.f90:  NOT USED          
     rrtmg_sw_spcvmc.f90:  NOT USED                    rrtmgsw_setcoef.f90:  NOT USED          
     rrtmg_sw_taumol.f90:  $Revision$                  rrtmg_sw_vrtqdr.f90:  NOT USED          
                rrtatm.f:  NOT USED                             util_xxx.f:  NOT USED          
                 extra.f:  NOT USED                       rrtmg_sw_k_g.f90:  $Revision$        

