

 Wavenumbers:   820. - 50000. cm-1, ATM      1
 LEVEL PRESSURE   UPWARD FLUX   DIFDOWN FLUX  DIRDOWN FLUX  DOWNWARD FLUX   NET FLUX    HEATING RATE
          mb          W/m2          W/m2          W/m2        W/m2          W/m2       degree/day
  51    .06700      364.2736        0.0000      617.8126      617.8126     253.538937       0.00000
  50    .07753      364.2733        0.0013      617.7947      617.7961     253.522802      12.93219
  49    .09103      364.2728        0.0030      617.7778      617.7808     253.508000       9.25169
  48    0.1069      364.2723        0.0049      617.7581      617.7630     253.490748       9.18301
  47    0.1255      364.2717        0.0072      617.7340      617.7411     253.469417       9.67069
  46    0.1487      364.2711        0.0100      617.7009      617.7108     253.439750      10.81378
  45    0.1794      364.2703        0.0138      617.6521      617.6659     253.395549      12.13435
  44    0.2165      364.2695        0.0183      617.5895      617.6078     253.338267      13.03061
  43    0.2613      364.2687        0.0236      617.5089      617.5325     253.263807      14.03534
  42    0.3336      364.2676        0.0323      617.3641      617.3964     253.128822      15.73794
  41    0.4307      364.2666        0.0438      617.1591      617.2030     252.936348      16.73517
  40    0.5894      364.2660        0.0624      616.8005      616.8629     252.596940      18.04929
  39     1.339      364.2803        0.1465      614.9443      615.0907     250.810389      20.11332
  38     1.782      364.3009        0.1937      613.9670      614.1607     249.859871      18.09633
  37     2.292      364.3356        0.2475      613.0059      613.2534     248.917770      15.60366
  36     2.964      364.3977        0.3174      611.9577      612.2750     247.877348      13.06044
  35     3.853      364.5026        0.4090      610.8024      611.2114     246.708755      11.09016
  34     5.035      364.6646        0.5299      609.5327      610.0626     245.397945       9.36388
  33     6.613      364.8931        0.6903      608.1464      608.8367     243.943648       7.77468
  32     8.786      365.1906        0.9055      606.6250      607.5306     242.340019       6.22791
  31     11.80      365.5751        1.2120      604.8486      606.0606     240.485568       5.19188
  30     15.07      365.9401        1.5390      603.2440      604.7829     238.842811       4.24128
  29     18.79      366.3097        1.9068      601.6511      603.5579     237.248210       3.61545
  28     23.16      366.6923        2.3342      599.9927      602.3269     235.634622       3.12016
  27     28.12      367.0722        2.8207      598.2881      601.1087     234.036558       2.71660
  26     33.73      367.4129        3.3629      596.5951      599.9580     232.545090       2.24246
  25     40.54      367.7264        4.0158      594.7727      598.7885     231.062105       1.83981
  24     48.69      368.0090        4.7991      592.7865      597.5855     229.576553       1.53731
  23     57.69      368.2270        5.6552      590.7959      596.4511     228.224056       1.26776
  22     68.43      368.3864        6.6694      588.6191      595.2885     226.902023       1.03929
  21     81.20      368.4369        7.8717      586.2690      594.1406     225.703688       0.79184
  20     96.49      368.3678        9.2950      583.6961      592.9911     224.623282       0.59631
  19     114.6      368.2339       10.9692      580.7708      591.7400     223.506131       0.52163
  18     136.5      368.0326       12.9292      577.4359      590.3651     222.332559       0.45127
  17     162.9      367.7564       15.2289      573.5624      588.7914     221.034925       0.41478
  16     196.4      367.3144       18.1608      568.5907      586.7515     219.437147       0.40218
  15     218.7      366.9961       20.0560      565.0572      585.1132     218.117084       0.50118
  14     243.0      366.6408       22.0883      560.7495      582.8378     216.197023       0.66594
  13     269.0      366.2474       24.2589      555.3947      579.6536     213.406261       0.90531
  12     297.5      365.8174       26.5685      548.9964      575.5649     209.747454       1.08516
  11     328.5      365.3581       29.0233      542.0895      571.1128     205.754748       1.08561
  10     361.9      364.8723       31.6194      534.6242      566.2436     201.371289       1.10906
   9     398.1      364.3631       34.3611      526.4204      560.7815     196.418404       1.15391
   8     437.6      363.8390       37.2469      517.3907      554.6376     190.798566       1.20156
   7     480.5      363.3075       40.2748      507.7216      547.9964     184.688854       1.19992
   6     533.0      362.7085       43.9135      495.9006      539.8141     177.105639       1.21990
   5     589.8      362.1595       47.7299      483.0788      530.8087     168.649223       1.25521
   4     651.6      361.7561       51.7112      468.6907      520.4019     158.645783       1.36800
   3     718.7      361.6032       55.8494      453.2257      509.0751     147.471906       1.40425
   2     792.3      361.9493       60.1227      436.4928      496.6156     134.666243       1.46867
   1     891.5      363.7174       65.6408      413.9344      479.5752     115.857846       1.60050
   0    1013.0      369.1099       71.9125      388.4125      460.3250      91.215151       1.71107



 Wavenumbers:  2600. -  3250. cm-1, ATM      1
 LEVEL PRESSURE   UPWARD FLUX   DIFDOWN FLUX  DIRDOWN FLUX  DOWNWARD FLUX   NET FLUX    HEATING RATE
          mb          W/m2          W/m2          W/m2        W/m2          W/m2       degree/day
  51    .06700        0.9175        0.0000        5.4450        5.4450       4.527536       0.00000
  50    .07753        0.9175        0.0000        5.4450        5.4450       4.527528       0.00640
  49    .09103        0.9175        0.0000        5.4450        5.4450       4.527518       0.00627
  48    0.1069        0.9175        0.0000        5.4450        5.4450       4.527507       0.00613
  47    0.1255        0.9175        0.0000        5.4450        5.4450       4.527493       0.00599
  46    0.1487        0.9175        0.0000        5.4450        5.4450       4.527477       0.00608
  45    0.1794        0.9175        0.0000        5.4450        5.4450       4.527454       0.00625
  44    0.2165        0.9175        0.0000        5.4449        5.4449       4.527427       0.00612
  43    0.2613        0.9175        0.0000        5.4449        5.4449       4.527395       0.00600
  42    0.3336        0.9175        0.0000        5.4448        5.4448       4.527342       0.00617
  41    0.4307        0.9175        0.0000        5.4448        5.4448       4.527271       0.00620
  40    0.5894        0.9175        0.0000        5.4446        5.4446       4.527151       0.00637
  39     1.339        0.9175        0.0000        5.4439        5.4439       4.526444       0.00797
  38     1.782        0.9175        0.0000        5.4434        5.4434       4.525901       0.01034
  37     2.292        0.9175        0.0000        5.4427        5.4427       4.525185       0.01186
  36     2.964        0.9175        0.0000        5.4416        5.4416       4.524146       0.01304
  35     3.853        0.9175        0.0000        5.4402        5.4402       4.522669       0.01402
  34     5.035        0.9175        0.0000        5.4381        5.4381       4.520613       0.01468
  33     6.613        0.9175        0.0000        5.4353        5.4353       4.517832       0.01487
  32     8.786        0.9175        0.0000        5.4317        5.4317       4.514200       0.01411
  31     11.80        0.9175        0.0000        5.4269        5.4269       4.509420       0.01338
  30     15.07        0.9175        0.0000        5.4224        5.4224       4.504893       0.01169
  29     18.79        0.9175        0.0000        5.4180        5.4180       4.500480       0.01000
  28     23.16        0.9175        0.0000        5.4135        5.4135       4.495993       0.00868
  27     28.12        0.9175        0.0000        5.4088        5.4088       4.491344       0.00790
  26     33.73        0.9175        0.0000        5.4036        5.4036       4.486102       0.00788
  25     40.54        0.9175        0.0000        5.3966        5.3967       4.479157       0.00862
  24     48.69        0.9175        0.0000        5.3872        5.3872       4.469676       0.00981
  23     57.69        0.9175        0.0000        5.3754        5.3754       4.457885       0.01105
  22     68.43        0.9175        0.0000        5.3599        5.3599       4.442387       0.01218
  21     81.20        0.9176        0.0000        5.3401        5.3401       4.422539       0.01312
  20     96.49        0.9176        0.0000        5.3155        5.3155       4.397951       0.01357
  19     114.6        0.9176        0.0000        5.2853        5.2854       4.367724       0.01411
  18     136.5        0.9177        0.0001        5.2504        5.2505       4.332775       0.01344
  17     162.9        0.9178        0.0001        5.2111        5.2112       4.293368       0.01260
  16     196.4        0.9179        0.0001        5.1640        5.1641       4.246163       0.01188
  15     218.7        0.9181        0.0001        5.1331        5.1332       4.215068       0.01181
  14     243.0        0.9184        0.0001        5.0962        5.0963       4.177878       0.01290
  13     269.0        0.9189        0.0001        5.0511        5.0512       4.132290       0.01479
  12     297.5        0.9196        0.0001        4.9956        4.9957       4.076098       0.01667
  11     328.5        0.9206        0.0001        4.9304        4.9305       4.009886       0.01800
  10     361.9        0.9220        0.0001        4.8511        4.8512       3.929281       0.02039
   9     398.1        0.9238        0.0001        4.7507        4.7508       3.827053       0.02382
   8     437.6        0.9263        0.0002        4.6220        4.6222       3.695942       0.02803
   7     480.5        0.9296        0.0002        4.4625        4.4626       3.533052       0.03199
   6     533.0        0.9349        0.0002        4.2460        4.2462       3.311318       0.03567
   5     589.8        0.9428        0.0002        3.9954        3.9956       3.052835       0.03837
   4     651.6        0.9552        0.0002        3.7089        3.7090       2.753885       0.04088
   3     718.7        0.9744        0.0002        3.4018        3.4020       2.427635       0.04100
   2     792.3        1.0058        0.0002        3.0564        3.0566       2.050808       0.04322
   1     891.5        1.0770        0.0002        2.5828        2.5830       1.506043       0.04636
   0    1013.0        1.2441        0.0002        2.0845        2.0847       0.840550       0.04621



 Wavenumbers:  3250. -  4000. cm-1, ATM      1
 LEVEL PRESSURE   UPWARD FLUX   DIFDOWN FLUX  DIRDOWN FLUX  DOWNWARD FLUX   NET FLUX    HEATING RATE
          mb          W/m2          W/m2          W/m2        W/m2          W/m2       degree/day
  51    .06700        0.0005        0.0000        9.1795        9.1795       9.179005       0.00000
  50    .07753        0.0005        0.0000        9.1747        9.1747       9.174162       3.88148
  49    .09103        0.0005        0.0000        9.1713        9.1713       9.170775       2.11747
  48    0.1069        0.0005        0.0000        9.1688        9.1688       9.168250       1.34402
  47    0.1255        0.0005        0.0000        9.1665        9.1665       9.165990       1.02422
  46    0.1487        0.0005        0.0000        9.1641        9.1641       9.163549       0.88991
  45    0.1794        0.0005        0.0000        9.1612        9.1612       9.160671       0.79008
  44    0.2165        0.0005        0.0000        9.1583        9.1583       9.157751       0.66430
  43    0.2613        0.0005        0.0000        9.1553        9.1553       9.154778       0.56041
  42    0.3336        0.0005        0.0000        9.1511        9.1511       9.150599       0.48723
  41    0.4307        0.0005        0.0000        9.1464        9.1464       9.145831       0.41459
  40    0.5894        0.0005        0.0000        9.1393        9.1394       9.138825       0.37255
  39     1.339        0.0005        0.0000        9.1127        9.1127       9.112211       0.29962
  38     1.782        0.0005        0.0000        9.1011        9.1011       9.100623       0.22062
  37     2.292        0.0005        0.0000        9.0901        9.0901       9.089556       0.18329
  36     2.964        0.0005        0.0000        9.0776        9.0776       9.077127       0.15603
  35     3.853        0.0005        0.0000        9.0629        9.0629       9.062336       0.14036
  34     5.035        0.0005        0.0000        9.0441        9.0441       9.043598       0.13386
  33     6.613        0.0005        0.0000        9.0191        9.0191       9.018596       0.13366
  32     8.786        0.0005        0.0000        8.9843        8.9843       8.983812       0.13509
  31     11.80        0.0005        0.0000        8.9327        8.9327       8.932196       0.14451
  30     15.07        0.0005        0.0000        8.8758        8.8759       8.875351       0.14676
  29     18.79        0.0005        0.0000        8.8110        8.8110       8.810524       0.14698
  28     23.16        0.0005        0.0000        8.7365        8.7366       8.736079       0.14395
  27     28.12        0.0005        0.0000        8.6554        8.6555       8.654966       0.13789
  26     33.73        0.0005        0.0000        8.5719        8.5719       8.571466       0.12554
  25     40.54        0.0005        0.0001        8.4812        8.4812       8.480743       0.11255
  24     48.69        0.0005        0.0001        8.3838        8.3839       8.383441       0.10069
  23     57.69        0.0004        0.0001        8.2861        8.2862       8.285706       0.09161
  22     68.43        0.0004        0.0001        8.1751        8.1751       8.174710       0.08726
  21     81.20        0.0004        0.0001        8.0457        8.0458       8.045351       0.08548
  20     96.49        0.0004        0.0001        7.8949        7.8950       7.894648       0.08318
  19     114.6        0.0004        0.0001        7.7162        7.7163       7.715939       0.08344
  18     136.5        0.0004        0.0002        7.5193        7.5194       7.519095       0.07569
  17     162.9        0.0003        0.0002        7.2913        7.2915       7.291204       0.07284
  16     196.4        0.0003        0.0002        6.9660        6.9662       6.965931       0.08187
  15     218.7        0.0003        0.0002        6.6648        6.6650       6.664742       0.11435
  14     243.0        0.0002        0.0002        6.2619        6.2622       6.261948       0.13970
  13     269.0        0.0002        0.0003        5.7576        5.7579       5.757649       0.16359
  12     297.5        0.0002        0.0003        5.1719        5.1722       5.171958       0.17371
  11     328.5        0.0002        0.0002        4.5757        4.5760       4.575799       0.16209
  10     361.9        0.0002        0.0002        3.9995        3.9998       3.999624       0.14578
   9     398.1        0.0001        0.0002        3.4655        3.4657       3.465568       0.12442
   8     437.6        0.0001        0.0002        2.9740        2.9742       2.974120       0.10507
   7     480.5        0.0001        0.0002        2.5307        2.5309       2.530748       0.08708
   6     533.0        0.0001        0.0002        2.0614        2.0616       2.061452       0.07549
   5     589.8        0.0001        0.0002        1.6150        1.6151       1.615023       0.06626
   4     651.6        0.0001        0.0001        1.1565        1.1566       1.156479       0.06271
   3     718.7        0.0001        0.0001        0.7390        0.7391       0.738978       0.05247
   2     792.3        0.0002        0.0001        0.3985        0.3985       0.398327       0.03907
   1     891.5        0.0006        0.0000        0.1139        0.1139       0.113368       0.02425
   0    1013.0        0.0056        0.0000        0.0094        0.0094       0.003783       0.00761



 Wavenumbers:  4000. -  4650. cm-1, ATM      1
 LEVEL PRESSURE   UPWARD FLUX   DIFDOWN FLUX  DIRDOWN FLUX  DOWNWARD FLUX   NET FLUX    HEATING RATE
          mb          W/m2          W/m2          W/m2        W/m2          W/m2       degree/day
  51    .06700        3.7056        0.0000       10.7795       10.7795       7.073956       0.00000
  50    .07753        3.7056        0.0000       10.7795       10.7795       7.073955       0.00080
  49    .09103        3.7056        0.0000       10.7795       10.7795       7.073953       0.00078
  48    0.1069        3.7056        0.0000       10.7795       10.7795       7.073952       0.00076
  47    0.1255        3.7056        0.0000       10.7795       10.7795       7.073950       0.00075
  46    0.1487        3.7056        0.0000       10.7795       10.7795       7.073948       0.00076
  45    0.1794        3.7056        0.0000       10.7795       10.7795       7.073945       0.00078
  44    0.2165        3.7056        0.0000       10.7795       10.7795       7.073942       0.00076
  43    0.2613        3.7056        0.0000       10.7795       10.7795       7.073938       0.00075
  42    0.3336        3.7056        0.0000       10.7795       10.7795       7.073931       0.00077
  41    0.4307        3.7056        0.0000       10.7795       10.7795       7.073923       0.00077
  40    0.5894        3.7056        0.0000       10.7795       10.7795       7.073908       0.00080
  39     1.339        3.7056        0.0000       10.7794       10.7794       7.073818       0.00101
  38     1.782        3.7056        0.0000       10.7793       10.7793       7.073748       0.00133
  37     2.292        3.7056        0.0000       10.7792       10.7792       7.073654       0.00156
  36     2.964        3.7056        0.0000       10.7791       10.7791       7.073514       0.00176
  35     3.853        3.7056        0.0000       10.7789       10.7789       7.073306       0.00197
  34     5.035        3.7056        0.0000       10.7786       10.7786       7.072999       0.00219
  33     6.613        3.7056        0.0000       10.7781       10.7781       7.072548       0.00241
  32     8.786        3.7056        0.0000       10.7774       10.7774       7.071881       0.00259
  31     11.80        3.7056        0.0001       10.7763       10.7764       7.070834       0.00293
  30     15.07        3.7056        0.0001       10.7751       10.7752       7.069606       0.00317
  29     18.79        3.7055        0.0001       10.7736       10.7737       7.068121       0.00337
  28     23.16        3.7055        0.0001       10.7717       10.7718       7.066278       0.00356
  27     28.12        3.7055        0.0001       10.7695       10.7696       7.064047       0.00379
  26     33.73        3.7055        0.0001       10.7667       10.7668       7.061297       0.00413
  25     40.54        3.7055        0.0002       10.7629       10.7631       7.057568       0.00463
  24     48.69        3.7055        0.0002       10.7579       10.7581       7.052601       0.00514
  23     57.69        3.7055        0.0003       10.7520       10.7522       7.046715       0.00552
  22     68.43        3.7056        0.0003       10.7446       10.7449       7.039341       0.00580
  21     81.20        3.7056        0.0004       10.7355       10.7359       7.030267       0.00600
  20     96.49        3.7057        0.0004       10.7245       10.7249       7.019232       0.00609
  19     114.6        3.7058        0.0005       10.7107       10.7112       7.005443       0.00644
  18     136.5        3.7059        0.0006       10.6942       10.6948       6.988844       0.00638
  17     162.9        3.7062        0.0007       10.6740       10.6747       6.968513       0.00650
  16     196.4        3.7067        0.0008       10.6464       10.6472       6.940501       0.00705
  15     218.7        3.7072        0.0009       10.6255       10.6264       6.919209       0.00808
  14     243.0        3.7079        0.0010       10.5980       10.5991       6.891158       0.00973
  13     269.0        3.7091        0.0011       10.5611       10.5622       6.853151       0.01233
  12     297.5        3.7108        0.0013       10.5119       10.5132       6.802383       0.01506
  11     328.5        3.7132        0.0014       10.4499       10.4513       6.738024       0.01750
  10     361.9        3.7164        0.0015       10.3702       10.3717       6.655281       0.02093
   9     398.1        3.7204        0.0017       10.2678       10.2694       6.549068       0.02475
   8     437.6        3.7253        0.0018       10.1390       10.1408       6.415482       0.02856
   7     480.5        3.7315        0.0020        9.9877        9.9897       6.258202       0.03089
   6     533.0        3.7406        0.0021        9.7937        9.7958       6.055230       0.03265
   5     589.8        3.7533        0.0023        9.5752        9.5775       5.824222       0.03429
   4     651.6        3.7725        0.0025        9.2958        9.2983       5.525820       0.04081
   3     718.7        3.8023        0.0027        8.9267        8.9294       5.127125       0.05010
   2     792.3        3.8514        0.0028        8.4542        8.4571       4.605715       0.05980
   1     891.5        3.9639        0.0030        7.7948        7.7978       3.833928       0.06568
   0    1013.0        4.2252        0.0032        7.0767        7.0798       2.854585       0.06800



 Wavenumbers:  4650. -  5150. cm-1, ATM      1
 LEVEL PRESSURE   UPWARD FLUX   DIFDOWN FLUX  DIRDOWN FLUX  DOWNWARD FLUX   NET FLUX    HEATING RATE
          mb          W/m2          W/m2          W/m2        W/m2          W/m2       degree/day
  51    .06700        2.6096        0.0000       10.2033       10.2033       7.593752       0.00000
  50    .07753        2.6096        0.0000       10.2031       10.2031       7.593516       0.18901
  49    .09103        2.6096        0.0000       10.2028       10.2028       7.593221       0.18428
  48    0.1069        2.6096        0.0000       10.2025       10.2025       7.592884       0.17931
  47    0.1255        2.6096        0.0000       10.2021       10.2021       7.592500       0.17426
  46    0.1487        2.6096        0.0000       10.2016       10.2016       7.592019       0.17536
  45    0.1794        2.6096        0.0000       10.2010       10.2010       7.591368       0.17850
  44    0.2165        2.6096        0.0000       10.2002       10.2002       7.590609       0.17277
  43    0.2613        2.6096        0.0000       10.1993       10.1993       7.589723       0.16690
  42    0.3336        2.6096        0.0000       10.1979       10.1979       7.588291       0.16702
  41    0.4307        2.6096        0.0000       10.1960       10.1960       7.586451       0.16002
  40    0.5894        2.6096        0.0000       10.1932       10.1932       7.583577       0.15283
  39     1.339        2.6096        0.0000       10.1816       10.1816       7.571985       0.13050
  38     1.782        2.6096        0.0000       10.1760       10.1760       7.566457       0.10526
  37     2.292        2.6096        0.0000       10.1706       10.1706       7.561000       0.09037
  36     2.964        2.6096        0.0000       10.1646       10.1647       7.555077       0.07435
  35     3.853        2.6096        0.0000       10.1584       10.1584       7.548863       0.05897
  34     5.035        2.6096        0.0000       10.1521       10.1521       7.542528       0.04526
  33     6.613        2.6096        0.0000       10.1456       10.1456       7.536072       0.03452
  32     8.786        2.6096        0.0001       10.1386       10.1386       7.529062       0.02722
  31     11.80        2.6096        0.0001       10.1295       10.1296       7.520023       0.02531
  30     15.07        2.6096        0.0001       10.1196       10.1197       7.510147       0.02550
  29     18.79        2.6096        0.0001       10.1076       10.1077       7.498142       0.02722
  28     23.16        2.6096        0.0001       10.0923       10.0924       7.482840       0.02959
  27     28.12        2.6096        0.0002       10.0731       10.0733       7.463749       0.03245
  26     33.73        2.6096        0.0002       10.0500       10.0503       7.440657       0.03472
  25     40.54        2.6096        0.0003       10.0201       10.0204       7.410758       0.03709
  24     48.69        2.6097        0.0003        9.9820        9.9823       7.372589       0.03950
  23     57.69        2.6098        0.0004        9.9384        9.9388       7.329052       0.04081
  22     68.43        2.6099        0.0004        9.8858        9.8862       7.276320       0.04145
  21     81.20        2.6100        0.0005        9.8234        9.8240       7.213926       0.04123
  20     96.49        2.6103        0.0006        9.7518        9.7524       7.142100       0.03964
  19     114.6        2.6106        0.0007        9.6719        9.6726       7.062033       0.03739
  18     136.5        2.6111        0.0008        9.5858        9.5866       6.975565       0.03325
  17     162.9        2.6117        0.0010        9.4940        9.4950       6.883285       0.02950
  16     196.4        2.6128        0.0012        9.3883        9.3895       6.776650       0.02684
  15     218.7        2.6137        0.0013        9.3229        9.3242       6.710555       0.02509
  14     243.0        2.6148        0.0014        9.2520        9.2534       6.638600       0.02496
  13     269.0        2.6164        0.0016        9.1717        9.1732       6.556837       0.02652
  12     297.5        2.6187        0.0017        9.0763        9.0780       6.459315       0.02892
  11     328.5        2.6217        0.0019        8.9650        8.9669       6.345142       0.03104
  10     361.9        2.6257        0.0021        8.8349        8.8370       6.211337       0.03385
   9     398.1        2.6308        0.0022        8.6820        8.6843       6.053505       0.03677
   8     437.6        2.6374        0.0024        8.5028        8.5052       5.867835       0.03970
   7     480.5        2.6460        0.0026        8.2948        8.2974       5.651438       0.04250
   6     533.0        2.6590        0.0028        8.0209        8.0237       5.364698       0.04613
   5     589.8        2.6770        0.0030        7.7063        7.7094       5.032404       0.04932
   4     651.6        2.7031        0.0032        7.3412        7.3444       4.641348       0.05348
   3     718.7        2.7416        0.0034        6.9387        6.9421       4.200500       0.05540
   2     792.3        2.7999        0.0035        6.5066        6.5101       3.710286       0.05622
   1     891.5        2.9213        0.0037        5.9361        5.9398       3.018522       0.05887
   0    1013.0        3.1668        0.0038        5.3025        5.3063       2.139515       0.06103



 Wavenumbers:  5150. -  6150. cm-1, ATM      1
 LEVEL PRESSURE   UPWARD FLUX   DIFDOWN FLUX  DIRDOWN FLUX  DOWNWARD FLUX   NET FLUX    HEATING RATE
          mb          W/m2          W/m2          W/m2        W/m2          W/m2       degree/day
  51    .06700        6.6664        0.0000       25.5798       25.5798      18.913405       0.00000
  50    .07753        6.6664        0.0000       25.5798       25.5798      18.913366       0.03158
  49    .09103        6.6664        0.0000       25.5797       25.5797      18.913314       0.03207
  48    0.1069        6.6664        0.0000       25.5797       25.5797      18.913253       0.03258
  47    0.1255        6.6664        0.0000       25.5796       25.5796      18.913180       0.03308
  46    0.1487        6.6664        0.0000       25.5795       25.5795      18.913085       0.03485
  45    0.1794        6.6664        0.0000       25.5794       25.5794      18.912949       0.03709
  44    0.2165        6.6664        0.0000       25.5792       25.5792      18.912784       0.03766
  43    0.2613        6.6664        0.0000       25.5790       25.5790      18.912581       0.03823
  42    0.3336        6.6664        0.0000       25.5786       25.5786      18.912235       0.04040
  41    0.4307        6.6664        0.0000       25.5782       25.5782      18.911764       0.04094
  40    0.5894        6.6664        0.0000       25.5774       25.5774      18.910975       0.04195
  39     1.339        6.6664        0.0000       25.5735       25.5736      18.907175       0.04278
  38     1.782        6.6664        0.0001       25.5713       25.5714      18.904963       0.04211
  37     2.292        6.6664        0.0001       25.5688       25.5688      18.902460       0.04146
  36     2.964        6.6664        0.0001       25.5656       25.5657      18.899279       0.03992
  35     3.853        6.6664        0.0001       25.5615       25.5616      18.895238       0.03835
  34     5.035        6.6664        0.0001       25.5562       25.5564      18.890034       0.03718
  33     6.613        6.6663        0.0002       25.5494       25.5496      18.883284       0.03609
  32     8.786        6.6663        0.0003       25.5406       25.5409      18.874537       0.03397
  31     11.80        6.6663        0.0003       25.5287       25.5290      18.862709       0.03311
  30     15.07        6.6663        0.0004       25.5167       25.5171      18.850849       0.03062
  29     18.79        6.6663        0.0005       25.5042       25.5047      18.838453       0.02811
  28     23.16        6.6662        0.0007       25.4907       25.4914      18.825102       0.02582
  27     28.12        6.6662        0.0008       25.4764       25.4773      18.811026       0.02393
  26     33.73        6.6662        0.0010       25.4620       25.4630      18.796767       0.02144
  25     40.54        6.6662        0.0012       25.4463       25.4474      18.781180       0.01934
  24     48.69        6.6663        0.0014       25.4294       25.4308      18.764496       0.01727
  23     57.69        6.6663        0.0017       25.4126       25.4143      18.747940       0.01552
  22     68.43        6.6664        0.0020       25.3944       25.3964      18.729971       0.01413
  21     81.20        6.6666        0.0024       25.3744       25.3768      18.710205       0.01306
  20     96.49        6.6667        0.0028       25.3519       25.3547      18.687999       0.01226
  19     114.6        6.6670        0.0033       25.3262       25.3295      18.662540       0.01189
  18     136.5        6.6672        0.0039       25.2962       25.3001      18.632909       0.01139
  17     162.9        6.6676        0.0047       25.2521       25.2568      18.589197       0.01397
  16     196.4        6.6681        0.0056       25.1593       25.1649      18.496835       0.02325
  15     218.7        6.6685        0.0062       25.0159       25.0222      18.353696       0.05434
  14     243.0        6.6690        0.0069       24.7089       24.7158      18.046819       0.10644
  13     269.0        6.6696        0.0075       24.1619       24.1693      17.499722       0.17748
  12     297.5        6.6705        0.0081       23.4544       23.4625      16.791957       0.20992
  11     328.5        6.6717        0.0087       22.7355       22.7442      16.072487       0.19562
  10     361.9        6.6732        0.0093       21.9224       21.9317      15.258546       0.20594
   9     398.1        6.6752        0.0099       20.9939       21.0038      14.328651       0.21664
   8     437.6        6.6778        0.0104       19.9833       19.9938      13.315999       0.21651
   7     480.5        6.6812        0.0110       18.9483       18.9593      12.278041       0.20385
   6     533.0        6.6868        0.0116       17.7796       17.7912      11.104396       0.18880
   5     589.8        6.6952        0.0122       16.6726       16.6847       9.989557       0.16548
   4     651.6        6.7095        0.0128       15.6343       15.6471       8.937560       0.14386
   3     718.7        6.7339        0.0135       14.7738       14.7873       8.053380       0.11112
   2     792.3        6.7776        0.0142       14.0291       14.0434       7.265734       0.09033
   1     891.5        6.8878        0.0152       13.0822       13.0974       6.209567       0.08987
   0    1013.0        7.1942        0.0162       12.0384       12.0546       4.860413       0.09368



 Wavenumbers:  6150. -  7700. cm-1, ATM      1
 LEVEL PRESSURE   UPWARD FLUX   DIFDOWN FLUX  DIRDOWN FLUX  DOWNWARD FLUX   NET FLUX    HEATING RATE
          mb          W/m2          W/m2          W/m2        W/m2          W/m2       degree/day
  51    .06700        9.8253        0.0000       47.3109       47.3109      37.485539       0.00000
  50    .07753        9.8253        0.0000       47.3108       47.3108      37.485482       0.04553
  49    .09103        9.8253        0.0000       47.3107       47.3107      37.485409       0.04583
  48    0.1069        9.8253        0.0000       47.3106       47.3106      37.485322       0.04614
  47    0.1255        9.8253        0.0000       47.3105       47.3105      37.485220       0.04645
  46    0.1487        9.8253        0.0000       47.3104       47.3104      37.485087       0.04852
  45    0.1794        9.8253        0.0000       47.3102       47.3102      37.484900       0.05127
  44    0.2165        9.8253        0.0000       47.3100       47.3100      37.484673       0.05167
  43    0.2613        9.8253        0.0000       47.3097       47.3097      37.484397       0.05210
  42    0.3336        9.8253        0.0000       47.3092       47.3092      37.483927       0.05471
  41    0.4307        9.8253        0.0000       47.3085       47.3086      37.483292       0.05521
  40    0.5894        9.8253        0.0001       47.3074       47.3075      37.482233       0.05633
  39     1.339        9.8252        0.0002       47.3022       47.3023      37.477141       0.05733
  38     1.782        9.8252        0.0002       47.2991       47.2993      37.474171       0.05655
  37     2.292        9.8251        0.0003       47.2956       47.2959      37.470795       0.05591
  36     2.964        9.8251        0.0003       47.2912       47.2915      37.466477       0.05421
  35     3.853        9.8250        0.0005       47.2855       47.2859      37.460942       0.05252
  34     5.035        9.8249        0.0006       47.2780       47.2786      37.453762       0.05129
  33     6.613        9.8247        0.0008       47.2683       47.2691      37.444374       0.05019
  32     8.786        9.8245        0.0010       47.2556       47.2566      37.432075       0.04777
  31     11.80        9.8243        0.0014       47.2380       47.2394      37.415172       0.04732
  30     15.07        9.8240        0.0018       47.2201       47.2219      37.397885       0.04463
  29     18.79        9.8236        0.0022       47.2008       47.2031      37.379406       0.04190
  28     23.16        9.8233        0.0028       47.1795       47.1823      37.359017       0.03943
  27     28.12        9.8228        0.0034       47.1565       47.1598      37.337024       0.03739
  26     33.73        9.8223        0.0040       47.1324       47.1364      37.314105       0.03446
  25     40.54        9.8217        0.0048       47.1054       47.1102      37.288470       0.03180
  24     48.69        9.8210        0.0058       47.0754       47.0812      37.260220       0.02923
  23     57.69        9.8202        0.0069       47.0449       47.0518      37.231603       0.02682
  22     68.43        9.8193        0.0081       47.0110       47.0191      37.199871       0.02495
  21     81.20        9.8181        0.0097       46.9729       46.9825      37.164385       0.02345
  20     96.49        9.8168        0.0115       46.9294       46.9408      37.124055       0.02226
  19     114.6        9.8152        0.0136       46.8790       46.8926      37.077438       0.02177
  18     136.5        9.8133        0.0162       46.8200       46.8361      37.022838       0.02099
  17     162.9        9.8110        0.0192       46.7361       46.7553      36.944261       0.02512
  16     196.4        9.8082        0.0231       46.5703       46.5934      36.785175       0.04004
  15     218.7        9.8064        0.0256       46.3473       46.3729      36.566558       0.08300
  14     243.0        9.8045        0.0282       45.9299       45.9581      36.153620       0.14322
  13     269.0        9.8027        0.0309       45.1708       45.2017      35.398948       0.24481
  12     297.5        9.8012        0.0334       44.0115       44.0449      34.243699       0.34263
  11     328.5        9.8001        0.0360       42.7242       42.7602      32.960174       0.34899
  10     361.9        9.7995        0.0386       41.3539       41.3926      31.593042       0.34590
   9     398.1        9.7999        0.0411       39.7953       39.8364      30.036503       0.36264
   8     437.6        9.8018        0.0435       37.9948       38.0383      28.236411       0.38487
   7     480.5        9.8060        0.0457       36.0647       36.1104      26.304408       0.37944
   6     533.0        9.8151        0.0480       33.7773       33.8253      24.010203       0.36906
   5     589.8        9.8323        0.0500       31.4082       31.4582      21.625902       0.35391
   4     651.6        9.8665        0.0516       28.8834       28.9350      19.068465       0.34974
   3     718.7        9.9296        0.0530       26.4104       26.4633      16.533738       0.31854
   2     792.3       10.0476        0.0540       24.0056       24.0596      14.012020       0.28921
   1     891.5       10.3472        0.0552       21.2348       21.2900      10.942731       0.26118
   0    1013.0       11.1432        0.0565       18.6150       18.6715       7.528360       0.23708



 Wavenumbers:  7700. -  8050. cm-1, ATM      1
 LEVEL PRESSURE   UPWARD FLUX   DIFDOWN FLUX  DIRDOWN FLUX  DOWNWARD FLUX   NET FLUX    HEATING RATE
          mb          W/m2          W/m2          W/m2        W/m2          W/m2       degree/day
  51    .06700        5.2530        0.0000       11.1810       11.1810       5.927991       0.00000
  50    .07753        5.2530        0.0000       11.1809       11.1809       5.927969       0.01698
  49    .09103        5.2530        0.0000       11.1809       11.1809       5.927943       0.01665
  48    0.1069        5.2530        0.0000       11.1809       11.1809       5.927912       0.01630
  47    0.1255        5.2530        0.0000       11.1809       11.1809       5.927877       0.01595
  46    0.1487        5.2530        0.0000       11.1808       11.1808       5.927833       0.01618
  45    0.1794        5.2530        0.0000       11.1808       11.1808       5.927772       0.01665
  44    0.2165        5.2530        0.0000       11.1807       11.1807       5.927700       0.01633
  43    0.2613        5.2530        0.0000       11.1806       11.1806       5.927615       0.01603
  42    0.3336        5.2530        0.0000       11.1805       11.1805       5.927474       0.01640
  41    0.4307        5.2531        0.0000       11.1803       11.1804       5.927288       0.01622
  40    0.5894        5.2531        0.0000       11.1801       11.1801       5.926983       0.01620
  39     1.339        5.2533        0.0001       11.1788       11.1789       5.925542       0.01623
  38     1.782        5.2535        0.0001       11.1781       11.1782       5.924695       0.01612
  37     2.292        5.2536        0.0001       11.1772       11.1773       5.923715       0.01623
  36     2.964        5.2538        0.0002       11.1761       11.1762       5.922428       0.01615
  35     3.853        5.2541        0.0002       11.1746       11.1748       5.920729       0.01613
  34     5.035        5.2544        0.0003       11.1726       11.1729       5.918471       0.01613
  33     6.613        5.2549        0.0004       11.1700       11.1703       5.915456       0.01612
  32     8.786        5.2555        0.0005       11.1664       11.1669       5.911394       0.01577
  31     11.80        5.2563        0.0006       11.1613       11.1619       5.905587       0.01626
  30     15.07        5.2573        0.0008       11.1558       11.1566       5.899359       0.01608
  29     18.79        5.2584        0.0010       11.1497       11.1507       5.892331       0.01593
  28     23.16        5.2596        0.0012       11.1425       11.1437       5.884134       0.01585
  27     28.12        5.2610        0.0015       11.1343       11.1358       5.874776       0.01591
  26     33.73        5.2627        0.0018       11.1252       11.1270       5.864326       0.01571
  25     40.54        5.2646        0.0022       11.1142       11.1164       5.851733       0.01562
  24     48.69        5.2670        0.0026       11.1010       11.1036       5.836598       0.01566
  23     57.69        5.2696        0.0031       11.0866       11.0897       5.820036       0.01553
  22     68.43        5.2728        0.0036       11.0695       11.0732       5.800395       0.01544
  21     81.20        5.2766        0.0043       11.0494       11.0537       5.777117       0.01538
  20     96.49        5.2811        0.0051       11.0255       11.0306       5.749553       0.01521
  19     114.6        5.2865        0.0061       10.9975       11.0036       5.717065       0.01517
  18     136.5        5.2931        0.0072       10.9648       10.9720       5.678887       0.01468
  17     162.9        5.3010        0.0085       10.9263       10.9348       5.633868       0.01439
  16     196.4        5.3114        0.0103       10.8773       10.8875       5.576162       0.01453
  15     218.7        5.3183        0.0114       10.8455       10.8569       5.538628       0.01425
  14     243.0        5.3260        0.0126       10.8114       10.8241       5.498093       0.01406
  13     269.0        5.3345        0.0140       10.7749       10.7889       5.454395       0.01418
  12     297.5        5.3438        0.0154       10.7357       10.7511       5.407312       0.01396
  11     328.5        5.3542        0.0170       10.6937       10.7107       5.356537       0.01381
  10     361.9        5.3657        0.0187       10.6489       10.6675       5.301844       0.01384
   9     398.1        5.3785        0.0205       10.6008       10.6212       5.242745       0.01377
   8     437.6        5.3928        0.0224       10.5491       10.5715       5.178631       0.01371
   7     480.5        5.4089        0.0245       10.4934       10.5179       5.108937       0.01369
   6     533.0        5.4300        0.0270       10.4243       10.4513       5.021291       0.01410
   5     589.8        5.4545        0.0297       10.3479       10.3776       4.923088       0.01458
   4     651.6        5.4840        0.0326       10.2613       10.2940       4.809996       0.01547
   3     718.7        5.5201        0.0357       10.1618       10.1975       4.677417       0.01666
   2     792.3        5.5658        0.0390       10.0439       10.0829       4.517081       0.01839
   1     891.5        5.6427        0.0433        9.8626        9.9059       4.263197       0.02160
   0    1013.0        5.7643        0.0483        9.6103        9.6586       3.894352       0.02561



 Wavenumbers:  8050. - 12850. cm-1, ATM      1
 LEVEL PRESSURE   UPWARD FLUX   DIFDOWN FLUX  DIRDOWN FLUX  DOWNWARD FLUX   NET FLUX    HEATING RATE
          mb          W/m2          W/m2          W/m2        W/m2          W/m2       degree/day
  51    .06700       64.1176        0.0000      156.5418      156.5418      92.424188       0.00000
  50    .07753       64.1175        0.0000      156.5417      156.5417      92.424188       0.00000
  49    .09103       64.1175        0.0001      156.5417      156.5417      92.424188      -0.00000
  48    0.1069       64.1175        0.0001      156.5416      156.5417      92.424188       0.00000
  47    0.1255       64.1175        0.0002      156.5415      156.5417      92.424188      -0.00000
  46    0.1487       64.1174        0.0002      156.5414      156.5416      92.424188       0.00000
  45    0.1794       64.1174        0.0003      156.5413      156.5416      92.424188       0.00000
  44    0.2165       64.1174        0.0004      156.5412      156.5415      92.424188       0.00000
  43    0.2613       64.1173        0.0005      156.5410      156.5415      92.424188      -0.00000
  42    0.3336       64.1172        0.0007      156.5407      156.5414      92.424188       0.00000
  41    0.4307       64.1171        0.0009      156.5403      156.5412      92.424188      -0.00000
  40    0.5894       64.1168        0.0013      156.5397      156.5410      92.424188       0.00000
  39     1.339       64.1158        0.0033      156.5367      156.5400      92.424188      -0.00000
  38     1.782       64.1152        0.0044      156.5350      156.5394      92.424188      -0.00000
  37     2.292       64.1145        0.0057      156.5330      156.5387      92.424188       0.00000
  36     2.964       64.1136        0.0074      156.5303      156.5378      92.424188       0.00000
  35     3.853       64.1124        0.0097      156.5268      156.5365      92.424188      -0.00000
  34     5.035       64.1107        0.0127      156.5222      156.5349      92.424188      -0.00000
  33     6.613       64.1086        0.0167      156.5160      156.5327      92.424188       0.00000
  32     8.786       64.1056        0.0222      156.5076      156.5298      92.424188      -0.00000
  31     11.80       64.1014        0.0300      156.4957      156.5256      92.424188       0.00000
  30     15.07       64.0969        0.0383      156.4828      156.5211      92.424188       0.00000
  29     18.79       64.0919        0.0478      156.4682      156.5160      92.424188      -0.00000
  28     23.16       64.0859        0.0589      156.4512      156.5101      92.424188      -0.00000
  27     28.12       64.0791        0.0716      156.4317      156.5033      92.424188       0.00000
  26     33.73       64.0714        0.0858      156.4099      156.4956      92.424188       0.00000
  25     40.54       64.0622        0.1030      156.3834      156.4864      92.424188       0.00000
  24     48.69       64.0510        0.1237      156.3515      156.4752      92.424188       0.00000
  23     57.69       64.0387        0.1465      156.3164      156.4629      92.424188      -0.00000
  22     68.43       64.0241        0.1737      156.2746      156.4483      92.424188       0.00000
  21     81.20       64.0066        0.2062      156.2246      156.4308      92.424188      -0.00000
  20     96.49       63.9857        0.2450      156.1649      156.4099      92.424188       0.00000
  19     114.6       63.9610        0.2911      156.0879      156.3790      92.418034       0.00287
  18     136.5       63.9316        0.3459      155.9962      156.3420      92.410394       0.00294
  17     162.9       63.8966        0.4112      155.8831      156.2943      92.397695       0.00406
  16     196.4       63.8511        0.4962      155.7199      156.2161      92.365067       0.00821
  15     218.7       63.8212        0.5521      155.5733      156.1254      92.304135       0.02313
  14     243.0       63.7891        0.6128      155.3367      155.9494      92.160356       0.04987
  13     269.0       63.7550        0.6784      154.9514      155.6298      91.874789       0.09264
  12     297.5       63.7197        0.7490      154.3896      155.1386      91.418859       0.13522
  11     328.5       63.6836        0.8250      153.7151      154.5401      90.856561       0.15289
  10     361.9       63.6475        0.9066      152.9087      153.8153      90.167817       0.17426
   9     398.1       63.6132        0.9937      151.8986      152.8924      89.279169       0.20704
   8     437.6       63.5834        1.0863      150.6031      151.6894      88.106020       0.25083
   7     480.5       63.5617        1.1840      149.0014      150.1854      86.623689       0.29112
   6     533.0       63.5540        1.3018      146.7375      148.0394      84.485404       0.34398
   5     589.8       63.5805        1.4248      143.8730      145.2978      81.717360       0.41087
   4     651.6       63.6816        1.5504      140.0955      141.6459      77.964349       0.51323
   3     718.7       63.9093        1.6772      135.5278      137.2050      73.295677       0.58672
   2     792.3       64.3781        1.8020      130.0690      131.8711      67.492924       0.66551
   1     891.5       65.6086        1.9517      122.1273      124.0790      58.470376       0.76778
   0    1013.0       68.6691        2.1109      112.9512      115.0621      46.393042       0.83859



 Wavenumbers: 12850. - 16000. cm-1, ATM      1
 LEVEL PRESSURE   UPWARD FLUX   DIFDOWN FLUX  DIRDOWN FLUX  DOWNWARD FLUX   NET FLUX    HEATING RATE
          mb          W/m2          W/m2          W/m2        W/m2          W/m2       degree/day
  51    .06700       65.6809        0.0000       98.0872       98.0872      32.406321       0.00000
  50    .07753       65.6809        0.0001       98.0864       98.0864      32.405533       0.63203
  49    .09103       65.6809        0.0001       98.0853       98.0854      32.404543       0.61862
  48    0.1069       65.6809        0.0002       98.0841       98.0843      32.403407       0.60490
  47    0.1255       65.6809        0.0004       98.0826       98.0830      32.402102       0.59142
  46    0.1487       65.6809        0.0005       98.0809       98.0813      32.400457       0.59954
  45    0.1794       65.6809        0.0007       98.0784       98.0791      32.398222       0.61361
  44    0.2165       65.6809        0.0009       98.0756       98.0765      32.395596       0.59739
  43    0.2613       65.6810        0.0012       98.0723       98.0735      32.392512       0.58131
  42    0.3336       65.6811        0.0016       98.0670       98.0686      32.387488       0.58582
  41    0.4307       65.6814        0.0022       98.0602       98.0624      32.381003       0.56379
  40    0.5894       65.6819        0.0032       98.0496       98.0527      32.370817       0.54169
  39     1.339       65.6868        0.0077       98.0043       98.0120      32.325181       0.51378
  38     1.782       65.6915        0.0103       97.9793       97.9896      32.298123       0.51515
  37     2.292       65.6985        0.0134       97.9498       97.9632      32.264654       0.55433
  36     2.964       65.7103        0.0174       97.9088       97.9262      32.215962       0.61122
  35     3.853       65.7294        0.0227       97.8503       97.8731      32.143718       0.68561
  34     5.035       65.7582        0.0298       97.7680       97.7978      32.039580       0.74392
  33     6.613       65.7985        0.0392       97.6562       97.6954      31.896883       0.76286
  32     8.786       65.8510        0.0519       97.5107       97.5626      31.711606       0.71955
  31     11.80       65.9191        0.0701       97.3179       97.3879      31.468815       0.67974
  30     15.07       65.9842        0.0895       97.1283       97.2179      31.233681       0.60707
  29     18.79       66.0504        0.1115       96.9300       97.0415      30.991102       0.55000
  28     23.16       66.1194        0.1371       96.7166       96.8537      30.734290       0.49659
  27     28.12       66.1885        0.1664       96.4935       96.6599      30.471389       0.44692
  26     33.73       66.2518        0.1991       96.2731       96.4722      30.220419       0.37734
  25     40.54       66.3121        0.2387       96.0408       96.2795      29.967367       0.31394
  24     48.69       66.3691        0.2864       95.7946       96.0810      29.711911       0.26436
  23     57.69       66.4164        0.3388       95.5573       95.8961      29.479724       0.21764
  22     68.43       66.4561        0.4012       95.3106       95.7118      29.255720       0.17610
  21     81.20       66.4808        0.4757       95.0643       95.5400      29.059211       0.12985
  20     96.49       66.4893        0.5645       94.8153       95.3798      28.890509       0.09311
  19     114.6       66.5004        0.6710       94.5411       95.2120      28.711611       0.08353
  18     136.5       66.5040        0.7972       94.2320       95.0292      28.525181       0.07169
  17     162.9       66.4995        0.9474       93.8753       94.8227      28.323277       0.06454
  16     196.4       66.4747        1.1422       93.4347       94.5768      28.102108       0.05567
  15     218.7       66.4517        1.2701       93.1513       94.4213      27.969613       0.05030
  14     243.0       66.4237        1.4090       92.8439       94.2530      27.829206       0.04870
  13     269.0       66.3906        1.5595       92.5111       94.0707      27.680039       0.04839
  12     297.5       66.3527        1.7222       92.1495       93.8717      27.518988       0.04777
  11     328.5       66.3114        1.8979       91.7554       93.6533      27.341905       0.04815
  10     361.9       66.2672        2.0870       91.3262       93.4132      27.145933       0.04958
   9     398.1       66.2212        2.2904       90.8575       93.1479      26.926711       0.05107
   8     437.6       66.1752        2.5086       90.3418       92.8504      26.675168       0.05378
   7     480.5       66.1313        2.7423       89.7728       92.5151      26.383778       0.05723
   6     533.0       66.0880        3.0295       89.0428       92.0723      25.984358       0.06425
   5     589.8       66.0617        3.3380       88.2038       91.5418      25.480096       0.07485
   4     651.6       66.0760        3.6674       87.1979       90.8653      24.789306       0.09447
   3     718.7       66.1463        4.0161       86.0161       90.0323      23.886015       0.11352
   2     792.3       66.3223        4.3805       84.5970       88.9775      22.655228       0.14116
   1     891.5       66.7990        4.8539       82.4374       87.2913      20.492315       0.18405
   0    1013.0       67.8499        5.3961       79.6182       85.0143      17.164382       0.23108



 Wavenumbers: 16000. - 22650. cm-1, ATM      1
 LEVEL PRESSURE   UPWARD FLUX   DIFDOWN FLUX  DIRDOWN FLUX  DOWNWARD FLUX   NET FLUX    HEATING RATE
          mb          W/m2          W/m2          W/m2        W/m2          W/m2       degree/day
  51    .06700      138.4715        0.0000      156.3892      156.3892      17.917740       0.00000
  50    .07753      138.4715        0.0004      156.3887      156.3891      17.917593       0.11725
  49    .09103      138.4715        0.0009      156.3879      156.3888      17.917381       0.13298
  48    0.1069      138.4714        0.0015      156.3871      156.3885      17.917096       0.15164
  47    0.1255      138.4715        0.0021      156.3861      156.3882      17.916714       0.17285
  46    0.1487      138.4715        0.0029      156.3847      156.3877      17.916153       0.20483
  45    0.1794      138.4716        0.0041      156.3828      156.3869      17.915274       0.24117
  44    0.2165      138.4718        0.0054      156.3805      156.3859      17.914083       0.27105
  43    0.2613      138.4721        0.0070      156.3776      156.3846      17.912466       0.30472
  42    0.3336      138.4728        0.0096      156.3726      156.3822      17.909392       0.35835
  41    0.4307      138.4740        0.0131      156.3657      156.3788      17.904759       0.40282
  40    0.5894      138.4765        0.0187      156.3537      156.3724      17.895924       0.46987
  39     1.339      138.4983        0.0455      156.2834      156.3290      17.830644       0.73493
  38     1.782      138.5186        0.0613      156.2324      156.2936      17.775035       1.05872
  37     2.292      138.5491        0.0795      156.1641      156.2436      17.694539       1.33321
  36     2.964      138.5998        0.1034      156.0605      156.1639      17.564137       1.63695
  35     3.853      138.6818        0.1350      155.9041      156.0391      17.357222       1.96366
  34     5.035      138.8057        0.1769      155.6774      155.8542      17.048527       2.20519
  33     6.613      138.9789        0.2328      155.3656      155.5984      16.619541       2.29336
  32     8.786      139.2043        0.3080      154.9577      155.2657      16.061351       2.16781
  31     11.80      139.4977        0.4155      154.4153      154.8307      15.333089       2.03890
  30     15.07      139.7785        0.5307      153.8804      154.4111      14.632559       1.80863
  29     18.79      140.0651        0.6607      153.3191      153.9797      13.914616       1.62780
  28     23.16      140.3645        0.8122      152.7126      153.5248      13.160282       1.45864
  27     28.12      140.6654        0.9852      152.0755      153.0607      12.395304       1.30041
  26     33.73      140.9428        1.1787      151.4409      152.6196      11.676799       1.08029
  25     40.54      141.2092        1.4122      150.7637      152.1759      10.966698       0.88096
  24     48.69      141.4636        1.6935      150.0338      151.7273      10.263727       0.72746
  23     57.69      141.6784        2.0020      149.3151      151.3171       9.638750       0.58582
  22     68.43      141.8645        2.3690      148.5476      150.9166       9.052096       0.46119
  21     81.20      141.9909        2.8060      147.7517      150.5577       8.566823       0.32066
  20     96.49      142.0528        3.3262      146.9127      150.2388       8.186026       0.21017
  19     114.6      142.0810        3.9420      145.9763      149.9183       7.837312       0.16283
  18     136.5      142.0836        4.6691      144.9088      149.5779       7.494287       0.13190
  17     162.9      142.0587        5.5309      143.6785      149.2094       7.150697       0.10983
  16     196.4      141.9661        6.6427      142.1651      148.8077       6.841695       0.07778
  15     218.7      141.8831        7.3692      141.2033      148.5725       6.689477       0.05779
  14     243.0      141.7827        8.1555      140.1753      148.3308       6.548113       0.04903
  13     269.0      141.6634        9.0037      139.0797      148.0834       6.420003       0.04156
  12     297.5      141.5244        9.9158      137.9141      147.8299       6.305533       0.03395
  11     328.5      141.3696       10.8962      136.6676      147.5638       6.194168       0.03028
  10     361.9      141.1988       11.9456      135.3392      147.2848       6.086055       0.02735
   9     398.1      141.0113       13.0682      133.9235      146.9916       5.980325       0.02463
   8     437.6      140.8081       14.2658      132.4163      146.6820       5.873887       0.02276
   7     480.5      140.5888       15.5405      130.8147      146.3552       5.766474       0.02110
   6     533.0      140.3187       17.0973      128.8599      145.9573       5.638602       0.02057
   5     589.8      140.0312       18.7605      126.7679      145.5284       5.497258       0.02098
   4     651.6      139.7323       20.5316      124.5274      145.0590       5.326741       0.02332
   3     718.7      139.4277       22.4123      122.1285      144.5407       5.112975       0.02686
   2     792.3      139.1336       24.4004      119.5548      143.9552       4.821534       0.03343
   1     891.5      138.8141       27.0388      116.0566      143.0954       4.281341       0.04597
   0    1013.0      138.5570       30.1382      111.8404      141.9787       3.421686       0.05969



 Wavenumbers: 22650. - 29000. cm-1, ATM      1
 LEVEL PRESSURE   UPWARD FLUX   DIFDOWN FLUX  DIRDOWN FLUX  DOWNWARD FLUX   NET FLUX    HEATING RATE
          mb          W/m2          W/m2          W/m2        W/m2          W/m2       degree/day
  51    .06700       57.7293        0.0000       59.0156       59.0156       1.286302       0.00000
  50    .07753       57.7292        0.0005       59.0151       59.0155       1.286302      -0.00000
  49    .09103       57.7291        0.0010       59.0144       59.0154       1.286302       0.00000
  48    0.1069       57.7290        0.0017       59.0136       59.0153       1.286302      -0.00000
  47    0.1255       57.7288        0.0025       59.0127       59.0151       1.286302       0.00000
  46    0.1487       57.7286        0.0034       59.0115       59.0149       1.286302       0.00000
  45    0.1794       57.7284        0.0047       59.0099       59.0147       1.286302       0.00000
  44    0.2165       57.7280        0.0063       59.0080       59.0143       1.286302       0.00000
  43    0.2613       57.7277        0.0081       59.0058       59.0140       1.286302       0.00000
  42    0.3336       57.7271        0.0112       59.0022       59.0134       1.286302      -0.00000
  41    0.4307       57.7263        0.0153       58.9973       59.0126       1.286302       0.00000
  40    0.5894       57.7249        0.0219       58.9894       59.0112       1.286302       0.00000
  39     1.339       57.7187        0.0532       58.9518       59.0050       1.286302       0.00000
  38     1.782       57.7150        0.0716       58.9297       59.0013       1.286302      -0.00000
  37     2.292       57.7107        0.0928       58.9042       58.9970       1.286302       0.00000
  36     2.964       57.7051        0.1208       58.8706       58.9914       1.286302      -0.00000
  35     3.853       57.6977        0.1577       58.8264       58.9840       1.286302       0.00000
  34     5.035       57.6879        0.2066       58.7676       58.9742       1.286302      -0.00000
  33     6.613       57.6748        0.2720       58.6891       58.9611       1.286302       0.00000
  32     8.786       57.6572        0.3601       58.5834       58.9435       1.286302       0.00000
  31     11.80       57.6320        0.4858       58.4324       58.9183       1.286302      -0.00000
  30     15.07       57.6049        0.6206       58.2706       58.8912       1.286302       0.00000
  29     18.79       57.5745        0.7726       58.0882       58.8608       1.286302      -0.00000
  28     23.16       57.5390        0.9496       57.8757       58.8253       1.286302       0.00000
  27     28.12       57.4985        1.1515       57.6333       58.7848       1.286302       0.00000
  26     33.73       57.4533        1.3766       57.3631       58.7396       1.286302       0.00000
  25     40.54       57.3990        1.6474       57.0379       58.6853       1.286302      -0.00000
  24     48.69       57.3338        1.9722       56.6479       58.6201       1.286302       0.00000
  23     57.69       57.2626        2.3268       56.2221       58.5489       1.286302      -0.00000
  22     68.43       57.1783        2.7460       55.7186       58.4646       1.286302       0.00000
  21     81.20       57.0788        3.2411       55.1239       58.3651       1.286302       0.00000
  20     96.49       56.9613        3.8248       54.4228       58.2476       1.286302       0.00000
  19     114.6       56.8236        4.5089       53.6010       58.1099       1.286302       0.00000
  18     136.5       56.6626        5.3072       52.6418       57.9489       1.286302       0.00000
  17     162.9       56.4743        6.2402       51.5203       57.7606       1.286302      -0.00000
  16     196.4       56.2353        7.4221       50.0994       57.5216       1.286302       0.00000
  15     218.7       56.0815        8.1815       49.1863       57.3678       1.286302      -0.00000
  14     243.0       55.9171        8.9921       48.2113       57.2034       1.286302       0.00000
  13     269.0       55.7422        9.8535       47.1749       57.0285       1.286302       0.00000
  12     297.5       55.5568       10.7648       46.0783       56.8431       1.286302       0.00000
  11     328.5       55.3606       11.7274       44.9195       56.6469       1.286302       0.00000
  10     361.9       55.1541       12.7386       43.7018       56.4404       1.286302       0.00000
   9     398.1       54.9372       13.7984       42.4250       56.2235       1.286302       0.00000
   8     437.6       54.7101       14.9048       41.0916       55.9965       1.286302       0.00000
   7     480.5       54.4734       16.0553       39.7045       55.7597       1.286302      -0.00000
   6     533.0       54.1910       17.4231       38.0543       55.4773       1.286302       0.00000
   5     589.8       53.8973       18.8405       36.3431       55.1836       1.286302       0.00000
   4     651.6       53.5933       20.3001       34.5795       54.8796       1.286302       0.00000
   3     718.7       53.2802       21.7962       32.7702       54.5665       1.286302       0.00000
   2     792.3       52.9593       23.3200       30.9256       54.2456       1.286302      -0.00000
   1     891.5       52.5484       25.2569       28.5778       53.8347       1.286302      -0.00000
   0    1013.0       52.0872       27.4071       25.9665       53.3735       1.286302       0.00000



 Wavenumbers: 29000. - 38000. cm-1, ATM      1
 LEVEL PRESSURE   UPWARD FLUX   DIFDOWN FLUX  DIRDOWN FLUX  DOWNWARD FLUX   NET FLUX    HEATING RATE
          mb          W/m2          W/m2          W/m2        W/m2          W/m2       degree/day
  51    .06700        8.6524        0.0000       20.8114       20.8114      12.158950       0.00000
  50    .07753        8.6522        0.0003       20.8070       20.8074      12.155143       3.05143
  49    .09103        8.6520        0.0007       20.8009       20.8016      12.149606       3.46071
  48    0.1069        8.6517        0.0012       20.7928       20.7939      12.142197       3.94413
  47    0.1255        8.6515        0.0017       20.7820       20.7837      12.132292       4.49015
  46    0.1487        8.6511        0.0024       20.7665       20.7688      12.117730       5.30821
  45    0.1794        8.6506        0.0033       20.7424       20.7457      12.095066       6.22177
  44    0.2165        8.6501        0.0043       20.7103       20.7147      12.064544       6.94309
  43    0.2613        8.6495        0.0056       20.6675       20.6731      12.023551       7.72697
  42    0.3336        8.6486        0.0077       20.5880       20.5956      11.946994       8.92583
  41    0.4307        8.6475        0.0104       20.4722       20.4826      11.835047       9.73354
  40    0.5894        8.6460        0.0147       20.2637       20.2783      11.632374      10.77789
  39     1.339        8.6424        0.0331       19.0984       19.1314      10.488979      12.87255
  38     1.782        8.6428        0.0426       18.4394       18.4820       9.839124      12.37219
  37     2.292        8.6454        0.0528       17.7714       17.8243       9.178878      10.93540
  36     2.964        8.6517        0.0655       17.0421       17.1076       8.455911       9.07542
  35     3.853        8.6642        0.0814       16.2678       16.3492       7.684978       7.31630
  34     5.035        8.6849        0.1015       15.4803       15.5818       6.896847       5.63008
  33     6.613        8.7151        0.1271       14.7157       14.8428       6.127766       4.11151
  32     8.786        8.7549        0.1608       13.9936       14.1544       5.399473       2.82843
  31     11.80        8.8068        0.2076       13.2835       13.4912       4.684373       2.00205
  30     15.07        8.8569        0.2563       12.7394       12.9956       4.138743       1.40871
  29     18.79        8.9085        0.3101       12.2666       12.5767       3.668178       1.06692
  28     23.16        8.9634        0.3714       11.8300       12.2014       3.237987       0.83185
  27     28.12        9.0195        0.4399       11.4279       11.8678       2.848283       0.66247
  26     33.73        9.0712        0.5155       11.0695       11.5850       2.513735       0.50300
  25     40.54        9.1201        0.6058       10.7209       11.3267       2.206545       0.38110
  24     48.69        9.1661        0.7129       10.3742       11.0871       1.920990       0.29550
  23     57.69        9.2035        0.8288       10.0549       10.8837       1.680152       0.22575
  22     68.43        9.2335        0.9647        9.7327       10.6975       1.464011       0.16992
  21     81.20        9.2470        1.1253        9.4134       10.5387       1.291713       0.11385
  20     96.49        9.2421        1.3139        9.0887       10.4027       1.160593       0.07237
  19     114.6        9.2267        1.5319        8.7388       10.2706       1.043915       0.05448
  18     136.5        9.2039        1.7810        8.3549       10.1358       0.931996       0.04304
  17     162.9        9.1735        2.0648        7.9311        9.9960       0.822456       0.03501
  16     196.4        9.1235        2.4163        7.4333        9.8496       0.726082       0.02426
  15     218.7        9.0878        2.6373        7.1295        9.7669       0.679096       0.01784
  14     243.0        9.0486        2.8683        6.8161        9.6843       0.635723       0.01504
  13     269.0        9.0059        3.1083        6.4943        9.6027       0.596791       0.01263
  12     297.5        8.9596        3.3564        6.1657        9.5221       0.562483       0.01018
  11     328.5        8.9112        3.6114        5.8295        9.4409       0.529648       0.00893
  10     361.9        8.8612        3.8710        5.4886        9.3596       0.498433       0.00790
   9     398.1        8.8096        4.1345        5.1440        9.2785       0.468865       0.00689
   8     437.6        8.7570        4.4004        4.7969        9.1974       0.440375       0.00609
   7     480.5        8.7037        4.6667        4.4504        9.1170       0.413345       0.00531
   6     533.0        8.6422        4.9699        4.0563        9.0261       0.383896       0.00474
   5     589.8        8.5812        5.2684        3.6682        8.9366       0.355403       0.00423
   4     651.6        8.5216        5.5587        3.2905        8.8492       0.327547       0.00381
   3     718.7        8.4639        5.8389        2.9252        8.7641       0.300286       0.00343
   2     792.3        8.4087        6.1059        2.5764        8.6823       0.273624       0.00306
   1     891.5        8.3441        6.4189        2.1659        8.5848       0.240741       0.00280
   0    1013.0        8.2801        6.7320        1.7526        8.4846       0.204478       0.00252



 Wavenumbers: 38000. - 50000. cm-1, ATM      1
 LEVEL PRESSURE   UPWARD FLUX   DIFDOWN FLUX  DIRDOWN FLUX  DOWNWARD FLUX   NET FLUX    HEATING RATE
          mb          W/m2          W/m2          W/m2        W/m2          W/m2       degree/day
  51    .06700        0.0061        0.0000        1.2836        1.2836       1.277518       0.00000
  50    .07753        0.0061        0.0001        1.2812        1.2812       1.275183       1.87150
  49    .09103        0.0060        0.0002        1.2777        1.2778       1.271851       2.08247
  48    0.1069        0.0059        0.0002        1.2731        1.2734       1.267473       2.33059
  47    0.1255        0.0058        0.0004        1.2672        1.2675       1.261717       2.60908
  46    0.1487        0.0057        0.0005        1.2586        1.2591       1.253391       3.03499
  45    0.1794        0.0055        0.0007        1.2455        1.2462       1.240623       3.50520
  44    0.2165        0.0054        0.0009        1.2282        1.2291       1.223697       3.85037
  43    0.2613        0.0052        0.0011        1.2054        1.2065       1.201348       4.21261
  42    0.3336        0.0049        0.0015        1.1639        1.1654       1.160524       4.75970
  41    0.4307        0.0045        0.0020        1.1051        1.1070       1.102565       5.03943
  40    0.5894        0.0039        0.0026        1.0039        1.0064       1.002524       5.32007
  39     1.339        0.0022        0.0035        0.5438        0.5473       0.545104       5.14971
  38     1.782        0.0016        0.0032        0.3635        0.3666       0.365006       3.42879
  37     2.292        0.0012        0.0027        0.2356        0.2383       0.237058       2.11916
  36     2.964        0.0009        0.0022        0.1455        0.1477       0.146786       1.13318
  35     3.853        0.0006        0.0017        0.0858        0.0875       0.086906       0.56828
  34     5.035        0.0004        0.0013        0.0488        0.0501       0.049701       0.26578
  33     6.613        0.0003        0.0010        0.0273        0.0282       0.027974       0.11615
  32     8.786        0.0002        0.0007        0.0144        0.0151       0.014928       0.05067
  31     11.80        0.0001        0.0004        0.0065        0.0070       0.006903       0.02247
  30     15.07        0.0000        0.0003        0.0031        0.0034       0.003329       0.00923
  29     18.79        0.0000        0.0002        0.0014        0.0016       0.001583       0.00396
  28     23.16        0.0000        0.0001        0.0006        0.0007       0.000720       0.00167
  27     28.12        0.0000        0.0001        0.0003        0.0003       0.000317       0.00069
  26     33.73        0.0000        0.0000        0.0001        0.0001       0.000140       0.00027
  25     40.54        0.0000        0.0000        0.0000        0.0001       0.000057       0.00010
  24     48.69        0.0000        0.0000        0.0000        0.0000       0.000021       0.00004
  23     57.69        0.0000        0.0000        0.0000        0.0000       0.000008       0.00001
  22     68.43        0.0000        0.0000        0.0000        0.0000       0.000003       0.00000
  21     81.20        0.0000        0.0000        0.0000        0.0000       0.000001       0.00000
  20     96.49        0.0000        0.0000        0.0000        0.0000       0.000000       0.00000
  19     114.6        0.0000        0.0000        0.0000        0.0000       0.000000       0.00000
  18     136.5        0.0000        0.0000        0.0000        0.0000       0.000000       0.00000
  17     162.9        0.0000        0.0000        0.0000        0.0000       0.000000       0.00000
  16     196.4        0.0000        0.0000        0.0000        0.0000       0.000000       0.00000
  15     218.7        0.0000        0.0000        0.0000        0.0000       0.000000       0.00000
  14     243.0        0.0000        0.0000        0.0000        0.0000       0.000000       0.00000
  13     269.0        0.0000        0.0000        0.0000        0.0000       0.000000       0.00000
  12     297.5        0.0000        0.0000        0.0000        0.0000       0.000000       0.00000
  11     328.5        0.0000        0.0000        0.0000        0.0000       0.000000       0.00000
  10     361.9        0.0000        0.0000        0.0000        0.0000       0.000000       0.00000
   9     398.1        0.0000        0.0000        0.0000        0.0000       0.000000       0.00000
   8     437.6        0.0000        0.0000        0.0000        0.0000       0.000000       0.00000
   7     480.5        0.0000        0.0000        0.0000        0.0000       0.000000       0.00000
   6     533.0        0.0000        0.0000        0.0000        0.0000       0.000000       0.00000
   5     589.8        0.0000        0.0000        0.0000        0.0000       0.000000       0.00000
   4     651.6        0.0000        0.0000        0.0000        0.0000       0.000000       0.00000
   3     718.7        0.0000        0.0000        0.0000        0.0000       0.000000       0.00000
   2     792.3        0.0000        0.0000        0.0000        0.0000       0.000000       0.00000
   1     891.5        0.0000        0.0000        0.0000        0.0000       0.000000       0.00000
   0    1013.0        0.0000        0.0000        0.0000        0.0000       0.000000       0.00000



 Wavenumbers:   820. -  2600. cm-1, ATM      1
 LEVEL PRESSURE   UPWARD FLUX   DIFDOWN FLUX  DIRDOWN FLUX  DOWNWARD FLUX   NET FLUX    HEATING RATE
          mb          W/m2          W/m2          W/m2        W/m2          W/m2       degree/day
  51    .06700        0.6379        0.0000        6.0047        6.0047       5.366734       0.00000
  50    .07753        0.6379        0.0000        6.0008        6.0008       5.362881       3.08820
  49    .09103        0.6379        0.0000        5.9999        5.9999       5.361995       0.55357
  48    0.1069        0.6379        0.0000        5.9989        5.9989       5.361006       0.52651
  47    0.1255        0.6379        0.0000        5.9978        5.9978       5.359889       0.50649
  46    0.1487        0.6379        0.0000        5.9964        5.9964       5.358532       0.49456
  45    0.1794        0.6379        0.0000        5.9947        5.9947       5.356813       0.47199
  44    0.2165        0.6379        0.0000        5.9929        5.9929       5.354971       0.41909
  43    0.2613        0.6379        0.0000        5.9909        5.9909       5.353011       0.36932
  42    0.3336        0.6379        0.0000        5.9880        5.9880       5.350133       0.33555
  41    0.4307        0.6379        0.0000        5.9846        5.9846       5.346664       0.30164
  40    0.5894        0.6379        0.0000        5.9791        5.9791       5.341159       0.29275
  39     1.339        0.6379        0.0000        5.9536        5.9536       5.315673       0.28693
  38     1.782        0.6379        0.0000        5.9395        5.9395       5.301535       0.26916
  37     2.292        0.6379        0.0000        5.9237        5.9237       5.285785       0.26087
  36     2.964        0.6379        0.0000        5.9039        5.9039       5.266011       0.24821
  35     3.853        0.6379        0.0000        5.8793        5.8793       5.241356       0.23398
  34     5.035        0.6379        0.0000        5.8487        5.8487       5.210795       0.21832
  33     6.613        0.6379        0.0000        5.8108        5.8108       5.172832       0.20295
  32     8.786        0.6379        0.0000        5.7631        5.7631       5.125210       0.18495
  31     11.80        0.6379        0.0000        5.7039        5.7039       5.065955       0.16589
  30     15.07        0.6379        0.0000        5.6539        5.6539       5.015918       0.12919
  29     18.79        0.6380        0.0000        5.6127        5.6127       4.974784       0.09326
  28     23.16        0.6380        0.0000        5.5794        5.5794       4.941409       0.06454
  27     28.12        0.6380        0.0000        5.5518        5.5518       4.913842       0.04686
  26     33.73        0.6380        0.0000        5.5268        5.5268       4.888787       0.03767
  25     40.54        0.6380        0.0000        5.4993        5.4993       4.861340       0.03405
  24     48.69        0.6380        0.0000        5.4678        5.4678       4.829792       0.03265
  23     57.69        0.6380        0.0000        5.4340        5.4340       4.795994       0.03168
  22     68.43        0.6380        0.0000        5.3947        5.3948       4.756708       0.03088
  21     81.20        0.6381        0.0000        5.3497        5.3497       4.711659       0.02977
  20     96.49        0.6381        0.0000        5.2982        5.2982       4.660124       0.02844
  19     114.6        0.6381        0.0000        5.2389        5.2389       4.600775       0.02771
  18     136.5        0.6382        0.0000        5.1716        5.1717       4.533485       0.02587
  17     162.9        0.6382        0.0000        5.0890        5.0890       4.450803       0.02643
  16     196.4        0.6384        0.0000        4.9668        4.9668       4.328477       0.03079
  15     218.7        0.6385        0.0000        4.8585        4.8585       4.220004       0.04118
  14     243.0        0.6387        0.0000        4.7078        4.7079       4.069206       0.05230
  13     269.0        0.6389        0.0000        4.5343        4.5343       3.895345       0.05640
  12     297.5        0.6394        0.0000        4.3419        4.3420       3.702567       0.05718
  11     328.5        0.6400        0.0000        4.1281        4.1281       3.488114       0.05831
  10     361.9        0.6409        0.0000        3.8786        3.8787       3.237794       0.06333
   9     398.1        0.6420        0.0000        3.6159        3.6159       2.973938       0.06147
   8     437.6        0.6435        0.0000        3.3759        3.3759       2.732393       0.05164
   7     480.5        0.6453        0.0000        3.1957        3.1958       2.550442       0.03573
   6     533.0        0.6482        0.0000        3.0467        3.0467       2.398489       0.02444
   5     589.8        0.6525        0.0000        2.9023        2.9023       2.249774       0.02207
   4     651.6        0.6604        0.0000        2.7183        2.7184       2.057985       0.02623
   3     718.7        0.6740        0.0000        2.5058        2.5059       1.831877       0.02842
   2     792.3        0.6990        0.0000        2.2756        2.2757       1.576660       0.02927
   1     891.5        0.7627        0.0000        1.9621        1.9622       1.199415       0.03210
   0    1013.0        0.9232        0.0000        1.5468        1.5469       0.623702       0.03997

  Modules and versions used in this calculation:

       rrtmg_sw.1col.f90:  $Revision$                    rrtmg_sw_init.f90:  $Revision$        
     rrtmgsw_cldprop.f90:  $Revision$                  rrtmgsw_cldprmc.f90:  NOT USED          
     rrtmg_sw_reftra.f90:  $Revision$                  rrtmg_sw_spcvrt.f90:  NOT USED          
     rrtmg_sw_spcvmc.f90:  NOT USED                    rrtmgsw_setcoef.f90:  NOT USED          
     rrtmg_sw_taumol.f90:  $Revision$                  rrtmg_sw_vrtqdr.f90:  NOT USED          
                rrtatm.f:  NOT USED                             util_xxx.f:  NOT USED          
                 extra.f:  NOT USED                       rrtmg_sw_k_g.f90:  $Revision$        

