

 Wavenumbers:   820. - 50000. cm-1, ATM      1
 LEVEL PRESSURE   UPWARD FLUX   DIFDOWN FLUX  DIRDOWN FLUX  DOWNWARD FLUX   NET FLUX    HEATING RATE
          mb          W/m2          W/m2          W/m2        W/m2          W/m2       degree/day
  51    .06700      232.4456        0.0000      397.8738      397.8738     165.428150       0.00000
  50    .07753      232.4451        0.0012      397.8577      397.8589     165.413817      11.48788
  49    .09103      232.4443        0.0027      397.8417      397.8444     165.400081       8.58549
  48    0.1069      232.4435        0.0044      397.8228      397.8272     165.383681       8.73004
  47    0.1255      232.4426        0.0063      397.7995      397.8058     165.363182       9.29341
  46    0.1487      232.4415        0.0088      397.7674      397.7762     165.334653      10.39909
  45    0.1794      232.4401        0.0122      397.7202      397.7324     165.292267      11.63595
  44    0.2165      232.4385        0.0162      397.6598      397.6760     165.237509      12.45649
  43    0.2613      232.4366        0.0209      397.5823      397.6032     165.166575      13.37071
  42    0.3336      232.4338        0.0286      397.4441      397.4727     165.038902      14.88536
  41    0.4307      232.4303        0.0387      397.2513      397.2900     164.859739      15.57788
  40    0.5894      232.4253        0.0550      396.9238      396.9788     164.553541      16.28323
  39     1.339      232.4133        0.1279      395.4223      395.5502     163.136848      15.94938
  38     1.782      232.4142        0.1688      394.7250      394.8938     162.479551      12.51388
  37     2.292      232.4222        0.2154      394.0527      394.2681     161.845870      10.49541
  36     2.964      232.4431        0.2758      393.2958      393.5716     161.128542       9.00463
  35     3.853      232.4851        0.3549      392.4268      392.7817     160.296642       7.89489
  34     5.035      232.5550        0.4589      391.4394      391.8982     159.343220       6.81085
  33     6.613      232.6563        0.5967      390.3226      390.9193     158.262955       5.77510
  32     8.786      232.7871        0.7810      389.0591      389.8402     157.053089       4.69868
  31     11.80      232.9498        1.0427      387.5485      388.5912     155.641435       3.95219
  30     15.07      233.0960        1.3215      386.1563      387.4778     154.381746       3.25227
  29     18.79      233.2358        1.6339      384.7539      386.3879     153.152054       2.78809
  28     23.16      233.3699        1.9960      383.2764      385.2724     151.902529       2.41618
  27     28.12      233.4890        2.4068      381.7455      384.1523     150.663298       2.10661
  26     33.73      233.5723        2.8632      380.2168      383.0800     149.507697       1.73748
  25     40.54      233.6149        3.4107      378.5644      381.9751     148.360202       1.42360
  24     48.69      233.6107        4.0651      376.7572      380.8223     147.211616       1.18861
  23     57.69      233.5528        4.7774      374.9411      379.7185     146.165654       0.98043
  22     68.43      233.4268        5.6173      372.9538      378.5711     145.144317       0.80291
  21     81.20      233.1976        6.6077      370.8117      377.4194     144.221750       0.60962
  20     96.49      232.8533        7.7732      368.4756      376.2489     143.395539       0.45601
  19     114.6      232.4225        9.1354      365.8339      374.9693     142.546758       0.39632
  18     136.5      231.8962       10.7183      362.8400      373.5583     141.662077       0.34018
  17     162.9      231.2609       12.5597      359.3892      371.9489     140.688025       0.31135
  16     196.4      230.4073       14.8834      355.0144      369.8978     139.490441       0.30145
  15     218.7      229.8421       16.3708      351.9594      368.3303     138.488132       0.38054
  14     243.0      229.2322       17.9541      348.2675      366.2216     136.989419       0.51980
  13     269.0      228.5775       19.6316      343.7550      363.3866     134.809073       0.70729
  12     297.5      227.8798       21.4015      338.5068      359.9083     132.028411       0.82471
  11     328.5      227.1428       23.2658      332.8831      356.1489     129.006073       0.82177
  10     361.9      226.3697       25.2197      326.8113      352.0310     125.661314       0.84626
   9     398.1      225.5621       27.2630      320.2372      347.5002     121.938103       0.86742
   8     437.6      224.7264       29.3907      313.1616      342.5523     117.825884       0.87922
   7     480.5      223.8673       31.5999      305.6964      337.2963     113.428963       0.86354
   6     533.0      222.8672       34.2215      296.6807      330.9022     108.034942       0.86773
   5     589.8      221.8725       36.9335      287.0555      323.9890     102.116481       0.87849
   4     651.6      220.9348       39.7250      276.4494      316.1743      95.239524       0.94044
   3     718.7      220.1115       42.5809      265.1657      307.7467      87.635152       0.95566
   2     792.3      219.5306       45.4836      252.9748      298.4583      78.927736       0.99864
   1     891.5      219.4501       49.1550      236.8133      285.9683      66.518210       1.05599
   0    1013.0      220.8908       53.2305      218.9853      272.2157      51.324972       1.05494



 Wavenumbers:  2600. -  3250. cm-1, ATM      1
 LEVEL PRESSURE   UPWARD FLUX   DIFDOWN FLUX  DIRDOWN FLUX  DOWNWARD FLUX   NET FLUX    HEATING RATE
          mb          W/m2          W/m2          W/m2        W/m2          W/m2       degree/day
  51    .06700        0.5306        0.0000        3.5066        3.5066       2.976000       0.00000
  50    .07753        0.5306        0.0000        3.5066        3.5066       2.975992       0.00640
  49    .09103        0.5306        0.0000        3.5066        3.5066       2.975982       0.00627
  48    0.1069        0.5306        0.0000        3.5066        3.5066       2.975971       0.00613
  47    0.1255        0.5306        0.0000        3.5066        3.5066       2.975958       0.00599
  46    0.1487        0.5306        0.0000        3.5066        3.5066       2.975941       0.00607
  45    0.1794        0.5306        0.0000        3.5065        3.5065       2.975918       0.00624
  44    0.2165        0.5306        0.0000        3.5065        3.5065       2.975891       0.00611
  43    0.2613        0.5306        0.0000        3.5065        3.5065       2.975860       0.00598
  42    0.3336        0.5306        0.0000        3.5064        3.5064       2.975807       0.00615
  41    0.4307        0.5306        0.0000        3.5064        3.5064       2.975736       0.00618
  40    0.5894        0.5306        0.0000        3.5062        3.5062       2.975617       0.00633
  39     1.339        0.5306        0.0000        3.5055        3.5055       2.974918       0.00787
  38     1.782        0.5306        0.0000        3.5050        3.5050       2.974387       0.01011
  37     2.292        0.5306        0.0000        3.5043        3.5043       2.973695       0.01147
  36     2.964        0.5306        0.0000        3.5033        3.5033       2.972703       0.01245
  35     3.853        0.5306        0.0000        3.5019        3.5019       2.971326       0.01307
  34     5.035        0.5306        0.0000        3.5001        3.5001       2.969465       0.01329
  33     6.613        0.5306        0.0000        3.4977        3.4977       2.967056       0.01288
  32     8.786        0.5306        0.0000        3.4947        3.4947       2.964085       0.01154
  31     11.80        0.5306        0.0000        3.4911        3.4911       2.960449       0.01018
  30     15.07        0.5306        0.0000        3.4878        3.4878       2.957228       0.00832
  29     18.79        0.5306        0.0000        3.4848        3.4848       2.954164       0.00695
  28     23.16        0.5306        0.0000        3.4816        3.4816       2.950944       0.00623
  27     28.12        0.5306        0.0000        3.4779        3.4779       2.947326       0.00615
  26     33.73        0.5306        0.0000        3.4735        3.4735       2.942859       0.00672
  25     40.54        0.5306        0.0000        3.4671        3.4671       2.936531       0.00785
  24     48.69        0.5306        0.0000        3.4582        3.4583       2.927635       0.00921
  23     57.69        0.5306        0.0000        3.4472        3.4472       2.916584       0.01036
  22     68.43        0.5306        0.0000        3.4329        3.4329       2.902321       0.01121
  21     81.20        0.5306        0.0000        3.4152        3.4152       2.884587       0.01172
  20     96.49        0.5306        0.0000        3.3940        3.3941       2.863434       0.01167
  19     114.6        0.5307        0.0000        3.3693        3.3694       2.838703       0.01155
  18     136.5        0.5307        0.0001        3.3424        3.3425       2.811794       0.01035
  17     162.9        0.5307        0.0001        3.3141        3.3142       2.783437       0.00906
  16     196.4        0.5308        0.0001        3.2825        3.2826       2.751768       0.00797
  15     218.7        0.5309        0.0001        3.2621        3.2622       2.731314       0.00777
  14     243.0        0.5311        0.0001        3.2371        3.2372       2.706153       0.00873
  13     269.0        0.5313        0.0001        3.2052        3.2053       2.674037       0.01042
  12     297.5        0.5317        0.0001        3.1631        3.1632       2.631493       0.01262
  11     328.5        0.5322        0.0001        3.1094        3.1095       2.577358       0.01472
  10     361.9        0.5329        0.0001        3.0408        3.0410       2.508072       0.01753
   9     398.1        0.5338        0.0001        2.9535        2.9536       2.419817       0.02056
   8     437.6        0.5351        0.0001        2.8452        2.8453       2.310225       0.02343
   7     480.5        0.5368        0.0002        2.7179        2.7181       2.181270       0.02533
   6     533.0        0.5395        0.0002        2.5566        2.5568       2.017299       0.02638
   5     589.8        0.5434        0.0002        2.3805        2.3807       1.837305       0.02672
   4     651.6        0.5496        0.0002        2.1827        2.1829       1.633259       0.02790
   3     718.7        0.5591        0.0002        1.9647        1.9649       1.405835       0.02858
   2     792.3        0.5744        0.0002        1.7211        1.7212       1.146823       0.02971
   1     891.5        0.6082        0.0002        1.4114        1.4116       0.803349       0.02923
   0    1013.0        0.6825        0.0002        1.1008        1.1009       0.418464       0.02672



 Wavenumbers:  3250. -  4000. cm-1, ATM      1
 LEVEL PRESSURE   UPWARD FLUX   DIFDOWN FLUX  DIRDOWN FLUX  DOWNWARD FLUX   NET FLUX    HEATING RATE
          mb          W/m2          W/m2          W/m2        W/m2          W/m2       degree/day
  51    .06700        0.0004        0.0000        5.9117        5.9117       5.911211       0.00000
  50    .07753        0.0004        0.0000        5.9074        5.9074       5.906999       3.37561
  49    .09103        0.0004        0.0000        5.9050        5.9050       5.904534       1.54074
  48    0.1069        0.0004        0.0000        5.9031        5.9031       5.902646       1.00535
  47    0.1255        0.0004        0.0000        5.9013        5.9013       5.900867       0.80634
  46    0.1487        0.0004        0.0000        5.8994        5.8994       5.898955       0.69708
  45    0.1794        0.0004        0.0000        5.8972        5.8972       5.896778       0.59741
  44    0.2165        0.0004        0.0000        5.8951        5.8951       5.894631       0.48841
  43    0.2613        0.0004        0.0000        5.8929        5.8929       5.892435       0.41398
  42    0.3336        0.0004        0.0000        5.8897        5.8897       5.889216       0.37536
  41    0.4307        0.0004        0.0000        5.8857        5.8857       5.885304       0.34011
  40    0.5894        0.0004        0.0000        5.8798        5.8798       5.879398       0.31410
  39     1.339        0.0004        0.0000        5.8590        5.8590       5.858596       0.23419
  38     1.782        0.0004        0.0000        5.8506        5.8506       5.850127       0.16123
  37     2.292        0.0004        0.0000        5.8424        5.8424       5.841922       0.13590
  36     2.964        0.0004        0.0000        5.8327        5.8327       5.832273       0.12112
  35     3.853        0.0004        0.0000        5.8206        5.8206       5.820126       0.11528
  34     5.035        0.0004        0.0000        5.8045        5.8045       5.804095       0.11452
  33     6.613        0.0004        0.0000        5.7828        5.7828       5.782358       0.11620
  32     8.786        0.0004        0.0000        5.7527        5.7527       5.752255       0.11691
  31     11.80        0.0004        0.0000        5.7088        5.7089       5.708433       0.12269
  30     15.07        0.0004        0.0000        5.6617        5.6618       5.661342       0.12158
  29     18.79        0.0004        0.0000        5.6101        5.6102       5.609757       0.11696
  28     23.16        0.0004        0.0000        5.5539        5.5539       5.553495       0.10879
  27     28.12        0.0004        0.0000        5.4957        5.4958       5.495347       0.09885
  26     33.73        0.0004        0.0000        5.4379        5.4379       5.437537       0.08692
  25     40.54        0.0004        0.0001        5.3749        5.3750       5.374576       0.07811
  24     48.69        0.0004        0.0001        5.3044        5.3045       5.304115       0.07292
  23     57.69        0.0004        0.0001        5.2294        5.2295       5.229112       0.07030
  22     68.43        0.0004        0.0001        5.1416        5.1417       5.141350       0.06899
  21     81.20        0.0003        0.0001        5.0402        5.0403       5.039936       0.06701
  20     96.49        0.0003        0.0001        4.9260        4.9261       4.925754       0.06302
  19     114.6        0.0003        0.0001        4.7954        4.7956       4.795279       0.06092
  18     136.5        0.0003        0.0002        4.6558        4.6560       4.655687       0.05368
  17     162.9        0.0002        0.0002        4.4963        4.4964       4.496195       0.05098
  16     196.4        0.0002        0.0002        4.2728        4.2731       4.272841       0.05622
  15     218.7        0.0002        0.0002        4.0724        4.0727       4.072472       0.07607
  14     243.0        0.0002        0.0002        3.8102        3.8105       3.810325       0.09092
  13     269.0        0.0001        0.0002        3.4720        3.4722       3.472076       0.10973
  12     297.5        0.0001        0.0002        3.0589        3.0591       3.058989       0.12252
  11     328.5        0.0001        0.0002        2.6499        2.6502       2.650068       0.11118
  10     361.9        0.0001        0.0002        2.2815        2.2817       2.281611       0.09322
   9     398.1        0.0001        0.0002        1.9524        1.9526       1.952508       0.07667
   8     437.6        0.0001        0.0002        1.6512        1.6515       1.651402       0.06438
   7     480.5        0.0000        0.0002        1.3776        1.3778       1.377757       0.05374
   6     533.0        0.0000        0.0002        1.0886        1.0888       1.088781       0.04649
   5     589.8        0.0000        0.0002        0.8105        0.8106       0.810587       0.04129
   4     651.6        0.0000        0.0001        0.5333        0.5334       0.533392       0.03791
   3     718.7        0.0000        0.0001        0.3032        0.3033       0.303276       0.02892
   2     792.3        0.0000        0.0001        0.1278        0.1279       0.127844       0.02012
   1     891.5        0.0000        0.0000        0.0187        0.0187       0.018713       0.00929
   0    1013.0        0.0002        0.0000        0.0004        0.0004       0.000148       0.00129



 Wavenumbers:  4000. -  4650. cm-1, ATM      1
 LEVEL PRESSURE   UPWARD FLUX   DIFDOWN FLUX  DIRDOWN FLUX  DOWNWARD FLUX   NET FLUX    HEATING RATE
          mb          W/m2          W/m2          W/m2        W/m2          W/m2       degree/day
  51    .06700        2.3337        0.0000        6.9421        6.9421       4.608369       0.00000
  50    .07753        2.3337        0.0000        6.9421        6.9421       4.608368       0.00080
  49    .09103        2.3337        0.0000        6.9421        6.9421       4.608366       0.00078
  48    0.1069        2.3337        0.0000        6.9421        6.9421       4.608365       0.00076
  47    0.1255        2.3337        0.0000        6.9421        6.9421       4.608363       0.00075
  46    0.1487        2.3337        0.0000        6.9421        6.9421       4.608361       0.00076
  45    0.1794        2.3337        0.0000        6.9421        6.9421       4.608358       0.00078
  44    0.2165        2.3337        0.0000        6.9421        6.9421       4.608355       0.00076
  43    0.2613        2.3337        0.0000        6.9420        6.9421       4.608351       0.00075
  42    0.3336        2.3337        0.0000        6.9420        6.9420       4.608345       0.00077
  41    0.4307        2.3337        0.0000        6.9420        6.9420       4.608336       0.00077
  40    0.5894        2.3337        0.0000        6.9420        6.9420       4.608321       0.00080
  39     1.339        2.3337        0.0000        6.9419        6.9419       4.608231       0.00101
  38     1.782        2.3337        0.0000        6.9418        6.9419       4.608162       0.00133
  37     2.292        2.3337        0.0000        6.9418        6.9418       4.608068       0.00156
  36     2.964        2.3337        0.0000        6.9416        6.9416       4.607928       0.00176
  35     3.853        2.3337        0.0000        6.9414        6.9414       4.607720       0.00197
  34     5.035        2.3337        0.0000        6.9411        6.9411       4.607414       0.00219
  33     6.613        2.3337        0.0000        6.9406        6.9406       4.606964       0.00241
  32     8.786        2.3337        0.0000        6.9399        6.9400       4.606300       0.00258
  31     11.80        2.3337        0.0000        6.9389        6.9389       4.605260       0.00291
  30     15.07        2.3337        0.0001        6.9376        6.9377       4.604044       0.00314
  29     18.79        2.3336        0.0001        6.9361        6.9362       4.602578       0.00332
  28     23.16        2.3336        0.0001        6.9343        6.9344       4.600764       0.00351
  27     28.12        2.3336        0.0001        6.9321        6.9322       4.598578       0.00372
  26     33.73        2.3336        0.0001        6.9294        6.9295       4.595896       0.00403
  25     40.54        2.3336        0.0002        6.9257        6.9259       4.592279       0.00449
  24     48.69        2.3336        0.0002        6.9209        6.9211       4.587490       0.00496
  23     57.69        2.3336        0.0002        6.9152        6.9154       4.581855       0.00528
  22     68.43        2.3336        0.0003        6.9081        6.9084       4.574848       0.00551
  21     81.20        2.3336        0.0003        6.8995        6.8999       4.566278       0.00566
  20     96.49        2.3336        0.0004        6.8891        6.8895       4.555925       0.00571
  19     114.6        2.3336        0.0005        6.8762        6.8767       4.543089       0.00599
  18     136.5        2.3337        0.0005        6.8608        6.8614       4.527722       0.00591
  17     162.9        2.3338        0.0006        6.8421        6.8428       4.509010       0.00598
  16     196.4        2.3340        0.0008        6.8166        6.8174       4.483398       0.00645
  15     218.7        2.3342        0.0009        6.7976        6.7984       4.464204       0.00729
  14     243.0        2.3346        0.0010        6.7731        6.7741       4.439502       0.00857
  13     269.0        2.3352        0.0011        6.7409        6.7420       4.406819       0.01060
  12     297.5        2.3361        0.0012        6.6982        6.6994       4.363235       0.01293
  11     328.5        2.3374        0.0013        6.6434        6.6447       4.307288       0.01521
  10     361.9        2.3392        0.0014        6.5741        6.5755       4.236368       0.01794
   9     398.1        2.3413        0.0015        6.4889        6.4905       4.149149       0.02032
   8     437.6        2.3440        0.0017        6.3876        6.3893       4.045311       0.02220
   7     480.5        2.3473        0.0018        6.2749        6.2767       3.929362       0.02277
   6     533.0        2.3522        0.0020        6.1332        6.1351       3.782949       0.02355
   5     589.8        2.3589        0.0021        5.9653        5.9674       3.608513       0.02589
   4     651.6        2.3690        0.0023        5.7389        5.7412       3.372152       0.03232
   3     718.7        2.3845        0.0025        5.4502        5.4526       3.068109       0.03821
   2     792.3        2.4097        0.0026        5.1134        5.1159       2.706237       0.04150
   1     891.5        2.4664        0.0027        4.6750        4.6777       2.211289       0.04212
   0    1013.0        2.5930        0.0028        4.1801        4.1829       1.589923       0.04314



 Wavenumbers:  4650. -  5150. cm-1, ATM      1
 LEVEL PRESSURE   UPWARD FLUX   DIFDOWN FLUX  DIRDOWN FLUX  DOWNWARD FLUX   NET FLUX    HEATING RATE
          mb          W/m2          W/m2          W/m2        W/m2          W/m2       degree/day
  51    .06700        1.6073        0.0000        6.5710        6.5710       4.963742       0.00000
  50    .07753        1.6073        0.0000        6.5708        6.5708       4.963507       0.18877
  49    .09103        1.6073        0.0000        6.5705        6.5705       4.963213       0.18352
  48    0.1069        1.6073        0.0000        6.5701        6.5701       4.962879       0.17796
  47    0.1255        1.6073        0.0000        6.5697        6.5697       4.962499       0.17229
  46    0.1487        1.6073        0.0000        6.5693        6.5693       4.962025       0.17259
  45    0.1794        1.6073        0.0000        6.5686        6.5686       4.961389       0.17464
  44    0.2165        1.6073        0.0000        6.5679        6.5679       4.960652       0.16778
  43    0.2613        1.6073        0.0000        6.5670        6.5670       4.959799       0.16069
  42    0.3336        1.6072        0.0000        6.5657        6.5657       4.958437       0.15885
  41    0.4307        1.6072        0.0000        6.5640        6.5640       4.956716       0.14962
  40    0.5894        1.6072        0.0000        6.5613        6.5613       4.954101       0.13905
  39     1.339        1.6072        0.0000        6.5516        6.5516       4.944329       0.11001
  38     1.782        1.6072        0.0000        6.5473        6.5474       4.940116       0.08021
  37     2.292        1.6072        0.0000        6.5435        6.5435       4.936232       0.06434
  36     2.964        1.6072        0.0000        6.5395        6.5395       4.932280       0.04961
  35     3.853        1.6072        0.0000        6.5356        6.5356       4.928340       0.03739
  34     5.035        1.6072        0.0000        6.5315        6.5316       4.924341       0.02857
  33     6.613        1.6072        0.0000        6.5271        6.5272       4.919950       0.02347
  32     8.786        1.6072        0.0001        6.5216        6.5217       4.914460       0.02132
  31     11.80        1.6072        0.0001        6.5135        6.5136       4.906388       0.02260
  30     15.07        1.6072        0.0001        6.5041        6.5042       4.897026       0.02417
  29     18.79        1.6072        0.0001        6.4926        6.4927       4.885519       0.02609
  28     23.16        1.6072        0.0001        6.4780        6.4781       4.870937       0.02820
  27     28.12        1.6072        0.0002        6.4600        6.4601       4.852974       0.03054
  26     33.73        1.6072        0.0002        6.4385        6.4387       4.831557       0.03220
  25     40.54        1.6072        0.0002        6.4114        6.4116       4.804448       0.03363
  24     48.69        1.6072        0.0003        6.3777        6.3780       4.770830       0.03479
  23     57.69        1.6072        0.0003        6.3406        6.3409       4.733757       0.03475
  22     68.43        1.6072        0.0004        6.2974        6.2978       4.690584       0.03394
  21     81.20        1.6072        0.0005        6.2485        6.2490       4.641782       0.03225
  20     96.49        1.6073        0.0006        6.1952        6.1957       4.588416       0.02945
  19     114.6        1.6074        0.0007        6.1386        6.1392       4.531793       0.02644
  18     136.5        1.6076        0.0008        6.0795        6.0803       4.472725       0.02271
  17     162.9        1.6079        0.0009        6.0168        6.0177       4.409882       0.02009
  16     196.4        1.6083        0.0011        5.9412        5.9423       4.334063       0.01908
  15     218.7        1.6086        0.0012        5.8915        5.8927       4.284041       0.01899
  14     243.0        1.6091        0.0013        5.8346        5.8360       4.226845       0.01984
  13     269.0        1.6098        0.0015        5.7676        5.7691       4.159218       0.02194
  12     297.5        1.6109        0.0016        5.6858        5.6874       4.076479       0.02454
  11     328.5        1.6123        0.0018        5.5899        5.5917       3.979346       0.02641
  10     361.9        1.6142        0.0019        5.4787        5.4807       3.866465       0.02856
   9     398.1        1.6166        0.0021        5.3502        5.3523       3.735681       0.03047
   8     437.6        1.6198        0.0022        5.2035        5.2057       3.585869       0.03203
   7     480.5        1.6240        0.0024        5.0390        5.0414       3.417423       0.03308
   6     533.0        1.6302        0.0026        4.8308        4.8334       3.203153       0.03447
   5     589.8        1.6389        0.0028        4.6030        4.6058       2.966911       0.03507
   4     651.6        1.6514        0.0029        4.3500        4.3529       2.701523       0.03629
   3     718.7        1.6697        0.0031        4.0793        4.0823       2.412587       0.03631
   2     792.3        1.6972        0.0032        3.7904        3.7936       2.096399       0.03626
   1     891.5        1.7529        0.0033        3.4079        3.4112       1.658363       0.03727
   0    1013.0        1.8599        0.0034        2.9969        3.0003       1.140418       0.03596



 Wavenumbers:  5150. -  6150. cm-1, ATM      1
 LEVEL PRESSURE   UPWARD FLUX   DIFDOWN FLUX  DIRDOWN FLUX  DOWNWARD FLUX   NET FLUX    HEATING RATE
          mb          W/m2          W/m2          W/m2        W/m2          W/m2       degree/day
  51    .06700        4.3295        0.0000       16.4735       16.4735      12.143974       0.00000
  50    .07753        4.3295        0.0000       16.4735       16.4735      12.143934       0.03157
  49    .09103        4.3295        0.0000       16.4734       16.4734      12.143883       0.03205
  48    0.1069        4.3295        0.0000       16.4734       16.4734      12.143822       0.03256
  47    0.1255        4.3295        0.0000       16.4733       16.4733      12.143749       0.03305
  46    0.1487        4.3295        0.0000       16.4732       16.4732      12.143653       0.03482
  45    0.1794        4.3295        0.0000       16.4730       16.4730      12.143518       0.03705
  44    0.2165        4.3295        0.0000       16.4729       16.4729      12.143353       0.03760
  43    0.2613        4.3295        0.0000       16.4727       16.4727      12.143151       0.03817
  42    0.3336        4.3295        0.0000       16.4723       16.4723      12.142805       0.04030
  41    0.4307        4.3295        0.0000       16.4719       16.4719      12.142336       0.04081
  40    0.5894        4.3295        0.0000       16.4711       16.4711      12.141550       0.04176
  39     1.339        4.3295        0.0000       16.4673       16.4673      12.137786       0.04238
  38     1.782        4.3295        0.0000       16.4651       16.4651      12.135608       0.04146
  37     2.292        4.3295        0.0001       16.4626       16.4626      12.133155       0.04062
  36     2.964        4.3295        0.0001       16.4595       16.4595      12.130058       0.03888
  35     3.853        4.3295        0.0001       16.4555       16.4556      12.126152       0.03707
  34     5.035        4.3294        0.0001       16.4505       16.4506      12.121171       0.03558
  33     6.613        4.3294        0.0002       16.4440       16.4442      12.114791       0.03411
  32     8.786        4.3294        0.0002       16.4358       16.4361      12.106659       0.03158
  31     11.80        4.3294        0.0003       16.4249       16.4252      12.095895       0.03014
  30     15.07        4.3293        0.0004       16.4143       16.4147      12.085365       0.02718
  29     18.79        4.3293        0.0005       16.4034       16.4039      12.074648       0.02430
  28     23.16        4.3292        0.0006       16.3920       16.3926      12.063392       0.02177
  27     28.12        4.3292        0.0008       16.3803       16.3811      12.051908       0.01952
  26     33.73        4.3291        0.0009       16.3687       16.3697      12.040548       0.01708
  25     40.54        4.3291        0.0011       16.3564       16.3575      12.028463       0.01499
  24     48.69        4.3290        0.0013       16.3435       16.3448      12.015834       0.01307
  23     57.69        4.3290        0.0016       16.3309       16.3325      12.003538       0.01153
  22     68.43        4.3289        0.0019       16.3174       16.3193      11.990387       0.01034
  21     81.20        4.3289        0.0022       16.3027       16.3049      11.976042       0.00948
  20     96.49        4.3288        0.0026       16.2861       16.2888      11.959951       0.00888
  19     114.6        4.3288        0.0031       16.2671       16.2702      11.941416       0.00865
  18     136.5        4.3288        0.0037       16.2445       16.2483      11.919495       0.00843
  17     162.9        4.3288        0.0044       16.2108       16.2152      11.886474       0.01055
  16     196.4        4.3288        0.0053       16.1360       16.1413      11.812545       0.01861
  15     218.7        4.3288        0.0059       16.0099       16.0158      11.687014       0.04766
  14     243.0        4.3289        0.0065       15.7396       15.7461      11.417260       0.09356
  13     269.0        4.3290        0.0071       15.3077       15.3148      10.985710       0.13999
  12     297.5        4.3293        0.0076       14.7951       14.8027      10.473350       0.15196
  11     328.5        4.3298        0.0082       14.2426       14.2508       9.920992       0.15018
  10     361.9        4.3304        0.0087       13.6155       13.6242       9.293760       0.15870
   9     398.1        4.3313        0.0092       12.9439       12.9531       8.621775       0.15656
   8     437.6        4.3326        0.0097       12.2429       12.2526       7.920028       0.15004
   7     480.5        4.3342        0.0102       11.5524       11.5626       7.228327       0.13585
   6     533.0        4.3370        0.0107       10.8188       10.8295       6.492505       0.11837
   5     589.8        4.3412        0.0112       10.1668       10.1780       5.836748       0.09734
   4     651.6        4.3485        0.0117        9.5867        9.5983       5.249860       0.08026
   3     718.7        4.3607        0.0123        9.1006        9.1129       4.752154       0.06255
   2     792.3        4.3822        0.0129        8.6172        8.6302       4.247999       0.05782
   1     891.5        4.4333        0.0137        7.9587        7.9724       3.539083       0.06033
   0    1013.0        4.5573        0.0146        7.3371        7.3517       2.794371       0.05171



 Wavenumbers:  6150. -  7700. cm-1, ATM      1
 LEVEL PRESSURE   UPWARD FLUX   DIFDOWN FLUX  DIRDOWN FLUX  DOWNWARD FLUX   NET FLUX    HEATING RATE
          mb          W/m2          W/m2          W/m2        W/m2          W/m2       degree/day
  51    .06700        6.2490        0.0000       30.4684       30.4684      24.219430       0.00000
  50    .07753        6.2490        0.0000       30.4683       30.4683      24.219373       0.04553
  49    .09103        6.2490        0.0000       30.4682       30.4683      24.219299       0.04582
  48    0.1069        6.2490        0.0000       30.4682       30.4682      24.219213       0.04613
  47    0.1255        6.2489        0.0000       30.4681       30.4681      24.219110       0.04643
  46    0.1487        6.2489        0.0000       30.4679       30.4679      24.218977       0.04850
  45    0.1794        6.2489        0.0000       30.4677       30.4677      24.218791       0.05124
  44    0.2165        6.2489        0.0000       30.4675       30.4675      24.218564       0.05163
  43    0.2613        6.2489        0.0000       30.4672       30.4672      24.218288       0.05205
  42    0.3336        6.2489        0.0000       30.4667       30.4667      24.217819       0.05464
  41    0.4307        6.2489        0.0000       30.4661       30.4661      24.217185       0.05511
  40    0.5894        6.2489        0.0001       30.4650       30.4650      24.216129       0.05619
  39     1.339        6.2488        0.0001       30.4598       30.4599      24.211064       0.05701
  38     1.782        6.2488        0.0002       30.4567       30.4569      24.208121       0.05603
  37     2.292        6.2487        0.0003       30.4533       30.4535      24.204787       0.05523
  36     2.964        6.2487        0.0003       30.4489       30.4492      24.200536       0.05335
  35     3.853        6.2486        0.0004       30.4433       30.4437      24.195114       0.05146
  34     5.035        6.2485        0.0006       30.4360       30.4366      24.188122       0.04995
  33     6.613        6.2483        0.0008       30.4266       30.4274      24.179052       0.04849
  32     8.786        6.2481        0.0010       30.4144       30.4154      24.167291       0.04567
  31     11.80        6.2478        0.0013       30.3978       30.3992      24.151351       0.04463
  30     15.07        6.2475        0.0017       30.3811       30.3828      24.135310       0.04142
  29     18.79        6.2472        0.0021       30.3635       30.3656      24.118446       0.03823
  28     23.16        6.2468        0.0026       30.3443       30.3470      24.100191       0.03530
  27     28.12        6.2463        0.0032       30.3239       30.3271      24.080837       0.03290
  26     33.73        6.2458        0.0038       30.3029       30.3068      24.061015       0.02980
  25     40.54        6.2451        0.0046       30.2799       30.2845      24.039330       0.02690
  24     48.69        6.2444        0.0055       30.2548       30.2603      24.015941       0.02420
  23     57.69        6.2435        0.0065       30.2296       30.2361      23.992604       0.02187
  22     68.43        6.2425        0.0078       30.2020       30.2098      23.967232       0.01995
  21     81.20        6.2413        0.0092       30.1714       30.1806      23.939299       0.01846
  20     96.49        6.2399        0.0109       30.1369       30.1478      23.907889       0.01734
  19     114.6        6.2382        0.0130       30.0970       30.1100      23.871790       0.01686
  18     136.5        6.2362        0.0154       30.0504       30.0658      23.829629       0.01621
  17     162.9        6.2338        0.0183       29.9842       30.0025      23.768679       0.01948
  16     196.4        6.2307        0.0220       29.8533       29.8753      23.644579       0.03124
  15     218.7        6.2287        0.0244       29.6742       29.6986      23.469918       0.06631
  14     243.0        6.2266        0.0269       29.3154       29.3423      23.115654       0.12287
  13     269.0        6.2246        0.0294       28.6682       28.6976      22.473010       0.20847
  12     297.5        6.2226        0.0317       27.7720       27.8038      21.581204       0.26450
  11     328.5        6.2207        0.0341       26.8285       26.8626      20.641878       0.25540
  10     361.9        6.2191        0.0365       25.7886       25.8251      19.606001       0.26209
   9     398.1        6.2180        0.0388       24.6047       24.6435      18.425469       0.27504
   8     437.6        6.2176        0.0408       23.3058       23.3467      17.129044       0.27718
   7     480.5        6.2183        0.0427       21.9700       22.0127      15.794365       0.26213
   6     533.0        6.2213        0.0447       20.4313       20.4760      14.254676       0.24769
   5     589.8        6.2284        0.0463       18.8913       18.9376      12.709250       0.22939
   4     651.6        6.2439        0.0476       17.2864       17.3340      11.090081       0.22143
   3     718.7        6.2737        0.0485       15.7330       15.7815       9.507847       0.19884
   2     792.3        6.3299        0.0492       14.2351       14.2843       7.954426       0.17816
   1     891.5        6.4697        0.0499       12.5248       12.5747       6.105022       0.15738
   0    1013.0        6.8100        0.0507       10.9349       10.9856       4.175613       0.13397



 Wavenumbers:  7700. -  8050. cm-1, ATM      1
 LEVEL PRESSURE   UPWARD FLUX   DIFDOWN FLUX  DIRDOWN FLUX  DOWNWARD FLUX   NET FLUX    HEATING RATE
          mb          W/m2          W/m2          W/m2        W/m2          W/m2       degree/day
  51    .06700        3.3318        0.0000        7.2006        7.2006       3.868744       0.00000
  50    .07753        3.3318        0.0000        7.2006        7.2006       3.868724       0.01590
  49    .09103        3.3318        0.0000        7.2005        7.2005       3.868699       0.01559
  48    0.1069        3.3318        0.0000        7.2005        7.2005       3.868671       0.01526
  47    0.1255        3.3319        0.0000        7.2005        7.2005       3.868638       0.01493
  46    0.1487        3.3319        0.0000        7.2004        7.2005       3.868596       0.01515
  45    0.1794        3.3319        0.0000        7.2004        7.2004       3.868539       0.01559
  44    0.2165        3.3319        0.0000        7.2003        7.2003       3.868472       0.01529
  43    0.2613        3.3319        0.0000        7.2003        7.2003       3.868392       0.01501
  42    0.3336        3.3319        0.0000        7.2001        7.2001       3.868261       0.01535
  41    0.4307        3.3319        0.0000        7.2000        7.2000       3.868086       0.01519
  40    0.5894        3.3319        0.0000        7.1997        7.1997       3.867801       0.01517
  39     1.339        3.3320        0.0001        7.1984        7.1985       3.866452       0.01519
  38     1.782        3.3321        0.0001        7.1977        7.1978       3.865660       0.01508
  37     2.292        3.3322        0.0001        7.1968        7.1969       3.864743       0.01518
  36     2.964        3.3323        0.0001        7.1957        7.1958       3.863540       0.01510
  35     3.853        3.3324        0.0002        7.1942        7.1944       3.861951       0.01508
  34     5.035        3.3326        0.0002        7.1922        7.1925       3.859842       0.01507
  33     6.613        3.3329        0.0003        7.1896        7.1899       3.857027       0.01505
  32     8.786        3.3332        0.0004        7.1860        7.1865       3.853239       0.01471
  31     11.80        3.3337        0.0006        7.1810        7.1815       3.847830       0.01514
  30     15.07        3.3342        0.0007        7.1755        7.1763       3.842039       0.01495
  29     18.79        3.3348        0.0009        7.1694        7.1704       3.835516       0.01479
  28     23.16        3.3355        0.0011        7.1623        7.1635       3.827923       0.01468
  27     28.12        3.3363        0.0014        7.1543        7.1556       3.819275       0.01470
  26     33.73        3.3372        0.0016        7.1453        7.1469       3.809643       0.01448
  25     40.54        3.3383        0.0020        7.1344        7.1364       3.798071       0.01436
  24     48.69        3.3397        0.0024        7.1215        7.1239       3.784215       0.01434
  23     57.69        3.3411        0.0028        7.1075        7.1102       3.769112       0.01416
  22     68.43        3.3429        0.0033        7.0909        7.0942       3.751286       0.01401
  21     81.20        3.3450        0.0039        7.0714        7.0753       3.730273       0.01389
  20     96.49        3.3475        0.0046        7.0484        7.0531       3.705545       0.01365
  19     114.6        3.3506        0.0055        7.0217        7.0272       3.676611       0.01351
  18     136.5        3.3542        0.0065        6.9906        6.9971       3.642889       0.01297
  17     162.9        3.3586        0.0077        6.9544        6.9621       3.603495       0.01259
  16     196.4        3.3645        0.0093        6.9088        6.9181       3.553577       0.01257
  15     218.7        3.3684        0.0103        6.8795        6.8898       3.521401       0.01222
  14     243.0        3.3727        0.0114        6.8482        6.8596       3.486912       0.01196
  13     269.0        3.3774        0.0126        6.8148        6.8274       3.450016       0.01197
  12     297.5        3.3827        0.0139        6.7794        6.7933       3.410576       0.01170
  11     328.5        3.3885        0.0153        6.7415        6.7568       3.368319       0.01149
  10     361.9        3.3950        0.0168        6.7014        6.7182       3.323203       0.01141
   9     398.1        3.4022        0.0184        6.6586        6.6770       3.274793       0.01128
   8     437.6        3.4103        0.0201        6.6128        6.6329       3.222611       0.01116
   7     480.5        3.4195        0.0219        6.5638        6.5857       3.166236       0.01107
   6     533.0        3.4314        0.0242        6.5031        6.5272       3.095800       0.01133
   5     589.8        3.4454        0.0266        6.4362        6.4628       3.017389       0.01164
   4     651.6        3.4623        0.0291        6.3609        6.3900       2.927732       0.01226
   3     718.7        3.4830        0.0318        6.2745        6.3063       2.823322       0.01312
   2     792.3        3.5093        0.0347        6.1727        6.2073       2.698063       0.01437
   1     891.5        3.5534        0.0384        6.0169        6.0553       2.501905       0.01669
   0    1013.0        3.6223        0.0426        5.8007        5.8433       2.221050       0.01950



 Wavenumbers:  8050. - 12850. cm-1, ATM      1
 LEVEL PRESSURE   UPWARD FLUX   DIFDOWN FLUX  DIRDOWN FLUX  DOWNWARD FLUX   NET FLUX    HEATING RATE
          mb          W/m2          W/m2          W/m2        W/m2          W/m2       degree/day
  51    .06700       41.6308        0.0000      100.8135      100.8135      59.182711       0.00000
  50    .07753       41.6308        0.0000      100.8135      100.8135      59.182711       0.00000
  49    .09103       41.6308        0.0001      100.8134      100.8135      59.182711       0.00000
  48    0.1069       41.6307        0.0001      100.8134      100.8135      59.182711       0.00000
  47    0.1255       41.6307        0.0001      100.8133      100.8134      59.182711      -0.00000
  46    0.1487       41.6307        0.0002      100.8132      100.8134      59.182711       0.00000
  45    0.1794       41.6306        0.0003      100.8131      100.8133      59.182711       0.00000
  44    0.2165       41.6306        0.0004      100.8129      100.8133      59.182711      -0.00000
  43    0.2613       41.6305        0.0005      100.8127      100.8132      59.182711       0.00000
  42    0.3336       41.6304        0.0006      100.8125      100.8131      59.182711      -0.00000
  41    0.4307       41.6302        0.0009      100.8121      100.8129      59.182711       0.00000
  40    0.5894       41.6300        0.0012      100.8115      100.8127      59.182711       0.00000
  39     1.339       41.6288        0.0030      100.8085      100.8115      59.182711       0.00000
  38     1.782       41.6281        0.0040      100.8068      100.8108      59.182711       0.00000
  37     2.292       41.6273        0.0052      100.8047      100.8100      59.182711       0.00000
  36     2.964       41.6262        0.0068      100.8021      100.8089      59.182711      -0.00000
  35     3.853       41.6248        0.0089      100.7986      100.8075      59.182711      -0.00000
  34     5.035       41.6229        0.0117      100.7940      100.8057      59.182711       0.00000
  33     6.613       41.6205        0.0154      100.7878      100.8032      59.182711       0.00000
  32     8.786       41.6171        0.0204      100.7794      100.7998      59.182711      -0.00000
  31     11.80       41.6123        0.0276      100.7674      100.7950      59.182711      -0.00000
  30     15.07       41.6071        0.0353      100.7546      100.7898      59.182711       0.00000
  29     18.79       41.6012        0.0440      100.7400      100.7840      59.182711      -0.00000
  28     23.16       41.5944        0.0541      100.7230      100.7771      59.182711       0.00000
  27     28.12       41.5866        0.0658      100.7035      100.7693      59.182711       0.00000
  26     33.73       41.5778        0.0788      100.6817      100.7605      59.182711      -0.00000
  25     40.54       41.5672        0.0946      100.6552      100.7499      59.182711       0.00000
  24     48.69       41.5543        0.1137      100.6234      100.7370      59.182711       0.00000
  23     57.69       41.5402        0.1347      100.5883      100.7229      59.182711      -0.00000
  22     68.43       41.5234        0.1597      100.5464      100.7061      59.182711       0.00000
  21     81.20       41.5033        0.1895      100.4965      100.6860      59.182711      -0.00000
  20     96.49       41.4793        0.2251      100.4370      100.6620      59.182711       0.00000
  19     114.6       41.4509        0.2674      100.3601      100.6275      59.176618       0.00285
  18     136.5       41.4171        0.3177      100.2685      100.5862      59.169070       0.00290
  17     162.9       41.3768        0.3776      100.1557      100.5334      59.156557       0.00400
  16     196.4       41.3244        0.4556       99.9935      100.4490      59.124605       0.00804
  15     218.7       41.2900        0.5068       99.8490      100.3558      59.065710       0.02236
  14     243.0       41.2528        0.5623       99.6218      100.1842      58.931349       0.04660
  13     269.0       41.2129        0.6224       99.2701       99.8925      58.679561       0.08168
  12     297.5       41.1707        0.6868       98.7863       99.4731      58.302473       0.11184
  11     328.5       41.1261        0.7562       98.2127       98.9689      57.842828       0.12498
  10     361.9       41.0798        0.8305       97.5096       98.3401      57.260318       0.14738
   9     398.1       41.0324        0.9097       96.6249       97.5345      56.502168       0.17663
   8     437.6       40.9855        0.9934       95.5141       96.5075      55.522015       0.20956
   7     480.5       40.9407        1.0815       94.1664       95.2480      54.307209       0.23858
   6     533.0       40.8962        1.1874       92.2972       93.4846      52.588449       0.27649
   5     589.8       40.8670        1.2972       90.0044       91.3016      50.434595       0.31970
   4     651.6       40.8744        1.4084       87.0975       88.5059      47.631505       0.38333
   3     718.7       40.9450        1.5196       83.6639       85.1835      44.238451       0.42641
   2     792.3       41.1366        1.6277       79.5919       81.2196      40.083007       0.47658
   1     891.5       41.6910        1.7550       73.8807       75.6357      33.944655       0.52234
   0    1013.0       43.0652        1.8870       67.5841       69.4712      26.405989       0.52345



 Wavenumbers: 12850. - 16000. cm-1, ATM      1
 LEVEL PRESSURE   UPWARD FLUX   DIFDOWN FLUX  DIRDOWN FLUX  DOWNWARD FLUX   NET FLUX    HEATING RATE
          mb          W/m2          W/m2          W/m2        W/m2          W/m2       degree/day
  51    .06700       41.9343        0.0000       63.1686       63.1686      21.234296       0.00000
  50    .07753       41.9343        0.0001       63.1677       63.1678      21.233515       0.62591
  49    .09103       41.9342        0.0001       63.1666       63.1668      21.232541       0.60846
  48    0.1069       41.9342        0.0002       63.1654       63.1656      21.231432       0.59023
  47    0.1255       41.9342        0.0003       63.1640       63.1643      21.230171       0.57196
  46    0.1487       41.9341        0.0004       63.1623       63.1627      21.228597       0.57382
  45    0.1794       41.9341        0.0006       63.1600       63.1606      21.226484       0.57983
  44    0.2165       41.9341        0.0008       63.1573       63.1581      21.224040       0.55597
  43    0.2613       41.9340        0.0010       63.1542       63.1552      21.221219       0.53178
  42    0.3336       41.9340        0.0014       63.1493       63.1507      21.216720       0.52457
  41    0.4307       41.9340        0.0020       63.1431       63.1451      21.211086       0.48985
  40    0.5894       41.9341        0.0028       63.1338       63.1366      21.202537       0.45465
  39     1.339       41.9360        0.0068       63.0956       63.1024      21.166391       0.40693
  38     1.782       41.9382        0.0092       63.0740       63.0832      21.144978       0.40769
  37     2.292       41.9418        0.0119       63.0477       63.0596      21.117740       0.45112
  36     2.964       41.9481        0.0155       63.0095       63.0250      21.076876       0.51297
  35     3.853       41.9587        0.0202       62.9533       62.9735      21.014783       0.58927
  34     5.035       41.9749        0.0265       62.8725       62.8990      20.924105       0.64777
  33     6.613       41.9976        0.0348       62.7621       62.7969      20.799279       0.66732
  32     8.786       42.0271        0.0461       62.6182       62.6643      20.637227       0.62935
  31     11.80       42.0649        0.0621       62.4284       62.4905      20.425531       0.59268
  30     15.07       42.1006        0.0793       62.2426       62.3219      20.221353       0.52715
  29     18.79       42.1363        0.0987       62.0493       62.1480      20.011703       0.47534
  28     23.16       42.1728        0.1213       61.8425       61.9637      19.790929       0.42691
  27     28.12       42.2084        0.1470       61.6278       61.7748      19.566399       0.38168
  26     33.73       42.2397        0.1758       61.4177       61.5935      19.353829       0.31961
  25     40.54       42.2673        0.2105       61.1983       61.4088      19.141544       0.26336
  24     48.69       42.2908        0.2523       60.9680       61.2203      18.929497       0.21944
  23     57.69       42.3072        0.2982       60.7478       61.0460      18.738809       0.17874
  22     68.43       42.3164        0.3528       60.5202       60.8730      18.556550       0.14328
  21     81.20       42.3133        0.4178       60.2938       60.7116      18.398258       0.10460
  20     96.49       42.2967        0.4952       60.0643       60.5595      18.262790       0.07477
  19     114.6       42.2785        0.5878       59.8078       60.3956      18.117087       0.06803
  18     136.5       42.2508        0.6973       59.5158       60.2131      17.962255       0.05954
  17     162.9       42.2123        0.8274       59.1773       60.0047      17.792431       0.05428
  16     196.4       42.1505        0.9958       58.7611       59.7569      17.606426       0.04682
  15     218.7       42.1056        1.1061       58.4958       59.6019      17.496286       0.04182
  14     243.0       42.0550        1.2257       58.2104       59.4362      17.381156       0.03993
  13     269.0       41.9984        1.3552       57.9039       59.2591      17.260700       0.03908
  12     297.5       41.9357        1.4948       57.5736       59.0684      17.132628       0.03798
  11     328.5       41.8678        1.6452       57.2160       58.8613      16.993459       0.03784
  10     361.9       41.7948        1.8069       56.8288       58.6356      16.840793       0.03863
   9     398.1       41.7170        1.9803       56.4074       58.3877      16.670661       0.03964
   8     437.6       41.6353        2.1660       55.9445       58.1105      16.475155       0.04180
   7     480.5       41.5507        2.3641       55.4356       57.7998      16.249095       0.04440
   6     533.0       41.4523        2.6069       54.7850       57.3919      15.939556       0.04979
   5     589.8       41.3576        2.8666       54.0438       56.9104      15.552881       0.05740
   4     651.6       41.2789        3.1427       53.1687       56.3114      15.032524       0.07116
   3     718.7       41.2242        3.4333       52.1625       55.5959      14.371703       0.08305
   2     792.3       41.2200        3.7351       50.9845       54.7196      13.499650       0.10001
   1     891.5       41.3402        4.1238       49.2385       53.3623      12.022081       0.12573
   0    1013.0       41.7211        4.5627       47.0085       51.5711       9.850088       0.15081



 Wavenumbers: 16000. - 22650. cm-1, ATM      1
 LEVEL PRESSURE   UPWARD FLUX   DIFDOWN FLUX  DIRDOWN FLUX  DOWNWARD FLUX   NET FLUX    HEATING RATE
          mb          W/m2          W/m2          W/m2        W/m2          W/m2       degree/day
  51    .06700       87.4148        0.0000      100.7153      100.7153      13.300521       0.00000
  50    .07753       87.4147        0.0003      100.7147      100.7151      13.300399       0.09813
  49    .09103       87.4145        0.0008      100.7140      100.7148      13.300221       0.11130
  48    0.1069       87.4144        0.0013      100.7131      100.7144      13.299982       0.12691
  47    0.1255       87.4143        0.0018      100.7121      100.7139      13.299663       0.14466
  46    0.1487       87.4141        0.0025      100.7108      100.7133      13.299193       0.17142
  45    0.1794       87.4139        0.0035      100.7089      100.7124      13.298458       0.20184
  44    0.2165       87.4137        0.0046      100.7066      100.7112      13.297461       0.22684
  43    0.2613       87.4136        0.0060      100.7037      100.7097      13.296108       0.25502
  42    0.3336       87.4134        0.0083      100.6987      100.7070      13.293536       0.29990
  41    0.4307       87.4134        0.0112      100.6918      100.7030      13.289658       0.33711
  40    0.5894       87.4136        0.0161      100.6797      100.6959      13.282264       0.39321
  39     1.339       87.4210        0.0392      100.6095      100.6487      13.227646       0.61490
  38     1.782       87.4301        0.0527      100.5585      100.6112      13.181130       0.88558
  37     2.292       87.4448        0.0684      100.4903      100.5587      13.113818       1.11487
  36     2.964       87.4709        0.0890      100.3868      100.4757      13.004816       1.36830
  35     3.853       87.5147        0.1161      100.2306      100.3467      12.831969       1.64035
  34     5.035       87.5822        0.1521      100.0045      100.1566      12.574347       1.84035
  33     6.613       87.6771        0.2001       99.6939       99.8939      12.216819       1.91134
  32     8.786       87.8002        0.2646       99.2881       99.5526      11.752451       1.80344
  31     11.80       87.9581        0.3566       98.7496       99.1062      11.148032       1.69218
  30     15.07       88.1067        0.4550       98.2198       98.6748      10.568173       1.49708
  29     18.79       88.2555        0.5659       97.6651       98.2310       9.975489       1.34380
  28     23.16       88.4075        0.6949       97.0671       97.7620       9.354514       1.20076
  27     28.12       88.5558        0.8419       96.4406       97.2824       8.726635       1.06735
  26     33.73       88.6851        1.0059       95.8179       96.8238       8.138644       0.88406
  25     40.54       88.7990        1.2034       95.1548       96.3582       7.559254       0.71880
  24     48.69       88.8952        1.4407       94.4420       95.8826       6.987450       0.59173
  23     57.69       88.9613        1.7003       93.7416       95.4419       6.480648       0.47505
  22     68.43       88.9973        2.0084       92.9954       95.0037       6.006362       0.37285
  21     81.20       88.9819        2.3740       92.2231       94.5972       5.615226       0.25846
  20     96.49       88.9097        2.8079       91.4110       94.2189       5.309209       0.16890
  19     114.6       88.7974        3.3198       90.5070       93.8268       5.029383       0.13066
  18     136.5       88.6469        3.9217       89.4803       93.4019       4.755029       0.10550
  17     162.9       88.4526        4.6316       88.3023       92.9339       4.481244       0.08751
  16     196.4       88.1669        5.5423       86.8607       92.4030       4.236090       0.06171
  15     218.7       87.9678        6.1342       85.9494       92.0836       4.115787       0.04567
  14     243.0       87.7469        6.7721       84.9792       91.7513       4.004399       0.03863
  13     269.0       87.5032        7.4571       83.9498       91.4070       3.903772       0.03264
  12     297.5       87.2360        8.1900       82.8601       91.0501       3.814150       0.02658
  11     328.5       86.9472        8.9736       81.7009       90.6745       3.727260       0.02362
  10     361.9       86.6368        9.8075       80.4725       90.2800       3.643217       0.02126
   9     398.1       86.3040       10.6939       79.1714       89.8653       3.561345       0.01907
   8     437.6       85.9493       11.6333       77.7953       89.4286       3.479266       0.01755
   7     480.5       85.5727       12.6261       76.3434       88.9695       3.396812       0.01619
   6     533.0       85.1152       13.8285       74.5859       88.4144       3.299200       0.01570
   5     589.8       84.6314       15.1008       72.7227       87.8235       3.192069       0.01590
   4     651.6       84.1253       16.4415       70.7478       87.1893       3.064015       0.01751
   3     718.7       83.6006       17.8492       68.6568       86.5060       2.905436       0.01993
   2     792.3       83.0675       19.3189       66.4416       85.7605       2.692978       0.02437
   1     891.5       82.4090       21.2387       63.4790       84.7176       2.308599       0.03271
   0    1013.0       81.7138       23.4503       59.9822       83.4325       1.718710       0.04096



 Wavenumbers: 22650. - 29000. cm-1, ATM      1
 LEVEL PRESSURE   UPWARD FLUX   DIFDOWN FLUX  DIRDOWN FLUX  DOWNWARD FLUX   NET FLUX    HEATING RATE
          mb          W/m2          W/m2          W/m2        W/m2          W/m2       degree/day
  51    .06700       37.3840        0.0000       38.0063       38.0063       0.622314       0.00000
  50    .07753       37.3838        0.0004       38.0057       38.0061       0.622314       0.00000
  49    .09103       37.3836        0.0009       38.0050       38.0059       0.622314      -0.00000
  48    0.1069       37.3834        0.0015       38.0042       38.0057       0.622314       0.00000
  47    0.1255       37.3831        0.0021       38.0033       38.0054       0.622314       0.00000
  46    0.1487       37.3828        0.0029       38.0022       38.0051       0.622314       0.00000
  45    0.1794       37.3824        0.0041       38.0006       38.0047       0.622314      -0.00000
  44    0.2165       37.3818        0.0054       37.9987       38.0041       0.622314       0.00000
  43    0.2613       37.3812        0.0070       37.9965       38.0035       0.622314       0.00000
  42    0.3336       37.3802        0.0096       37.9928       38.0025       0.622314       0.00000
  41    0.4307       37.3788        0.0131       37.9880       38.0011       0.622314       0.00000
  40    0.5894       37.3765        0.0188       37.9800       37.9988       0.622314      -0.00000
  39     1.339       37.3658        0.0457       37.9425       37.9881       0.622314      -0.00000
  38     1.782       37.3596        0.0615       37.9204       37.9819       0.622314       0.00000
  37     2.292       37.3523        0.0797       37.8949       37.9746       0.622314       0.00000
  36     2.964       37.3428        0.1037       37.8614       37.9651       0.622314      -0.00000
  35     3.853       37.3302        0.1353       37.8172       37.9525       0.622314       0.00000
  34     5.035       37.3136        0.1773       37.7586       37.9359       0.622314       0.00000
  33     6.613       37.2913        0.2333       37.6803       37.9136       0.622314      -0.00000
  32     8.786       37.2614        0.3086       37.5750       37.8837       0.622314       0.00000
  31     11.80       37.2187        0.4161       37.4249       37.8410       0.622314      -0.00000
  30     15.07       37.1730        0.5311       37.2642       37.7953       0.622314       0.00000
  29     18.79       37.1215        0.6606       37.0833       37.7439       0.622314      -0.00000
  28     23.16       37.0617        0.8111       36.8730       37.6841       0.622314       0.00000
  27     28.12       36.9937        0.9822       36.6338       37.6160       0.622314       0.00000
  26     33.73       36.9180        1.1726       36.3677       37.5403       0.622314       0.00000
  25     40.54       36.8272        1.4010       36.0486       37.4496       0.622314      -0.00000
  24     48.69       36.7188        1.6738       35.6672       37.3411       0.622314       0.00000
  23     57.69       36.6008        1.9704       35.2527       37.2231       0.622314      -0.00000
  22     68.43       36.4620        2.3194       34.7649       37.0843       0.622314       0.00000
  21     81.20       36.2989        2.7290       34.1922       36.9213       0.622314      -0.00000
  20     96.49       36.1080        3.2086       33.5217       36.7303       0.622314       0.00000
  19     114.6       35.8860        3.7660       32.7424       36.5083       0.622314       0.00000
  18     136.5       35.6293        4.4100       31.8416       36.2516       0.622314       0.00000
  17     162.9       35.3326        5.1541       30.8008       35.9549       0.622314       0.00000
  16     196.4       34.9617        6.0833       29.5007       35.5840       0.622314       0.00000
  15     218.7       34.7265        6.6720       28.6767       35.3488       0.622314      -0.00000
  14     243.0       34.4780        7.2935       27.8068       35.1003       0.622314      -0.00000
  13     269.0       34.2169        7.9458       26.8934       34.8392       0.622314       0.00000
  12     297.5       33.9441        8.6270       25.9394       34.5664       0.622314       0.00000
  11     328.5       33.6596        9.3365       24.9454       34.2819       0.622314       0.00000
  10     361.9       33.3649       10.0706       23.9166       33.9872       0.622314      -0.00000
   9     398.1       33.0605       10.8277       22.8551       33.6828       0.622314       0.00000
   8     437.6       32.7480       11.6037       21.7666       33.3703       0.622314      -0.00000
   7     480.5       32.4286       12.3958       20.6551       33.0509       0.622314       0.00000
   6     533.0       32.0565       13.3163       19.3625       32.6788       0.622314       0.00000
   5     589.8       31.6796       14.2462       18.0557       32.3019       0.622314      -0.00000
   4     651.6       31.2997       15.1807       16.7414       31.9220       0.622314       0.00000
   3     718.7       30.9206       16.1099       15.4330       31.5429       0.622314      -0.00000
   2     792.3       30.5443       17.0284       14.1382       31.1666       0.622314      -0.00000
   1     891.5       30.0817       18.1511       12.5529       30.7041       0.622314      -0.00000
   0    1013.0       29.5871       19.3420       10.8674       30.2094       0.622314      -0.00000



 Wavenumbers: 29000. - 38000. cm-1, ATM      1
 LEVEL PRESSURE   UPWARD FLUX   DIFDOWN FLUX  DIRDOWN FLUX  DOWNWARD FLUX   NET FLUX    HEATING RATE
          mb          W/m2          W/m2          W/m2        W/m2          W/m2       degree/day
  51    .06700        5.3437        0.0000       13.4026       13.4026       8.058907       0.00000
  50    .07753        5.3435        0.0003       13.3983       13.3986       8.055108       3.04481
  49    .09103        5.3432        0.0007       13.3921       13.3928       8.049588       3.45015
  48    0.1069        5.3429        0.0011       13.3840       13.3851       8.042210       3.92732
  47    0.1255        5.3426        0.0016       13.3733       13.3749       8.032364       4.46382
  46    0.1487        5.3421        0.0022       13.3579       13.3601       8.017919       5.26516
  45    0.1794        5.3416        0.0030       13.3340       13.3371       7.995516       6.15020
  44    0.2165        5.3409        0.0040       13.3024       13.3064       7.965493       6.82984
  43    0.2613        5.3402        0.0052       13.2604       13.2656       7.925432       7.55133
  42    0.3336        5.3390        0.0071       13.1833       13.1904       7.851413       8.62989
  41    0.4307        5.3375        0.0096       13.0729       13.0825       7.745021       9.25049
  40    0.5894        5.3352        0.0135       12.8796       12.8931       7.557940       9.94873
  39     1.339        5.3272        0.0300       11.9165       11.9465       6.619315      10.56722
  38     1.782        5.3242        0.0384       11.4399       11.4783       6.154092       8.85710
  37     2.292        5.3222        0.0474       10.9796       11.0270       5.704816       7.44119
  36     2.964        5.3215        0.0585       10.4786       10.5371       5.215637       6.14068
  35     3.853        5.3232        0.0722        9.9429       10.0151       4.691919       4.97018
  34     5.035        5.3281        0.0894        9.4007        9.4900       4.161914       3.78613
  33     6.613        5.3366        0.1111        8.8752        8.9863       3.649765       2.73795
  32     8.786        5.3480        0.1392        8.3786        8.5178       3.169745       1.86422
  31     11.80        5.3623        0.1777        7.8897        8.0674       2.705092       1.30088
  30     15.07        5.3751        0.2176        7.5108        7.7284       2.353259       0.90836
  29     18.79        5.3875        0.2610        7.1776        7.4386       2.051143       0.68499
  28     23.16        5.3995        0.3100        6.8664        7.1764       1.776924       0.53025
  27     28.12        5.4102        0.3641        6.5780        6.9422       1.531920       0.41649
  26     33.73        5.4171        0.4232        6.3195        6.7427       1.325562       0.31026
  25     40.54        5.4193        0.4930        6.0663        6.5592       1.139971       0.23025
  24     48.69        5.4162        0.5748        5.8128        6.3876       0.971441       0.17440
  23     57.69        5.4073        0.6622        5.5777        6.2399       0.832538       0.13020
  22     68.43        5.3909        0.7634        5.3379        6.1013       0.710411       0.09601
  21     81.20        5.3624        0.8811        5.0965        5.9776       0.615118       0.06297
  20     96.49        5.3208        1.0171        4.8476        5.8647       0.543985       0.03926
  19     114.6        5.2695        1.1715        4.5799        5.7514       0.481911       0.02898
  18     136.5        5.2099        1.3444        4.2891        5.6335       0.423562       0.02244
  17     162.9        5.1420        1.5366        3.9732        5.5098       0.367751       0.01784
  16     196.4        5.0558        1.7676        3.6080        5.3756       0.319853       0.01206
  15     218.7        5.0015        1.9087        3.3898        5.2985       0.296965       0.00869
  14     243.0        4.9453        2.0529        3.1686        5.2215       0.276140       0.00722
  13     269.0        4.8876        2.1992        2.9461        5.1453       0.257714       0.00598
  12     297.5        4.8287        2.3465        2.7239        5.0704       0.241716       0.00474
  11     328.5        4.7696        2.4933        2.5029        4.9962       0.226631       0.00410
  10     361.9        4.7107        2.6386        2.2846        4.9232       0.212486       0.00358
   9     398.1        4.6526        2.7811        2.0708        4.8518       0.199276       0.00308
   8     437.6        4.5958        2.9194        1.8631        4.7825       0.186724       0.00268
   7     480.5        4.5406        3.0529        1.6626        4.7155       0.174964       0.00231
   6     533.0        4.4802        3.1980        1.4445        4.6425       0.162318       0.00203
   5     589.8        4.4233        3.3334        1.2402        4.5735       0.150239       0.00179
   4     651.6        4.3706        3.4577        1.0514        4.5092       0.138561       0.00160
   3     718.7        4.3225        3.5704        0.8794        4.4497       0.127246       0.00142
   2     792.3        4.2793        3.6705        0.7250        4.3955       0.116269       0.00126
   1     891.5        4.2322        3.7782        0.5569        4.3350       0.102835       0.00114
   0    1013.0        4.1896        3.8741        0.4037        4.2778       0.088122       0.00102



 Wavenumbers: 38000. - 50000. cm-1, ATM      1
 LEVEL PRESSURE   UPWARD FLUX   DIFDOWN FLUX  DIRDOWN FLUX  DOWNWARD FLUX   NET FLUX    HEATING RATE
          mb          W/m2          W/m2          W/m2        W/m2          W/m2       degree/day
  51    .06700        0.0051        0.0000        0.8267        0.8267       0.821528       0.00000
  50    .07753        0.0051        0.0001        0.8242        0.8243       0.819196       1.86936
  49    .09103        0.0050        0.0002        0.8207        0.8209       0.815872       2.07705
  48    0.1069        0.0049        0.0002        0.8162        0.8164       0.811514       2.31984
  47    0.1255        0.0048        0.0004        0.8103        0.8106       0.805801       2.59006
  46    0.1487        0.0047        0.0005        0.8018        0.8023       0.797567       3.00143
  45    0.1794        0.0045        0.0007        0.7889        0.7896       0.785013       3.44648
  44    0.2165        0.0044        0.0009        0.7720        0.7729       0.768507       3.75474
  43    0.2613        0.0042        0.0011        0.7500        0.7511       0.746955       4.06246
  42    0.3336        0.0039        0.0015        0.7106        0.7121       0.708267       4.51071
  41    0.4307        0.0035        0.0019        0.6566        0.6584       0.654972       4.63387
  40    0.5894        0.0029        0.0024        0.5680        0.5704       0.567464       4.65357
  39     1.339        0.0015        0.0030        0.2422        0.2452       0.243720       3.64476
  38     1.782        0.0010        0.0026        0.1493        0.1519       0.150889       1.76735
  37     2.292        0.0007        0.0022        0.0924        0.0946       0.093932       0.94336
  36     2.964        0.0005        0.0018        0.0539        0.0557       0.055224       0.48589
  35     3.853        0.0003        0.0013        0.0295        0.0308       0.030502       0.23462
  34     5.035        0.0002        0.0010        0.0154        0.0164       0.016181       0.10230
  33     6.613        0.0001        0.0007        0.0073        0.0080       0.007912       0.04420
  32     8.786        0.0000        0.0004        0.0030        0.0034       0.003390       0.01756
  31     11.80        0.0000        0.0003        0.0010        0.0012       0.001199       0.00613
  30     15.07        0.0000        0.0001        0.0003        0.0005       0.000463       0.00190
  29     18.79        0.0000        0.0001        0.0001        0.0002       0.000182       0.00064
  28     23.16        0.0000        0.0000        0.0000        0.0001       0.000071       0.00022
  27     28.12        0.0000        0.0000        0.0000        0.0000       0.000028       0.00007
  26     33.73        0.0000        0.0000        0.0000        0.0000       0.000011       0.00002
  25     40.54        0.0000        0.0000        0.0000        0.0000       0.000005       0.00001
  24     48.69        0.0000        0.0000        0.0000        0.0000       0.000002       0.00000
  23     57.69        0.0000        0.0000        0.0000        0.0000       0.000001       0.00000
  22     68.43        0.0000        0.0000        0.0000        0.0000       0.000000       0.00000
  21     81.20        0.0000        0.0000        0.0000        0.0000       0.000000       0.00000
  20     96.49        0.0000        0.0000        0.0000        0.0000       0.000000       0.00000
  19     114.6        0.0000        0.0000        0.0000        0.0000       0.000000       0.00000
  18     136.5        0.0000        0.0000        0.0000        0.0000       0.000000       0.00000
  17     162.9        0.0000        0.0000        0.0000        0.0000       0.000000       0.00000
  16     196.4        0.0000        0.0000        0.0000        0.0000       0.000000       0.00000
  15     218.7        0.0000        0.0000        0.0000        0.0000       0.000000       0.00000
  14     243.0        0.0000        0.0000        0.0000        0.0000       0.000000       0.00000
  13     269.0        0.0000        0.0000        0.0000        0.0000       0.000000       0.00000
  12     297.5        0.0000        0.0000        0.0000        0.0000       0.000000       0.00000
  11     328.5        0.0000        0.0000        0.0000        0.0000       0.000000       0.00000
  10     361.9        0.0000        0.0000        0.0000        0.0000       0.000000       0.00000
   9     398.1        0.0000        0.0000        0.0000        0.0000       0.000000       0.00000
   8     437.6        0.0000        0.0000        0.0000        0.0000       0.000000       0.00000
   7     480.5        0.0000        0.0000        0.0000        0.0000       0.000000       0.00000
   6     533.0        0.0000        0.0000        0.0000        0.0000       0.000000       0.00000
   5     589.8        0.0000        0.0000        0.0000        0.0000       0.000000       0.00000
   4     651.6        0.0000        0.0000        0.0000        0.0000       0.000000       0.00000
   3     718.7        0.0000        0.0000        0.0000        0.0000       0.000000       0.00000
   2     792.3        0.0000        0.0000        0.0000        0.0000       0.000000       0.00000
   1     891.5        0.0000        0.0000        0.0000        0.0000       0.000000       0.00000
   0    1013.0        0.0000        0.0000        0.0000        0.0000       0.000000       0.00000



 Wavenumbers:   820. -  2600. cm-1, ATM      1
 LEVEL PRESSURE   UPWARD FLUX   DIFDOWN FLUX  DIRDOWN FLUX  DOWNWARD FLUX   NET FLUX    HEATING RATE
          mb          W/m2          W/m2          W/m2        W/m2          W/m2       degree/day
  51    .06700        0.3506        0.0000        3.8670        3.8670       3.516404       0.00000
  50    .07753        0.3506        0.0000        3.8643        3.8643       3.513677       2.18510
  49    .09103        0.3506        0.0000        3.8635        3.8635       3.512855       0.51377
  48    0.1069        0.3506        0.0000        3.8626        3.8626       3.511951       0.48158
  47    0.1255        0.3506        0.0000        3.8616        3.8616       3.510973       0.44311
  46    0.1487        0.3506        0.0000        3.8605        3.8605       3.509842       0.41229
  45    0.1794        0.3506        0.0000        3.8591        3.8591       3.508477       0.37466
  44    0.2165        0.3506        0.0000        3.8577        3.8577       3.507064       0.32151
  43    0.2613        0.3506        0.0000        3.8562        3.8562       3.505560       0.28348
  42    0.3336        0.3506        0.0000        3.8539        3.8539       3.503254       0.26887
  41    0.4307        0.3506        0.0000        3.8509        3.8509       3.500278       0.25878
  40    0.5894        0.3506        0.0000        3.8460        3.8460       3.495395       0.25968
  39     1.339        0.3506        0.0000        3.8240        3.8240       3.473374       0.24791
  38     1.782        0.3506        0.0000        3.8119        3.8119       3.461255       0.23072
  37     2.292        0.3506        0.0000        3.7986        3.7986       3.447938       0.22057
  36     2.964        0.3506        0.0000        3.7823        3.7823       3.431646       0.20452
  35     3.853        0.3506        0.0000        3.7623        3.7623       3.411715       0.18915
  34     5.035        0.3506        0.0000        3.7378        3.7378       3.387199       0.17513
  33     6.613        0.3506        0.0000        3.7076        3.7076       3.356958       0.16167
  32     8.786        0.3506        0.0000        3.6716        3.6716       3.320963       0.13979
  31     11.80        0.3506        0.0000        3.6316        3.6316       3.280949       0.11203
  30     15.07        0.3506        0.0000        3.6017        3.6017       3.251119       0.07702
  29     18.79        0.3506        0.0000        3.5785        3.5785       3.227884       0.05268
  28     23.16        0.3506        0.0000        3.5580        3.5581       3.207420       0.03957
  27     28.12        0.3506        0.0000        3.5377        3.5377       3.187045       0.03464
  26     33.73        0.3506        0.0000        3.5162        3.5162       3.165571       0.03229
  25     40.54        0.3506        0.0000        3.4913        3.4914       3.140705       0.03085
  24     48.69        0.3507        0.0000        3.4628        3.4628       3.112143       0.02956
  23     57.69        0.3507        0.0000        3.4327        3.4327       3.082072       0.02819
  22     68.43        0.3507        0.0000        3.3986        3.3986       3.047961       0.02682
  21     81.20        0.3507        0.0000        3.3606        3.3606       3.009927       0.02513
  20     96.49        0.3507        0.0000        3.3183        3.3183       2.967615       0.02335
  19     114.6        0.3507        0.0000        3.2715        3.2715       2.920764       0.02188
  18     136.5        0.3507        0.0000        3.2206        3.2206       2.869906       0.01956
  17     162.9        0.3507        0.0000        3.1613        3.1613       2.810555       0.01897
  16     196.4        0.3508        0.0000        3.0792        3.0792       2.728383       0.02068
  15     218.7        0.3508        0.0000        3.0115        3.0115       2.660706       0.02569
  14     243.0        0.3509        0.0000        2.9223        2.9223       2.571410       0.03097
  13     269.0        0.3510        0.0000        2.8151        2.8152       2.464126       0.03480
  12     297.5        0.3512        0.0000        2.6710        2.6710       2.319806       0.04280
  11     328.5        0.3515        0.0000        2.4998        2.4998       2.148331       0.04662
  10     361.9        0.3519        0.0000        2.3186        2.3186       1.966707       0.04595
   9     398.1        0.3524        0.0000        2.1555        2.1556       1.803146       0.03811
   8     437.6        0.3531        0.0000        2.0290        2.0290       1.675921       0.02720
   7     480.5        0.3539        0.0000        1.9377        1.9378       1.583830       0.01809
   6     533.0        0.3553        0.0000        1.8432        1.8432       1.487942       0.01543
   5     589.8        0.3574        0.0000        1.7350        1.7350       1.377680       0.01637
   4     651.6        0.3612        0.0000        1.6037        1.6038       1.242606       0.01847
   3     718.7        0.3679        0.0000        1.4647        1.4648       1.096872       0.01831
   2     792.3        0.3804        0.0000        1.3161        1.3161       0.935726       0.01848
   1     891.5        0.4120        0.0000        1.0919        1.0920       0.680001       0.02176
   0    1013.0        0.4889        0.0000        0.7886        0.7886       0.299762       0.02640

  Modules and versions used in this calculation:

       rrtmg_sw.1col.f90:  $Revision$                    rrtmg_sw_init.f90:  $Revision$        
     rrtmgsw_cldprop.f90:  $Revision$                  rrtmgsw_cldprmc.f90:  NOT USED          
     rrtmg_sw_reftra.f90:  $Revision$                  rrtmg_sw_spcvrt.f90:  NOT USED          
     rrtmg_sw_spcvmc.f90:  NOT USED                    rrtmgsw_setcoef.f90:  NOT USED          
     rrtmg_sw_taumol.f90:  $Revision$                  rrtmg_sw_vrtqdr.f90:  NOT USED          
                rrtatm.f:  NOT USED                             util_xxx.f:  NOT USED          
                 extra.f:  NOT USED                       rrtmg_sw_k_g.f90:  $Revision$        

