

 Wavenumbers:   820. - 50000. cm-1, ATM      1
 LEVEL PRESSURE   UPWARD FLUX   DIFDOWN FLUX  DIRDOWN FLUX  DOWNWARD FLUX   NET FLUX    HEATING RATE
          mb          W/m2          W/m2          W/m2        W/m2          W/m2       degree/day
  51    .06700      367.2320        0.0000      617.8126      617.8126     250.580615       0.00000
  50    .07753      367.2316        0.0013      617.7947      617.7961     250.564479      12.93327
  49    .09103      367.2311        0.0030      617.7778      617.7808     250.549675       9.25309
  48    0.1069      367.2306        0.0050      617.7581      617.7630     250.532420       9.18478
  47    0.1255      367.2301        0.0072      617.7340      617.7412     250.511084       9.67287
  46    0.1487      367.2295        0.0100      617.7009      617.7109     250.481410      10.81654
  45    0.1794      367.2287        0.0138      617.6521      617.6659     250.437196      12.13776
  44    0.2165      367.2280        0.0184      617.5895      617.6079     250.379897      13.03459
  43    0.2613      367.2272        0.0237      617.5089      617.5326     250.305413      14.03997
  42    0.3336      367.2262        0.0325      617.3641      617.3966     250.170379      15.74354
  41    0.4307      367.2254        0.0441      617.1591      617.2032     249.977831      16.74161
  40    0.5894      367.2250        0.0628      616.8005      616.8633     249.638278      18.05699
  39     1.339      367.2410        0.1473      614.9443      615.0916     247.850604      20.12596
  38     1.782      367.2628        0.1949      613.9670      614.1619     246.899106      18.11500
  37     2.292      367.2993        0.2490      613.0059      613.2548     245.955570      15.62742
  36     2.964      367.3641        0.3193      611.9577      612.2769     244.912805      13.08985
  35     3.853      367.4734        0.4115      610.8024      611.2139     243.740473      11.12565
  34     5.035      367.6418        0.5331      609.5327      610.0659     242.424062       9.40389
  33     6.613      367.8791        0.6946      608.1464      608.8411     240.961961       7.81640
  32     8.786      368.1882        0.9113      606.6250      607.5363     239.348163       6.26741
  31     11.80      368.5880        1.2197      604.8486      606.0684     237.480430       5.22906
  30     15.07      368.9680        1.5489      603.2440      604.7928     235.824890       4.27428
  29     18.79      369.3532        1.9192      601.6511      603.5703     234.217174       3.64518
  28     23.16      369.7524        2.3495      599.9927      602.3422     232.589800       3.14682
  27     28.12      370.1495        2.8392      598.2881      601.1273     230.977762       2.74036
  26     33.73      370.5071        3.3852      596.5951      599.9803     229.473228       2.26211
  25     40.54      370.8378        4.0425      594.7727      598.8152     227.977449       1.85568
  24     48.69      371.1383        4.8312      592.7865      597.6177     226.479399       1.55025
  23     57.69      371.3732        5.6933      590.7959      596.4892     225.116023       1.27796
  22     68.43      371.5496        6.7146      588.6191      595.3337     223.784136       1.04704
  21     81.20      371.6161        7.9254      586.2690      594.1944     222.578320       0.79678
  20     96.49      371.5621        9.3590      583.6961      593.0551     221.492983       0.59903
  19     114.6      371.4461       11.0455      580.7708      591.8163     220.370150       0.52428
  18     136.5      371.2642       13.0201      577.4359      590.4560     219.191780       0.45311
  17     162.9      371.0094       15.3373      573.5624      588.8997     217.890327       0.41600
  16     196.4      370.5911       18.2920      568.5907      586.8827     216.291580       0.40242
  15     218.7      370.2868       20.2022      565.0572      585.2594     214.972642       0.50075
  14     243.0      369.9453       22.2509      560.7495      583.0004     213.055050       0.66508
  13     269.0      369.5656       24.4394      555.3947      579.8341     210.268510       0.90394
  12     297.5      369.1485       26.7683      548.9964      575.7647     206.616240       1.08322
  11     328.5      368.7015       29.2441      542.0895      571.3337     202.632222       1.08324
  10     361.9      368.2273       31.8630      534.6242      566.4872     198.259899       1.10624
   9     398.1      367.7288       34.6293      526.4204      561.0497     193.320903       1.15068
   8     437.6      367.2143       37.5418      517.3907      554.9324     187.718171       1.19790
   7     480.5      366.6907       40.5984      507.7216      548.3200     181.629218       1.19585
   6     533.0      366.0976       44.2728      495.9006      540.1734     174.075774       1.21511
   5     589.8      365.5481       48.1280      483.0788      531.2068     165.658642       1.24938
   4     651.6      365.1311       52.1515      468.6907      520.8421     155.711064       1.36036
   3     718.7      364.9398       56.3351      453.2257      509.5609     144.621090       1.39370
   2     792.3      365.2007       60.6574      436.4928      497.1502     131.949461       1.45329
   1     891.5      366.7239       66.2413      413.9344      480.1757     113.451809       1.57406
   0    1013.0      371.3628       72.5921      388.4125      461.0046      89.641789       1.65325



 Wavenumbers:  2600. -  3250. cm-1, ATM      1
 LEVEL PRESSURE   UPWARD FLUX   DIFDOWN FLUX  DIRDOWN FLUX  DOWNWARD FLUX   NET FLUX    HEATING RATE
          mb          W/m2          W/m2          W/m2        W/m2          W/m2       degree/day
  51    .06700        0.0230        0.0000        5.4450        5.4450       5.422027       0.00000
  50    .07753        0.0230        0.0000        5.4450        5.4450       5.422019       0.00640
  49    .09103        0.0230        0.0000        5.4450        5.4450       5.422009       0.00627
  48    0.1069        0.0230        0.0000        5.4450        5.4450       5.421998       0.00613
  47    0.1255        0.0230        0.0000        5.4450        5.4450       5.421985       0.00599
  46    0.1487        0.0230        0.0000        5.4450        5.4450       5.421968       0.00608
  45    0.1794        0.0230        0.0000        5.4450        5.4450       5.421945       0.00625
  44    0.2165        0.0230        0.0000        5.4449        5.4449       5.421918       0.00612
  43    0.2613        0.0230        0.0000        5.4449        5.4449       5.421887       0.00600
  42    0.3336        0.0230        0.0000        5.4448        5.4448       5.421834       0.00617
  41    0.4307        0.0230        0.0000        5.4448        5.4448       5.421762       0.00620
  40    0.5894        0.0230        0.0000        5.4446        5.4446       5.421643       0.00637
  39     1.339        0.0230        0.0000        5.4439        5.4439       5.420935       0.00797
  38     1.782        0.0230        0.0000        5.4434        5.4434       5.420392       0.01034
  37     2.292        0.0230        0.0000        5.4427        5.4427       5.419676       0.01186
  36     2.964        0.0230        0.0000        5.4416        5.4416       5.418638       0.01304
  35     3.853        0.0230        0.0000        5.4402        5.4402       5.417160       0.01402
  34     5.035        0.0230        0.0000        5.4381        5.4381       5.415105       0.01468
  33     6.613        0.0230        0.0000        5.4353        5.4353       5.412324       0.01487
  32     8.786        0.0230        0.0000        5.4317        5.4317       5.408692       0.01411
  31     11.80        0.0230        0.0000        5.4269        5.4269       5.403912       0.01338
  30     15.07        0.0230        0.0000        5.4224        5.4224       5.399386       0.01169
  29     18.79        0.0230        0.0000        5.4180        5.4180       5.394974       0.01000
  28     23.16        0.0230        0.0000        5.4135        5.4135       5.390489       0.00867
  27     28.12        0.0230        0.0000        5.4088        5.4088       5.385843       0.00790
  26     33.73        0.0230        0.0000        5.4036        5.4036       5.380604       0.00788
  25     40.54        0.0230        0.0000        5.3966        5.3967       5.373665       0.00861
  24     48.69        0.0230        0.0000        5.3872        5.3872       5.364192       0.00980
  23     57.69        0.0230        0.0000        5.3754        5.3754       5.352412       0.01104
  22     68.43        0.0230        0.0000        5.3599        5.3599       5.336931       0.01217
  21     81.20        0.0230        0.0000        5.3401        5.3401       5.317108       0.01310
  20     96.49        0.0230        0.0000        5.3155        5.3155       5.292555       0.01355
  19     114.6        0.0230        0.0000        5.2853        5.2853       5.262376       0.01409
  18     136.5        0.0230        0.0000        5.2504        5.2505       5.227494       0.01341
  17     162.9        0.0230        0.0001        5.2111        5.2111       5.188187       0.01256
  16     196.4        0.0230        0.0001        5.1640        5.1641       5.141154       0.01184
  15     218.7        0.0229        0.0001        5.1331        5.1332       5.110236       0.01174
  14     243.0        0.0229        0.0001        5.0962        5.0963       5.073353       0.01279
  13     269.0        0.0229        0.0001        5.0511        5.0512       5.028234       0.01464
  12     297.5        0.0230        0.0001        4.9956        4.9957       4.972747       0.01646
  11     328.5        0.0230        0.0001        4.9304        4.9305       4.907509       0.01774
  10     361.9        0.0230        0.0001        4.8511        4.8512       4.828223       0.02006
   9     398.1        0.0230        0.0001        4.7507        4.7508       4.727783       0.02340
   8     437.6        0.0231        0.0001        4.6220        4.6222       4.599095       0.02751
   7     480.5        0.0232        0.0001        4.4625        4.4626       4.439473       0.03135
   6     533.0        0.0233        0.0002        4.2460        4.2462       4.222924       0.03484
   5     589.8        0.0235        0.0002        3.9954        3.9956       3.972114       0.03723
   4     651.6        0.0237        0.0002        3.7089        3.7090       3.685274       0.03923
   3     718.7        0.0242        0.0002        3.4018        3.4020       3.377774       0.03864
   2     792.3        0.0250        0.0002        3.0564        3.0566       3.031618       0.03970
   1     891.5        0.0267        0.0002        2.5828        2.5830       2.556249       0.04045
   0    1013.0        0.0309        0.0001        2.0845        2.0847       2.053808       0.03489



 Wavenumbers:  3250. -  4000. cm-1, ATM      1
 LEVEL PRESSURE   UPWARD FLUX   DIFDOWN FLUX  DIRDOWN FLUX  DOWNWARD FLUX   NET FLUX    HEATING RATE
          mb          W/m2          W/m2          W/m2        W/m2          W/m2       degree/day
  51    .06700        0.0005        0.0000        9.1795        9.1795       9.179065       0.00000
  50    .07753        0.0005        0.0000        9.1747        9.1747       9.174222       3.88148
  49    .09103        0.0005        0.0000        9.1713        9.1713       9.170834       2.11747
  48    0.1069        0.0005        0.0000        9.1688        9.1688       9.168309       1.34402
  47    0.1255        0.0005        0.0000        9.1665        9.1665       9.166050       1.02422
  46    0.1487        0.0005        0.0000        9.1641        9.1641       9.163609       0.88991
  45    0.1794        0.0005        0.0000        9.1612        9.1612       9.160731       0.79008
  44    0.2165        0.0005        0.0000        9.1583        9.1583       9.157810       0.66430
  43    0.2613        0.0005        0.0000        9.1553        9.1553       9.154837       0.56041
  42    0.3336        0.0005        0.0000        9.1511        9.1511       9.150658       0.48723
  41    0.4307        0.0005        0.0000        9.1464        9.1464       9.145890       0.41459
  40    0.5894        0.0005        0.0000        9.1393        9.1394       9.138884       0.37255
  39     1.339        0.0005        0.0000        9.1127        9.1127       9.112271       0.29962
  38     1.782        0.0005        0.0000        9.1011        9.1011       9.100683       0.22062
  37     2.292        0.0005        0.0000        9.0901        9.0901       9.089616       0.18329
  36     2.964        0.0005        0.0000        9.0776        9.0776       9.077186       0.15603
  35     3.853        0.0005        0.0000        9.0629        9.0629       9.062396       0.14036
  34     5.035        0.0005        0.0000        9.0441        9.0441       9.043657       0.13386
  33     6.613        0.0005        0.0000        9.0191        9.0191       9.018655       0.13366
  32     8.786        0.0005        0.0000        8.9843        8.9843       8.983872       0.13509
  31     11.80        0.0004        0.0000        8.9327        8.9327       8.932255       0.14451
  30     15.07        0.0004        0.0000        8.8758        8.8759       8.875411       0.14676
  29     18.79        0.0004        0.0000        8.8110        8.8110       8.810583       0.14698
  28     23.16        0.0004        0.0000        8.7365        8.7366       8.736139       0.14395
  27     28.12        0.0004        0.0000        8.6554        8.6555       8.655026       0.13789
  26     33.73        0.0004        0.0000        8.5719        8.5719       8.571526       0.12554
  25     40.54        0.0004        0.0001        8.4812        8.4812       8.480802       0.11255
  24     48.69        0.0004        0.0001        8.3838        8.3839       8.383501       0.10069
  23     57.69        0.0004        0.0001        8.2861        8.2862       8.285766       0.09161
  22     68.43        0.0004        0.0001        8.1751        8.1751       8.174769       0.08726
  21     81.20        0.0004        0.0001        8.0457        8.0458       8.045411       0.08548
  20     96.49        0.0003        0.0001        7.8949        7.8950       7.894708       0.08318
  19     114.6        0.0003        0.0001        7.7162        7.7163       7.715998       0.08344
  18     136.5        0.0003        0.0002        7.5193        7.5194       7.519154       0.07569
  17     162.9        0.0003        0.0002        7.2913        7.2915       7.291263       0.07284
  16     196.4        0.0002        0.0002        6.9660        6.9662       6.965991       0.08187
  15     218.7        0.0002        0.0002        6.6648        6.6650       6.664802       0.11435
  14     243.0        0.0002        0.0002        6.2619        6.2622       6.262008       0.13970
  13     269.0        0.0002        0.0003        5.7576        5.7579       5.757708       0.16359
  12     297.5        0.0001        0.0003        5.1719        5.1722       5.172018       0.17371
  11     328.5        0.0001        0.0002        4.5757        4.5760       4.575859       0.16209
  10     361.9        0.0001        0.0002        3.9995        3.9998       3.999684       0.14578
   9     398.1        0.0001        0.0002        3.4655        3.4657       3.465628       0.12442
   8     437.6        0.0001        0.0002        2.9740        2.9742       2.974182       0.10507
   7     480.5        0.0001        0.0002        2.5307        2.5309       2.530811       0.08708
   6     533.0        0.0000        0.0002        2.0614        2.0616       2.061519       0.07549
   5     589.8        0.0000        0.0002        1.6150        1.6151       1.615096       0.06626
   4     651.6        0.0000        0.0001        1.1565        1.1566       1.156564       0.06271
   3     718.7        0.0000        0.0001        0.7390        0.7391       0.739090       0.05246
   2     792.3        0.0000        0.0001        0.3985        0.3985       0.398509       0.03906
   1     891.5        0.0000        0.0000        0.1139        0.1139       0.113928       0.02422
   0    1013.0        0.0002        0.0000        0.0094        0.0094       0.009187       0.00727



 Wavenumbers:  4000. -  4650. cm-1, ATM      1
 LEVEL PRESSURE   UPWARD FLUX   DIFDOWN FLUX  DIRDOWN FLUX  DOWNWARD FLUX   NET FLUX    HEATING RATE
          mb          W/m2          W/m2          W/m2        W/m2          W/m2       degree/day
  51    .06700        0.2567        0.0000       10.7795       10.7795      10.522816       0.00000
  50    .07753        0.2567        0.0000       10.7795       10.7795      10.522815       0.00080
  49    .09103        0.2567        0.0000       10.7795       10.7795      10.522814       0.00078
  48    0.1069        0.2567        0.0000       10.7795       10.7795      10.522813       0.00076
  47    0.1255        0.2567        0.0000       10.7795       10.7795      10.522811       0.00075
  46    0.1487        0.2567        0.0000       10.7795       10.7795      10.522809       0.00076
  45    0.1794        0.2567        0.0000       10.7795       10.7795      10.522806       0.00078
  44    0.2165        0.2567        0.0000       10.7795       10.7795      10.522803       0.00076
  43    0.2613        0.2567        0.0000       10.7795       10.7795      10.522799       0.00075
  42    0.3336        0.2567        0.0000       10.7795       10.7795      10.522792       0.00077
  41    0.4307        0.2567        0.0000       10.7795       10.7795      10.522783       0.00077
  40    0.5894        0.2567        0.0000       10.7795       10.7795      10.522768       0.00080
  39     1.339        0.2567        0.0000       10.7794       10.7794      10.522679       0.00101
  38     1.782        0.2567        0.0000       10.7793       10.7793      10.522609       0.00133
  37     2.292        0.2567        0.0000       10.7792       10.7792      10.522515       0.00156
  36     2.964        0.2567        0.0000       10.7791       10.7791      10.522375       0.00176
  35     3.853        0.2567        0.0000       10.7789       10.7789      10.522167       0.00197
  34     5.035        0.2567        0.0000       10.7786       10.7786      10.521860       0.00219
  33     6.613        0.2567        0.0000       10.7781       10.7781      10.521409       0.00241
  32     8.786        0.2567        0.0000       10.7774       10.7774      10.520743       0.00259
  31     11.80        0.2567        0.0000       10.7763       10.7764      10.519698       0.00293
  30     15.07        0.2567        0.0001       10.7751       10.7751      10.518471       0.00317
  29     18.79        0.2567        0.0001       10.7736       10.7737      10.516989       0.00336
  28     23.16        0.2566        0.0001       10.7717       10.7718      10.515150       0.00356
  27     28.12        0.2566        0.0001       10.7695       10.7696      10.512925       0.00378
  26     33.73        0.2566        0.0001       10.7667       10.7668      10.510184       0.00412
  25     40.54        0.2566        0.0001       10.7629       10.7631      10.506469       0.00461
  24     48.69        0.2566        0.0002       10.7579       10.7581      10.501524       0.00512
  23     57.69        0.2565        0.0002       10.7520       10.7522      10.495669       0.00549
  22     68.43        0.2565        0.0002       10.7446       10.7448      10.488342       0.00576
  21     81.20        0.2565        0.0003       10.7355       10.7358      10.479335       0.00595
  20     96.49        0.2564        0.0003       10.7245       10.7248      10.468397       0.00604
  19     114.6        0.2564        0.0004       10.7107       10.7111      10.454755       0.00637
  18     136.5        0.2563        0.0005       10.6942       10.6947      10.438365       0.00630
  17     162.9        0.2562        0.0006       10.6740       10.6746      10.418345       0.00640
  16     196.4        0.2562        0.0007       10.6464       10.6470      10.390876       0.00691
  15     218.7        0.2561        0.0008       10.6255       10.6262      10.370086       0.00789
  14     243.0        0.2561        0.0009       10.5980       10.5989      10.342788       0.00947
  13     269.0        0.2561        0.0009       10.5611       10.5620      10.305920       0.01196
  12     297.5        0.2561        0.0010       10.5119       10.5130      10.256838       0.01456
  11     328.5        0.2562        0.0011       10.4499       10.4510      10.194802       0.01687
  10     361.9        0.2563        0.0012       10.3702       10.3714      10.115098       0.02017
   9     398.1        0.2565        0.0014       10.2678       10.2691      10.012648       0.02387
   8     437.6        0.2567        0.0015       10.1390       10.1405       9.883756       0.02756
   7     480.5        0.2570        0.0016        9.9877        9.9893       9.732284       0.02975
   6     533.0        0.2575        0.0017        9.7937        9.7954       9.537929       0.03127
   5     589.8        0.2582        0.0019        9.5752        9.5770       9.318843       0.03252
   4     651.6        0.2594        0.0020        9.2958        9.2978       9.038466       0.03834
   3     718.7        0.2612        0.0021        8.9267        8.9289       8.667651       0.04660
   2     792.3        0.2644        0.0022        8.4542        8.4565       8.192067       0.05454
   1     891.5        0.2719        0.0023        7.7948        7.7972       7.525277       0.05674
   0    1013.0        0.2895        0.0024        7.0767        7.0791       6.789553       0.05109



 Wavenumbers:  4650. -  5150. cm-1, ATM      1
 LEVEL PRESSURE   UPWARD FLUX   DIFDOWN FLUX  DIRDOWN FLUX  DOWNWARD FLUX   NET FLUX    HEATING RATE
          mb          W/m2          W/m2          W/m2        W/m2          W/m2       degree/day
  51    .06700        0.0481        0.0000       10.2033       10.2033      10.155272       0.00000
  50    .07753        0.0481        0.0000       10.2031       10.2031      10.155036       0.18901
  49    .09103        0.0481        0.0000       10.2028       10.2028      10.154741       0.18428
  48    0.1069        0.0481        0.0000       10.2025       10.2025      10.154404       0.17931
  47    0.1255        0.0481        0.0000       10.2021       10.2021      10.154020       0.17426
  46    0.1487        0.0481        0.0000       10.2016       10.2016      10.153539       0.17536
  45    0.1794        0.0481        0.0000       10.2010       10.2010      10.152889       0.17850
  44    0.2165        0.0481        0.0000       10.2002       10.2002      10.152129       0.17277
  43    0.2613        0.0481        0.0000       10.1993       10.1993      10.151244       0.16690
  42    0.3336        0.0481        0.0000       10.1979       10.1979      10.149811       0.16702
  41    0.4307        0.0481        0.0000       10.1960       10.1960      10.147971       0.16002
  40    0.5894        0.0481        0.0000       10.1932       10.1932      10.145097       0.15283
  39     1.339        0.0481        0.0000       10.1816       10.1816      10.133506       0.13050
  38     1.782        0.0481        0.0000       10.1760       10.1760      10.127978       0.10525
  37     2.292        0.0481        0.0000       10.1706       10.1706      10.122522       0.09036
  36     2.964        0.0481        0.0000       10.1646       10.1647      10.116599       0.07434
  35     3.853        0.0481        0.0000       10.1584       10.1584      10.110386       0.05896
  34     5.035        0.0480        0.0000       10.1521       10.1521      10.104053       0.04524
  33     6.613        0.0480        0.0000       10.1456       10.1456      10.097599       0.03450
  32     8.786        0.0480        0.0000       10.1386       10.1386      10.090594       0.02720
  31     11.80        0.0480        0.0001       10.1295       10.1296      10.081564       0.02528
  30     15.07        0.0480        0.0001       10.1196       10.1197      10.071700       0.02547
  29     18.79        0.0480        0.0001       10.1076       10.1077      10.059711       0.02718
  28     23.16        0.0479        0.0001       10.0923       10.0924      10.044433       0.02954
  27     28.12        0.0479        0.0002       10.0731       10.0733      10.025374       0.03240
  26     33.73        0.0479        0.0002       10.0500       10.0502      10.002325       0.03465
  25     40.54        0.0479        0.0002       10.0201       10.0203       9.972486       0.03702
  24     48.69        0.0478        0.0003        9.9820        9.9822       9.934403       0.03941
  23     57.69        0.0478        0.0003        9.9384        9.9388       9.890977       0.04071
  22     68.43        0.0477        0.0004        9.8858        9.8861       9.838397       0.04133
  21     81.20        0.0477        0.0004        9.8234        9.8239       9.776214       0.04109
  20     96.49        0.0476        0.0005        9.7518        9.7523       9.704681       0.03948
  19     114.6        0.0475        0.0006        9.6719        9.6725       9.625013       0.03720
  18     136.5        0.0474        0.0007        9.5858        9.5865       9.539096       0.03304
  17     162.9        0.0473        0.0008        9.4940        9.4949       9.447579       0.02925
  16     196.4        0.0472        0.0010        9.3883        9.3893       9.342114       0.02655
  15     218.7        0.0471        0.0011        9.3229        9.3240       9.276948       0.02474
  14     243.0        0.0470        0.0012        9.2520        9.2532       9.206210       0.02453
  13     269.0        0.0469        0.0013        9.1717        9.1730       9.126106       0.02599
  12     297.5        0.0468        0.0015        9.0763        9.0777       9.030940       0.02823
  11     328.5        0.0467        0.0016        8.9650        8.9666       8.919847       0.03021
  10     361.9        0.0466        0.0017        8.8349        8.8366       8.790010       0.03285
   9     398.1        0.0466        0.0019        8.6820        8.6839       8.637319       0.03557
   8     437.6        0.0465        0.0020        8.5028        8.5048       8.458298       0.03828
   7     480.5        0.0465        0.0022        8.2948        8.2970       8.250477       0.04082
   6     533.0        0.0465        0.0023        8.0209        8.0232       7.976697       0.04404
   5     589.8        0.0466        0.0025        7.7063        7.7088       7.662198       0.04668
   4     651.6        0.0468        0.0026        7.3412        7.3438       7.297010       0.04994
   3     718.7        0.0473        0.0027        6.9387        6.9414       6.894132       0.05063
   2     792.3        0.0480        0.0028        6.5066        6.5094       6.461399       0.04963
   1     891.5        0.0498        0.0029        5.9361        5.9390       5.889209       0.04869
   0    1013.0        0.0536        0.0030        5.3025        5.3054       5.251862       0.04425



 Wavenumbers:  5150. -  6150. cm-1, ATM      1
 LEVEL PRESSURE   UPWARD FLUX   DIFDOWN FLUX  DIRDOWN FLUX  DOWNWARD FLUX   NET FLUX    HEATING RATE
          mb          W/m2          W/m2          W/m2        W/m2          W/m2       degree/day
  51    .06700        0.6091        0.0000       25.5798       25.5798      24.970741       0.00000
  50    .07753        0.6091        0.0000       25.5798       25.5798      24.970701       0.03156
  49    .09103        0.6091        0.0000       25.5797       25.5797      24.970650       0.03204
  48    0.1069        0.6091        0.0000       25.5797       25.5797      24.970589       0.03255
  47    0.1255        0.6091        0.0000       25.5796       25.5796      24.970516       0.03305
  46    0.1487        0.6091        0.0000       25.5795       25.5795      24.970421       0.03482
  45    0.1794        0.6091        0.0000       25.5794       25.5794      24.970286       0.03707
  44    0.2165        0.6091        0.0000       25.5792       25.5792      24.970120       0.03763
  43    0.2613        0.6091        0.0000       25.5790       25.5790      24.969917       0.03821
  42    0.3336        0.6091        0.0000       25.5786       25.5786      24.969571       0.04037
  41    0.4307        0.6091        0.0000       25.5782       25.5782      24.969101       0.04091
  40    0.5894        0.6091        0.0000       25.5774       25.5774      24.968312       0.04192
  39     1.339        0.6090        0.0000       25.5735       25.5736      24.964516       0.04274
  38     1.782        0.6090        0.0000       25.5713       25.5713      24.962306       0.04207
  37     2.292        0.6090        0.0001       25.5688       25.5688      24.959806       0.04141
  36     2.964        0.6090        0.0001       25.5656       25.5656      24.956631       0.03986
  35     3.853        0.6090        0.0001       25.5615       25.5616      24.952597       0.03828
  34     5.035        0.6090        0.0001       25.5562       25.5564      24.947404       0.03710
  33     6.613        0.6089        0.0002       25.5494       25.5496      24.940669       0.03600
  32     8.786        0.6089        0.0002       25.5406       25.5408      24.931946       0.03388
  31     11.80        0.6088        0.0003       25.5287       25.5290      24.920155       0.03301
  30     15.07        0.6087        0.0004       25.5167       25.5171      24.908339       0.03051
  29     18.79        0.6086        0.0005       25.5042       25.5046      24.895995       0.02799
  28     23.16        0.6085        0.0006       25.4907       25.4913      24.882710       0.02569
  27     28.12        0.6084        0.0007       25.4764       25.4772      24.868715       0.02379
  26     33.73        0.6083        0.0008       25.4620       25.4629      24.854556       0.02129
  25     40.54        0.6082        0.0010       25.4463       25.4473      24.839105       0.01917
  24     48.69        0.6080        0.0012       25.4294       25.4306      24.822605       0.01707
  23     57.69        0.6078        0.0014       25.4126       25.4141      24.806270       0.01531
  22     68.43        0.6076        0.0017       25.3944       25.3961      24.788581       0.01391
  21     81.20        0.6073        0.0020       25.3744       25.3764      24.769165       0.01283
  20     96.49        0.6070        0.0024       25.3519       25.3544      24.747391       0.01202
  19     114.6        0.6066        0.0029       25.3262       25.3290      24.722460       0.01164
  18     136.5        0.6061        0.0034       25.2962       25.2996      24.693476       0.01115
  17     162.9        0.6056        0.0040       25.2521       25.2561      24.650558       0.01372
  16     196.4        0.6049        0.0049       25.1593       25.1642      24.559265       0.02298
  15     218.7        0.6044        0.0054       25.0159       25.0213      24.416867       0.05406
  14     243.0        0.6040        0.0059       24.7089       24.7148      24.110853       0.10614
  13     269.0        0.6035        0.0064       24.1619       24.1683      23.564782       0.17714
  12     297.5        0.6030        0.0069       23.4544       23.4613      22.858283       0.20954
  11     328.5        0.6025        0.0074       22.7355       22.7429      22.140344       0.19521
  10     361.9        0.6020        0.0079       21.9224       21.9303      21.328262       0.20546
   9     398.1        0.6016        0.0083       20.9939       21.0022      20.400649       0.21611
   8     437.6        0.6012        0.0087       19.9833       19.9920      19.390878       0.21590
   7     480.5        0.6008        0.0091       18.9483       18.9574      18.356566       0.20313
   6     533.0        0.6005        0.0095       17.7796       17.7890      17.188542       0.18790
   5     589.8        0.6005        0.0098       16.6726       16.6824      16.081949       0.16425
   4     651.6        0.6009        0.0102       15.6343       15.6445      15.043583       0.14200
   3     718.7        0.6022        0.0106       14.7738       14.7844      14.182173       0.10826
   2     792.3        0.6053        0.0111       14.0291       14.0402      13.434969       0.08570
   1     891.5        0.6139        0.0117       13.0822       13.0939      12.479971       0.08127
   0    1013.0        0.6399        0.0123       12.0384       12.0507      11.410778       0.07424



 Wavenumbers:  6150. -  7700. cm-1, ATM      1
 LEVEL PRESSURE   UPWARD FLUX   DIFDOWN FLUX  DIRDOWN FLUX  DOWNWARD FLUX   NET FLUX    HEATING RATE
          mb          W/m2          W/m2          W/m2        W/m2          W/m2       degree/day
  51    .06700        1.6488        0.0000       47.3109       47.3109      45.662058       0.00000
  50    .07753        1.6488        0.0000       47.3108       47.3108      45.662001       0.04553
  49    .09103        1.6488        0.0000       47.3107       47.3107      45.661928       0.04583
  48    0.1069        1.6488        0.0000       47.3106       47.3106      45.661841       0.04614
  47    0.1255        1.6488        0.0000       47.3105       47.3105      45.661739       0.04645
  46    0.1487        1.6488        0.0000       47.3104       47.3104      45.661606       0.04852
  45    0.1794        1.6488        0.0000       47.3102       47.3102      45.661419       0.05127
  44    0.2165        1.6488        0.0000       47.3100       47.3100      45.661192       0.05167
  43    0.2613        1.6488        0.0000       47.3097       47.3097      45.660916       0.05210
  42    0.3336        1.6488        0.0000       47.3092       47.3092      45.660446       0.05471
  41    0.4307        1.6488        0.0000       47.3085       47.3086      45.659811       0.05521
  40    0.5894        1.6487        0.0001       47.3074       47.3075      45.658752       0.05633
  39     1.339        1.6487        0.0001       47.3022       47.3023      45.653660       0.05733
  38     1.782        1.6486        0.0002       47.2991       47.2993      45.650690       0.05655
  37     2.292        1.6486        0.0002       47.2956       47.2959      45.647314       0.05591
  36     2.964        1.6485        0.0003       47.2912       47.2915      45.642996       0.05421
  35     3.853        1.6484        0.0004       47.2855       47.2859      45.637461       0.05252
  34     5.035        1.6483        0.0005       47.2780       47.2786      45.630281       0.05129
  33     6.613        1.6481        0.0007       47.2683       47.2690      45.620893       0.05019
  32     8.786        1.6479        0.0009       47.2556       47.2565      45.608594       0.04776
  31     11.80        1.6476        0.0013       47.2380       47.2393      45.591691       0.04732
  30     15.07        1.6473        0.0016       47.2201       47.2217      45.574405       0.04463
  29     18.79        1.6469        0.0020       47.2008       47.2028      45.555926       0.04190
  28     23.16        1.6465        0.0025       47.1795       47.1820      45.535538       0.03942
  27     28.12        1.6460        0.0030       47.1565       47.1595      45.513546       0.03738
  26     33.73        1.6454        0.0036       47.1324       47.1360      45.490628       0.03446
  25     40.54        1.6447        0.0043       47.1054       47.1097      45.464995       0.03180
  24     48.69        1.6439        0.0052       47.0754       47.0806      45.436748       0.02923
  23     57.69        1.6430        0.0062       47.0449       47.0511      45.408132       0.02682
  22     68.43        1.6419        0.0073       47.0110       47.0183      45.376404       0.02494
  21     81.20        1.6406        0.0086       46.9729       46.9815      45.340923       0.02345
  20     96.49        1.6390        0.0103       46.9294       46.9396      45.300600       0.02226
  19     114.6        1.6372        0.0122       46.8790       46.8912      45.253993       0.02176
  18     136.5        1.6350        0.0145       46.8200       46.8344      45.199409       0.02099
  17     162.9        1.6324        0.0172       46.7361       46.7533      45.120860       0.02511
  16     196.4        1.6291        0.0207       46.5703       46.5909      44.961844       0.04003
  15     218.7        1.6269        0.0229       46.3473       46.3702      44.743312       0.08297
  14     243.0        1.6246        0.0253       45.9299       45.9551      44.330534       0.14317
  13     269.0        1.6222        0.0276       45.1708       45.1983      43.576182       0.24471
  12     297.5        1.6197        0.0298       44.0115       44.0412      42.421548       0.34245
  11     328.5        1.6172        0.0320       42.7242       42.7562      41.139022       0.34872
  10     361.9        1.6147        0.0342       41.3539       41.3881      39.773447       0.34550
   9     398.1        1.6122        0.0363       39.7953       39.8315      38.219307       0.36208
   8     437.6        1.6099        0.0381       37.9948       38.0329      36.422935       0.38408
   7     480.5        1.6080        0.0398       36.0647       36.1045      34.496521       0.37834
   6     533.0        1.6064        0.0415       33.7773       33.8187      32.212370       0.36745
   5     589.8        1.6060        0.0428       31.4082       31.4510      29.844947       0.35140
   4     651.6        1.6085        0.0436       28.8834       28.9270      27.318549       0.34549
   3     718.7        1.6156        0.0442       26.4104       26.4546      24.838981       0.31161
   2     792.3        1.6316        0.0444       24.0056       24.0501      22.418436       0.27761
   1     891.5        1.6763        0.0446       21.2348       21.2793      19.603074       0.23957
   0    1013.0        1.8007        0.0447       18.6150       18.6597      16.859060       0.19053



 Wavenumbers:  7700. -  8050. cm-1, ATM      1
 LEVEL PRESSURE   UPWARD FLUX   DIFDOWN FLUX  DIRDOWN FLUX  DOWNWARD FLUX   NET FLUX    HEATING RATE
          mb          W/m2          W/m2          W/m2        W/m2          W/m2       degree/day
  51    .06700        3.2812        0.0000       11.1810       11.1810       7.899785       0.00000
  50    .07753        3.2812        0.0000       11.1809       11.1809       7.899765       0.01594
  49    .09103        3.2812        0.0000       11.1809       11.1809       7.899740       0.01563
  48    0.1069        3.2812        0.0000       11.1809       11.1809       7.899712       0.01530
  47    0.1255        3.2812        0.0000       11.1809       11.1809       7.899679       0.01497
  46    0.1487        3.2812        0.0000       11.1808       11.1808       7.899637       0.01519
  45    0.1794        3.2812        0.0000       11.1808       11.1808       7.899580       0.01563
  44    0.2165        3.2812        0.0000       11.1807       11.1807       7.899513       0.01533
  43    0.2613        3.2812        0.0000       11.1806       11.1806       7.899433       0.01504
  42    0.3336        3.2812        0.0000       11.1805       11.1805       7.899301       0.01539
  41    0.4307        3.2812        0.0000       11.1803       11.1804       7.899126       0.01523
  40    0.5894        3.2813        0.0000       11.1801       11.1801       7.898840       0.01521
  39     1.339        3.2814        0.0001       11.1788       11.1789       7.897487       0.01523
  38     1.782        3.2815        0.0001       11.1781       11.1782       7.896692       0.01513
  37     2.292        3.2815        0.0001       11.1772       11.1773       7.895772       0.01523
  36     2.964        3.2817        0.0001       11.1761       11.1762       7.894565       0.01516
  35     3.853        3.2818        0.0002       11.1746       11.1748       7.892969       0.01514
  34     5.035        3.2820        0.0002       11.1726       11.1728       7.890851       0.01514
  33     6.613        3.2823        0.0003       11.1700       11.1703       7.888021       0.01513
  32     8.786        3.2826        0.0004       11.1664       11.1668       7.884211       0.01480
  31     11.80        3.2831        0.0006       11.1613       11.1619       7.878764       0.01525
  30     15.07        3.2836        0.0007       11.1558       11.1566       7.872923       0.01508
  29     18.79        3.2843        0.0009       11.1497       11.1506       7.866334       0.01494
  28     23.16        3.2850        0.0011       11.1425       11.1436       7.858651       0.01486
  27     28.12        3.2858        0.0014       11.1343       11.1357       7.849883       0.01490
  26     33.73        3.2867        0.0016       11.1252       11.1268       7.840096       0.01472
  25     40.54        3.2879        0.0020       11.1142       11.1162       7.828306       0.01463
  24     48.69        3.2892        0.0024       11.1010       11.1034       7.814145       0.01465
  23     57.69        3.2907        0.0028       11.0866       11.0894       7.798657       0.01452
  22     68.43        3.2925        0.0033       11.0695       11.0728       7.780305       0.01443
  21     81.20        3.2947        0.0039       11.0494       11.0533       7.758573       0.01436
  20     96.49        3.2973        0.0046       11.0255       11.0302       7.732865       0.01419
  19     114.6        3.3004        0.0055       10.9975       11.0030       7.702603       0.01413
  18     136.5        3.3042        0.0065       10.9648       10.9713       7.667092       0.01365
  17     162.9        3.3087        0.0077       10.9263       10.9340       7.625290       0.01336
  16     196.4        3.3148        0.0093       10.8773       10.8866       7.571825       0.01346
  15     218.7        3.3188        0.0103       10.8455       10.8559       7.537120       0.01318
  14     243.0        3.3232        0.0115       10.8114       10.8229       7.499704       0.01298
  13     269.0        3.3281        0.0127       10.7749       10.7875       7.459444       0.01306
  12     297.5        3.3335        0.0140       10.7357       10.7497       7.416154       0.01284
  11     328.5        3.3395        0.0154       10.6937       10.7091       7.369575       0.01266
  10     361.9        3.3462        0.0169       10.6489       10.6658       7.319525       0.01266
   9     398.1        3.3537        0.0185       10.6008       10.6193       7.265588       0.01257
   8     437.6        3.3621        0.0203       10.5491       10.5693       7.207249       0.01247
   7     480.5        3.3715        0.0221       10.4934       10.5156       7.144025       0.01242
   6     533.0        3.3839        0.0244       10.4243       10.4487       7.064793       0.01275
   5     589.8        3.3984        0.0269       10.3479       10.3748       6.976367       0.01313
   4     651.6        3.4159        0.0295       10.2613       10.2908       6.874952       0.01387
   3     718.7        3.4374        0.0323       10.1618       10.1940       6.756598       0.01487
   2     792.3        3.4649        0.0352       10.0439       10.0791       6.614183       0.01633
   1     891.5        3.5114        0.0391        9.8626        9.9017       6.390230       0.01906
   0    1013.0        3.5854        0.0435        9.6103        9.6538       6.068364       0.02235



 Wavenumbers:  8050. - 12850. cm-1, ATM      1
 LEVEL PRESSURE   UPWARD FLUX   DIFDOWN FLUX  DIRDOWN FLUX  DOWNWARD FLUX   NET FLUX    HEATING RATE
          mb          W/m2          W/m2          W/m2        W/m2          W/m2       degree/day
  51    .06700       78.8509        0.0000      156.5418      156.5418      77.690812       0.00000
  50    .07753       78.8509        0.0000      156.5417      156.5417      77.690812      -0.00000
  49    .09103       78.8509        0.0001      156.5417      156.5417      77.690812      -0.00000
  48    0.1069       78.8509        0.0001      156.5416      156.5417      77.690812       0.00000
  47    0.1255       78.8509        0.0002      156.5415      156.5417      77.690812      -0.00000
  46    0.1487       78.8508        0.0002      156.5414      156.5416      77.690812      -0.00000
  45    0.1794       78.8508        0.0003      156.5413      156.5416      77.690812       0.00000
  44    0.2165       78.8508        0.0004      156.5412      156.5416      77.690812      -0.00000
  43    0.2613       78.8507        0.0005      156.5410      156.5415      77.690812       0.00000
  42    0.3336       78.8506        0.0007      156.5407      156.5414      77.690812      -0.00000
  41    0.4307       78.8505        0.0010      156.5403      156.5413      77.690812       0.00000
  40    0.5894       78.8503        0.0014      156.5397      156.5411      77.690812      -0.00000
  39     1.339       78.8494        0.0034      156.5367      156.5402      77.690812       0.00000
  38     1.782       78.8488        0.0046      156.5350      156.5396      77.690812      -0.00000
  37     2.292       78.8482        0.0060      156.5330      156.5390      77.690812       0.00000
  36     2.964       78.8473        0.0078      156.5303      156.5382      77.690812       0.00000
  35     3.853       78.8462        0.0102      156.5268      156.5371      77.690812      -0.00000
  34     5.035       78.8448        0.0134      156.5222      156.5356      77.690812       0.00000
  33     6.613       78.8428        0.0176      156.5160      156.5336      77.690812       0.00000
  32     8.786       78.8402        0.0234      156.5076      156.5310      77.690812       0.00000
  31     11.80       78.8364        0.0316      156.4957      156.5272      77.690812       0.00000
  30     15.07       78.8324        0.0404      156.4828      156.5232      77.690812       0.00000
  29     18.79       78.8278        0.0504      156.4682      156.5186      77.690812      -0.00000
  28     23.16       78.8224        0.0620      156.4512      156.5132      77.690812      -0.00000
  27     28.12       78.8163        0.0754      156.4317      156.5071      77.690812       0.00000
  26     33.73       78.8094        0.0903      156.4099      156.5002      77.690812      -0.00000
  25     40.54       78.8010        0.1084      156.3834      156.4919      77.690812       0.00000
  24     48.69       78.7910        0.1303      156.3515      156.4818      77.690812       0.00000
  23     57.69       78.7799        0.1543      156.3164      156.4707      77.690812      -0.00000
  22     68.43       78.7667        0.1830      156.2746      156.4575      77.690812       0.00000
  21     81.20       78.7510        0.2172      156.2246      156.4418      77.690812      -0.00000
  20     96.49       78.7322        0.2580      156.1649      156.4230      77.690812       0.00000
  19     114.6       78.7099        0.3066      156.0879      156.3946      77.684629       0.00289
  18     136.5       78.6835        0.3643      155.9962      156.3605      77.676957       0.00295
  17     162.9       78.6520        0.4332      155.8831      156.3162      77.664214       0.00407
  16     196.4       78.6111        0.5227      155.7199      156.2426      77.631512       0.00823
  15     218.7       78.5843        0.5815      155.5733      156.1548      77.570506       0.02316
  14     243.0       78.5556        0.6455      155.3367      155.9822      77.426577       0.04992
  13     269.0       78.5254        0.7147      154.9514      155.6661      77.140684       0.09274
  12     297.5       78.4947        0.7891      154.3896      155.1787      76.684070       0.13543
  11     328.5       78.4639        0.8694      153.7151      154.5845      76.120602       0.15321
  10     361.9       78.4342        0.9555      152.9087      153.8642      75.429958       0.17474
   9     398.1       78.4078        1.0475      151.8986      152.9461      74.538276       0.20774
   8     437.6       78.3882        1.1453      150.6031      151.7485      73.360278       0.25186
   7     480.5       78.3796        1.2486      149.0014      150.2500      71.870463       0.29259
   6     533.0       78.3924        1.3735      146.7375      148.1111      69.718633       0.34616
   5     589.8       78.4491        1.5042      143.8730      145.3771      66.928012       0.41422
   4     651.6       78.5995        1.6379      140.0955      141.7334      63.133981       0.51884
   3     718.7       78.9077        1.7735      135.5278      137.3013      58.393599       0.59573
   2     792.3       79.5151        1.9076      130.0690      131.9766      52.461507       0.68034
   1     891.5       81.0727        2.0695      122.1273      124.1968      43.124106       0.79457
   0    1013.0       84.8980        2.2429      112.9512      115.1941      30.296042       0.89072



 Wavenumbers: 12850. - 16000. cm-1, ATM      1
 LEVEL PRESSURE   UPWARD FLUX   DIFDOWN FLUX  DIRDOWN FLUX  DOWNWARD FLUX   NET FLUX    HEATING RATE
          mb          W/m2          W/m2          W/m2        W/m2          W/m2       degree/day
  51    .06700       76.6031        0.0000       98.0872       98.0872      21.484156       0.00000
  50    .07753       76.6031        0.0001       98.0864       98.0864      21.483365       0.63399
  49    .09103       76.6031        0.0002       98.0853       98.0854      21.482372       0.62085
  48    0.1069       76.6031        0.0003       98.0841       98.0843      21.481231       0.60744
  47    0.1255       76.6031        0.0004       98.0826       98.0830      21.479920       0.59432
  46    0.1487       76.6031        0.0005       98.0809       98.0814      21.478266       0.60297
  45    0.1794       76.6031        0.0007       98.0784       98.0792      21.476016       0.61765
  44    0.2165       76.6032        0.0010       98.0756       98.0766      21.473370       0.60193
  43    0.2613       76.6033        0.0012       98.0723       98.0736      21.470259       0.58642
  42    0.3336       76.6035        0.0017       98.0670       98.0687      21.465182       0.59183
  41    0.4307       76.6039        0.0023       98.0602       98.0625      21.458620       0.57054
  40    0.5894       76.6046        0.0033       98.0496       98.0529      21.448286       0.54957
  39     1.339       76.6109        0.0081       98.0043       98.0124      21.401554       0.52612
  38     1.782       76.6166        0.0109       97.9793       97.9901      21.373561       0.53293
  37     2.292       76.6251        0.0141       97.9498       97.9639      21.338740       0.57673
  36     2.964       76.6393        0.0183       97.9088       97.9271      21.287857       0.63873
  35     3.853       76.6621        0.0239       97.8503       97.8742      21.212134       0.71863
  34     5.035       76.6965        0.0313       97.7680       97.7993      21.102797       0.78105
  33     6.613       76.7446        0.0412       97.6562       97.6974      20.952863       0.80155
  32     8.786       76.8071        0.0546       97.5107       97.5653      20.758141       0.75623
  31     11.80       76.8885        0.0737       97.3179       97.3915      20.502982       0.71436
  30     15.07       76.9665        0.0941       97.1283       97.2224      20.255897       0.63792
  29     18.79       77.0462        0.1172       96.9300       97.0472      20.001015       0.57790
  28     23.16       77.1295        0.1441       96.7166       96.8607      19.731214       0.52171
  27     28.12       77.2133        0.1749       96.4935       96.6684      19.455072       0.46942
  26     33.73       77.2909        0.2094       96.2731       96.4825      19.191594       0.39615
  25     40.54       77.3657        0.2510       96.0408       96.2918      18.926106       0.32937
  24     48.69       77.4375        0.3012       95.7946       96.0958      18.658262       0.27718
  23     57.69       77.4987        0.3564       95.5573       95.9136      18.414997       0.22803
  22     68.43       77.5522        0.4221       95.3106       95.7327      18.180539       0.18431
  21     81.20       77.5895        0.5005       95.0643       95.5648      17.975341       0.13559
  20     96.49       77.6095        0.5940       94.8153       95.4093      17.799770       0.09690
  19     114.6       77.6347        0.7062       94.5411       95.2473      17.612582       0.08740
  18     136.5       77.6534        0.8393       94.2320       95.0713      17.417948       0.07484
  17     162.9       77.6652        0.9977       93.8753       94.8730      17.207772       0.06718
  16     196.4       77.6587        1.2031       93.4347       94.6378      16.979050       0.05757
  15     218.7       77.6465        1.3380       93.1513       94.4893      16.842746       0.05175
  14     243.0       77.6299        1.4846       92.8439       94.3286      16.698703       0.04996
  13     269.0       77.6086        1.6435       92.5111       94.1546      16.546075       0.04951
  12     297.5       77.5831        1.8152       92.1495       93.9647      16.381662       0.04876
  11     328.5       77.5552        2.0008       91.7554       93.7562      16.201003       0.04912
  10     361.9       77.5256        2.2005       91.3262       93.5267      16.001126       0.05057
   9     398.1       77.4956        2.4155       90.8575       93.2730      15.777463       0.05211
   8     437.6       77.4675        2.6462       90.3418       92.9880      15.520560       0.05493
   7     480.5       77.4437        2.8934       89.7728       92.6662      15.222520       0.05853
   6     533.0       77.4272        3.1974       89.0428       92.2402      14.813078       0.06587
   5     589.8       77.4335        3.5242       88.2038       91.7280      14.294484       0.07698
   4     651.6       77.4905        3.8735       87.1979       91.0715      13.580928       0.09758
   3     718.7       77.6163        4.2438       86.0161       90.2599      12.643582       0.11780
   2     792.3       77.8696        4.6311       84.5970       89.2282      11.358600       0.14737
   1     891.5       78.4924        5.1353       82.4374       87.5728       9.080386       0.19387
   0    1013.0       79.8030        5.7143       79.6182       85.3325       5.529547       0.24655



 Wavenumbers: 16000. - 22650. cm-1, ATM      1
 LEVEL PRESSURE   UPWARD FLUX   DIFDOWN FLUX  DIRDOWN FLUX  DOWNWARD FLUX   NET FLUX    HEATING RATE
          mb          W/m2          W/m2          W/m2        W/m2          W/m2       degree/day
  51    .06700      138.8499        0.0000      156.3892      156.3892      17.539380       0.00000
  50    .07753      138.8498        0.0004      156.3887      156.3891      17.539234       0.11738
  49    .09103      138.8498        0.0009      156.3879      156.3888      17.539021       0.13314
  48    0.1069      138.8498        0.0015      156.3871      156.3885      17.538735       0.15182
  47    0.1255      138.8498        0.0021      156.3861      156.3882      17.538354       0.17306
  46    0.1487      138.8499        0.0029      156.3847      156.3877      17.537791       0.20507
  45    0.1794      138.8500        0.0041      156.3828      156.3869      17.536911       0.24146
  44    0.2165      138.8502        0.0054      156.3805      156.3859      17.535719       0.27137
  43    0.2613      138.8505        0.0070      156.3776      156.3846      17.534100       0.30508
  42    0.3336      138.8512        0.0096      156.3726      156.3822      17.531023       0.35877
  41    0.4307      138.8524        0.0131      156.3657      156.3788      17.526384       0.40330
  40    0.5894      138.8549        0.0187      156.3537      156.3724      17.517538       0.47043
  39     1.339      138.8768        0.0456      156.2834      156.3290      17.452181       0.73580
  38     1.782      138.8972        0.0613      156.2324      156.2937      17.396505       1.05998
  37     2.292      138.9278        0.0796      156.1641      156.2437      17.315914       1.33480
  36     2.964      138.9787        0.1035      156.0605      156.1640      17.185356       1.63889
  35     3.853      139.0610        0.1351      155.9041      156.0392      16.978195       1.96600
  34     5.035      139.1853        0.1771      155.6774      155.8544      16.669131       2.20782
  33     6.613      139.3590        0.2330      155.3656      155.5986      16.239632       2.29610
  32     8.786      139.5852        0.3083      154.9577      155.2660      15.680772       2.17041
  31     11.80      139.8795        0.4159      154.4153      154.8312      14.951633       2.04136
  30     15.07      140.1614        0.5313      153.8804      154.4116      14.250254       1.81082
  29     18.79      140.4490        0.6613      153.3191      153.9804      13.531437       1.62978
  28     23.16      140.7494        0.8131      152.7126      153.5256      12.776180       1.46042
  27     28.12      141.0515        0.9863      152.0755      153.0618      12.010261       1.30201
  26     33.73      141.3300        1.1800      151.4409      152.6209      11.290868       1.08163
  25     40.54      141.5975        1.4137      150.7637      152.1774      10.579883       0.88206
  24     48.69      141.8531        1.6952      150.0338      151.7291       9.876033       0.72837
  23     57.69      142.0690        2.0041      149.3151      151.3193       9.250271       0.58656
  22     68.43      142.2563        2.3716      148.5476      150.9192       8.662875       0.46177
  21     81.20      142.3837        2.8090      147.7517      150.5607       8.176985       0.32107
  20     96.49      142.4467        3.3298      146.9127      150.2424       7.795702       0.21044
  19     114.6      142.4760        3.9463      145.9763      149.9226       7.446539       0.16303
  18     136.5      142.4799        4.6742      144.9088      149.5830       7.103069       0.13207
  17     162.9      142.4565        5.5369      143.6785      149.2155       6.759030       0.10997
  16     196.4      142.3654        6.6500      142.1651      148.8151       6.449622       0.07788
  15     218.7      142.2835        7.3774      141.2033      148.5807       6.297204       0.05787
  14     243.0      142.1842        8.1646      140.1753      148.3399       6.155651       0.04910
  13     269.0      142.0661        9.0138      139.0797      148.0934       6.027371       0.04161
  12     297.5      141.9283        9.9270      137.9141      147.8411       5.912747       0.03400
  11     328.5      141.7749       10.9085      136.6676      147.5761       5.801233       0.03032
  10     361.9      141.6054       11.9592      135.3392      147.2984       5.692975       0.02739
   9     398.1      141.4195       13.0831      133.9235      147.0066       5.587103       0.02467
   8     437.6      141.2179       14.2822      132.4163      146.6984       5.480522       0.02279
   7     480.5      141.0003       15.5586      130.8147      146.3732       5.372965       0.02112
   6     533.0      140.7323       17.1173      128.8599      145.9773       5.244924       0.02060
   5     589.8      140.4472       18.7827      126.7679      145.5506       5.103394       0.02101
   4     651.6      140.1509       20.5561      124.5274      145.0835       4.932656       0.02335
   3     718.7      139.8491       22.4393      122.1285      144.5677       4.718613       0.02690
   2     792.3      139.5582       24.4301      119.5548      143.9849       4.426789       0.03347
   1     891.5      139.2431       27.0723      116.0566      143.1289       3.885860       0.04603
   0    1013.0      138.9918       30.1763      111.8404      142.0168       3.024957       0.05978



 Wavenumbers: 22650. - 29000. cm-1, ATM      1
 LEVEL PRESSURE   UPWARD FLUX   DIFDOWN FLUX  DIRDOWN FLUX  DOWNWARD FLUX   NET FLUX    HEATING RATE
          mb          W/m2          W/m2          W/m2        W/m2          W/m2       degree/day
  51    .06700       58.3302        0.0000       59.0156       59.0156       0.685396       0.00000
  50    .07753       58.3301        0.0005       59.0151       59.0155       0.685396      -0.00000
  49    .09103       58.3300        0.0010       59.0144       59.0154       0.685396       0.00000
  48    0.1069       58.3299        0.0017       59.0136       59.0153       0.685396      -0.00000
  47    0.1255       58.3297        0.0025       59.0127       59.0151       0.685396      -0.00000
  46    0.1487       58.3295        0.0034       59.0115       59.0149       0.685396       0.00000
  45    0.1794       58.3293        0.0048       59.0099       59.0147       0.685396       0.00000
  44    0.2165       58.3290        0.0063       59.0080       59.0144       0.685396       0.00000
  43    0.2613       58.3286        0.0082       59.0058       59.0140       0.685396      -0.00000
  42    0.3336       58.3280        0.0112       59.0022       59.0134       0.685396       0.00000
  41    0.4307       58.3272        0.0153       58.9973       59.0126       0.685396      -0.00000
  40    0.5894       58.3259        0.0220       58.9894       59.0113       0.685396       0.00000
  39     1.339       58.3198        0.0534       58.9518       59.0052       0.685396       0.00000
  38     1.782       58.3162        0.0719       58.9297       59.0016       0.685396       0.00000
  37     2.292       58.3120        0.0932       58.9042       58.9974       0.685396       0.00000
  36     2.964       58.3065        0.1213       58.8706       58.9919       0.685396      -0.00000
  35     3.853       58.2993        0.1583       58.8264       58.9847       0.685396       0.00000
  34     5.035       58.2897        0.2075       58.7676       58.9751       0.685396       0.00000
  33     6.613       58.2768        0.2731       58.6891       58.9622       0.685396      -0.00000
  32     8.786       58.2596        0.3616       58.5834       58.9450       0.685396       0.00000
  31     11.80       58.2349        0.4878       58.4324       58.9203       0.685396       0.00000
  30     15.07       58.2084        0.6232       58.2706       58.8938       0.685396       0.00000
  29     18.79       58.1786        0.7758       58.0882       58.8640       0.685396       0.00000
  28     23.16       58.1439        0.9536       57.8757       58.8293       0.685396       0.00000
  27     28.12       58.1042        1.1563       57.6333       58.7896       0.685396       0.00000
  26     33.73       58.0600        1.3824       57.3631       58.7454       0.685396      -0.00000
  25     40.54       58.0068        1.6543       57.0379       58.6922       0.685396       0.00000
  24     48.69       57.9430        1.9805       56.6479       58.6284       0.685396      -0.00000
  23     57.69       57.8733        2.3367       56.2221       58.5587       0.685396       0.00000
  22     68.43       57.7909        2.7578       55.7186       58.4763       0.685396       0.00000
  21     81.20       57.6936        3.2551       55.1239       58.3790       0.685396      -0.00000
  20     96.49       57.5788        3.8414       54.4228       58.2642       0.685396       0.00000
  19     114.6       57.4441        4.5285       53.6010       58.1295       0.685396       0.00000
  18     136.5       57.2869        5.3305       52.6418       57.9723       0.685396      -0.00000
  17     162.9       57.1030        6.2680       51.5203       57.7883       0.685396       0.00000
  16     196.4       56.8697        7.4557       50.0994       57.5551       0.685396       0.00000
  15     218.7       56.7197        8.2189       49.1863       57.4051       0.685396      -0.00000
  14     243.0       56.5595        9.0336       48.2113       57.2449       0.685396      -0.00000
  13     269.0       56.3891        9.8995       47.1749       57.0744       0.685396       0.00000
  12     297.5       56.2086       10.8157       46.0783       56.8939       0.685396       0.00000
  11     328.5       56.0177       11.7835       44.9195       56.7031       0.685396       0.00000
  10     361.9       55.8169       12.8005       43.7018       56.5023       0.685396      -0.00000
   9     398.1       55.6062       13.8665       42.4250       56.2916       0.685396       0.00000
   8     437.6       55.3858       14.9796       41.0916       56.0712       0.685396       0.00000
   7     480.5       55.1563       16.1373       39.7045       55.8417       0.685396       0.00000
   6     533.0       54.8829       17.5141       38.0543       55.5683       0.685396      -0.00000
   5     589.8       54.5989       18.9412       36.3431       55.2843       0.685396       0.00000
   4     651.6       54.3055       20.4113       34.5795       54.9909       0.685396       0.00000
   3     718.7       54.0038       21.9190       32.7702       54.6892       0.685396      -0.00000
   2     792.3       53.6954       23.4552       30.9256       54.3808       0.685396      -0.00000
   1     891.5       53.3015       25.4091       28.5778       53.9869       0.685396       0.00000
   0    1013.0       52.8612       27.5801       25.9665       53.5466       0.685396       0.00000



 Wavenumbers: 29000. - 38000. cm-1, ATM      1
 LEVEL PRESSURE   UPWARD FLUX   DIFDOWN FLUX  DIRDOWN FLUX  DOWNWARD FLUX   NET FLUX    HEATING RATE
          mb          W/m2          W/m2          W/m2        W/m2          W/m2       degree/day
  51    .06700        8.7123        0.0000       20.8114       20.8114      12.099085       0.00000
  50    .07753        8.7121        0.0003       20.8070       20.8074      12.095278       3.05149
  49    .09103        8.7119        0.0007       20.8009       20.8016      12.089741       3.46078
  48    0.1069        8.7116        0.0012       20.7928       20.7939      12.082331       3.94421
  47    0.1255        8.7113        0.0017       20.7820       20.7837      12.072427       4.49025
  46    0.1487        8.7110        0.0024       20.7665       20.7688      12.057864       5.30833
  45    0.1794        8.7105        0.0033       20.7424       20.7457      12.035200       6.22191
  44    0.2165        8.7100        0.0044       20.7103       20.7147      12.004677       6.94325
  43    0.2613        8.7094        0.0056       20.6675       20.6731      11.963684       7.72716
  42    0.3336        8.7085        0.0077       20.5880       20.5956      11.887124       8.92605
  41    0.4307        8.7074        0.0104       20.4722       20.4826      11.775175       9.73379
  40    0.5894        8.7059        0.0147       20.2637       20.2784      11.572496      10.77819
  39     1.339        8.7024        0.0331       19.0984       19.1315      10.429058      12.87303
  38     1.782        8.7029        0.0427       18.4394       18.4820       9.779167      12.37288
  37     2.292        8.7055        0.0529       17.7714       17.8243       9.118870      10.93625
  36     2.964        8.7119        0.0656       17.0421       17.1077       8.395821       9.07645
  35     3.853        8.7246        0.0815       16.2678       16.3493       7.624760       7.31751
  34     5.035        8.7455        0.1016       15.4803       15.5820       6.836440       5.63143
  33     6.613        8.7760        0.1274       14.7157       14.8431       6.067098       4.11290
  32     8.786        8.8162        0.1611       13.9936       14.1547       5.338464       2.82975
  31     11.80        8.8687        0.2081       13.2835       13.4916       4.622917       2.00331
  30     15.07        8.9193        0.2568       12.7394       12.9961       4.076849       1.40984
  29     18.79        8.9715        0.3108       12.2666       12.5774       3.605826       1.06795
  28     23.16        9.0270        0.3722       11.8300       12.2022       3.175143       0.83280
  27     28.12        9.0839        0.4409       11.4279       11.8688       2.784924       0.66335
  26     33.73        9.1363        0.5167       11.0695       11.5861       2.449877       0.50375
  25     40.54        9.1859        0.6072       10.7209       11.3281       2.142177       0.38174
  24     48.69        9.2327        0.7146       10.3742       11.0888       1.856100       0.29605
  23     57.69        9.2710        0.8309       10.0549       10.8857       1.614780       0.22620
  22     68.43        9.3018        0.9672        9.7327       10.6999       1.398169       0.17028
  21     81.20        9.3162        1.1282        9.4134       10.5416       1.225468       0.11412
  20     96.49        9.3122        1.3175        9.0887       10.4062       1.094020       0.07255
  19     114.6        9.2978        1.5361        8.7388       10.2749       0.977031       0.05463
  18     136.5        9.2761        1.7860        8.3549       10.1409       0.864794       0.04316
  17     162.9        9.2471        2.0709        7.9311       10.0020       0.754921       0.03512
  16     196.4        9.1988        2.4237        7.4333        9.8570       0.658230       0.02434
  15     218.7        9.1640        2.6456        7.1295        9.7751       0.611080       0.01790
  14     243.0        9.1260        2.8775        6.8161        9.6936       0.567548       0.01510
  13     269.0        9.0845        3.1186        6.4943        9.6129       0.528465       0.01268
  12     297.5        9.0395        3.3678        6.1657        9.5335       0.494018       0.01022
  11     328.5        8.9925        3.6241        5.8295        9.4535       0.461044       0.00897
  10     361.9        8.9439        3.8850        5.4886        9.3736       0.429689       0.00793
   9     398.1        8.8940        4.1500        5.1440        9.2939       0.399982       0.00692
   8     437.6        8.8431        4.4175        4.7969        9.2144       0.371349       0.00612
   7     480.5        8.7916        4.6854        4.4504        9.1357       0.344177       0.00534
   6     533.0        8.7324        4.9907        4.0563        9.0469       0.314564       0.00476
   5     589.8        8.6739        5.2916        3.6682        8.9598       0.285900       0.00425
   4     651.6        8.6170        5.5843        3.2905        8.8748       0.257867       0.00383
   3     718.7        8.5621        5.8673        2.9252        8.7925       0.230419       0.00345
   2     792.3        8.5101        6.1372        2.5764        8.7137       0.203563       0.00308
   1     891.5        8.4498        6.4543        2.1659        8.6202       0.170419       0.00282
   0    1013.0        8.3912        6.7724        1.7526        8.5250       0.133843       0.00254



 Wavenumbers: 38000. - 50000. cm-1, ATM      1
 LEVEL PRESSURE   UPWARD FLUX   DIFDOWN FLUX  DIRDOWN FLUX  DOWNWARD FLUX   NET FLUX    HEATING RATE
          mb          W/m2          W/m2          W/m2        W/m2          W/m2       degree/day
  51    .06700        0.0061        0.0000        1.2836        1.2836       1.277518       0.00000
  50    .07753        0.0061        0.0001        1.2812        1.2812       1.275183       1.87150
  49    .09103        0.0060        0.0002        1.2777        1.2778       1.271851       2.08247
  48    0.1069        0.0059        0.0002        1.2731        1.2734       1.267473       2.33059
  47    0.1255        0.0058        0.0004        1.2672        1.2675       1.261717       2.60908
  46    0.1487        0.0057        0.0005        1.2586        1.2591       1.253391       3.03499
  45    0.1794        0.0055        0.0007        1.2455        1.2462       1.240623       3.50520
  44    0.2165        0.0054        0.0009        1.2282        1.2291       1.223697       3.85037
  43    0.2613        0.0052        0.0011        1.2054        1.2065       1.201348       4.21261
  42    0.3336        0.0049        0.0015        1.1639        1.1654       1.160524       4.75970
  41    0.4307        0.0045        0.0020        1.1051        1.1070       1.102565       5.03943
  40    0.5894        0.0039        0.0026        1.0039        1.0064       1.002524       5.32007
  39     1.339        0.0022        0.0035        0.5438        0.5473       0.545104       5.14971
  38     1.782        0.0016        0.0032        0.3635        0.3666       0.365006       3.42879
  37     2.292        0.0012        0.0027        0.2356        0.2383       0.237058       2.11916
  36     2.964        0.0009        0.0022        0.1455        0.1477       0.146786       1.13318
  35     3.853        0.0006        0.0017        0.0858        0.0875       0.086906       0.56828
  34     5.035        0.0004        0.0013        0.0488        0.0501       0.049701       0.26578
  33     6.613        0.0003        0.0010        0.0273        0.0282       0.027974       0.11615
  32     8.786        0.0002        0.0007        0.0144        0.0151       0.014928       0.05067
  31     11.80        0.0001        0.0004        0.0065        0.0070       0.006903       0.02247
  30     15.07        0.0000        0.0003        0.0031        0.0034       0.003329       0.00923
  29     18.79        0.0000        0.0002        0.0014        0.0016       0.001583       0.00396
  28     23.16        0.0000        0.0001        0.0006        0.0007       0.000720       0.00167
  27     28.12        0.0000        0.0001        0.0003        0.0003       0.000317       0.00069
  26     33.73        0.0000        0.0000        0.0001        0.0001       0.000140       0.00027
  25     40.54        0.0000        0.0000        0.0000        0.0001       0.000057       0.00010
  24     48.69        0.0000        0.0000        0.0000        0.0000       0.000021       0.00004
  23     57.69        0.0000        0.0000        0.0000        0.0000       0.000008       0.00001
  22     68.43        0.0000        0.0000        0.0000        0.0000       0.000003       0.00000
  21     81.20        0.0000        0.0000        0.0000        0.0000       0.000001       0.00000
  20     96.49        0.0000        0.0000        0.0000        0.0000       0.000000       0.00000
  19     114.6        0.0000        0.0000        0.0000        0.0000       0.000000       0.00000
  18     136.5        0.0000        0.0000        0.0000        0.0000       0.000000       0.00000
  17     162.9        0.0000        0.0000        0.0000        0.0000       0.000000       0.00000
  16     196.4        0.0000        0.0000        0.0000        0.0000       0.000000       0.00000
  15     218.7        0.0000        0.0000        0.0000        0.0000       0.000000       0.00000
  14     243.0        0.0000        0.0000        0.0000        0.0000       0.000000       0.00000
  13     269.0        0.0000        0.0000        0.0000        0.0000       0.000000       0.00000
  12     297.5        0.0000        0.0000        0.0000        0.0000       0.000000       0.00000
  11     328.5        0.0000        0.0000        0.0000        0.0000       0.000000       0.00000
  10     361.9        0.0000        0.0000        0.0000        0.0000       0.000000       0.00000
   9     398.1        0.0000        0.0000        0.0000        0.0000       0.000000       0.00000
   8     437.6        0.0000        0.0000        0.0000        0.0000       0.000000       0.00000
   7     480.5        0.0000        0.0000        0.0000        0.0000       0.000000       0.00000
   6     533.0        0.0000        0.0000        0.0000        0.0000       0.000000       0.00000
   5     589.8        0.0000        0.0000        0.0000        0.0000       0.000000       0.00000
   4     651.6        0.0000        0.0000        0.0000        0.0000       0.000000       0.00000
   3     718.7        0.0000        0.0000        0.0000        0.0000       0.000000       0.00000
   2     792.3        0.0000        0.0000        0.0000        0.0000       0.000000       0.00000
   1     891.5        0.0000        0.0000        0.0000        0.0000       0.000000       0.00000
   0    1013.0        0.0000        0.0000        0.0000        0.0000       0.000000       0.00000



 Wavenumbers:   820. -  2600. cm-1, ATM      1
 LEVEL PRESSURE   UPWARD FLUX   DIFDOWN FLUX  DIRDOWN FLUX  DOWNWARD FLUX   NET FLUX    HEATING RATE
          mb          W/m2          W/m2          W/m2        W/m2          W/m2       degree/day
  51    .06700        0.0121        0.0000        6.0047        6.0047       5.992504       0.00000
  50    .07753        0.0121        0.0000        6.0008        6.0008       5.988651       3.08819
  49    .09103        0.0121        0.0000        5.9999        5.9999       5.987766       0.55356
  48    0.1069        0.0121        0.0000        5.9989        5.9989       5.986777       0.52650
  47    0.1255        0.0121        0.0000        5.9978        5.9978       5.985659       0.50647
  46    0.1487        0.0121        0.0000        5.9964        5.9964       5.984303       0.49454
  45    0.1794        0.0121        0.0000        5.9947        5.9947       5.982583       0.47197
  44    0.2165        0.0121        0.0000        5.9929        5.9929       5.980741       0.41908
  43    0.2613        0.0121        0.0000        5.9909        5.9909       5.978782       0.36930
  42    0.3336        0.0121        0.0000        5.9880        5.9880       5.975904       0.33553
  41    0.4307        0.0121        0.0000        5.9846        5.9846       5.972435       0.30162
  40    0.5894        0.0121        0.0000        5.9791        5.9791       5.966930       0.29273
  39     1.339        0.0121        0.0000        5.9536        5.9536       5.941446       0.28691
  38     1.782        0.0121        0.0000        5.9395        5.9395       5.927309       0.26914
  37     2.292        0.0121        0.0000        5.9237        5.9237       5.911560       0.26085
  36     2.964        0.0121        0.0000        5.9039        5.9039       5.891788       0.24820
  35     3.853        0.0121        0.0000        5.8793        5.8793       5.867134       0.23396
  34     5.035        0.0121        0.0000        5.8487        5.8487       5.836575       0.21830
  33     6.613        0.0121        0.0000        5.8108        5.8108       5.798615       0.20293
  32     8.786        0.0121        0.0000        5.7631        5.7631       5.750998       0.18493
  31     11.80        0.0121        0.0000        5.7039        5.7039       5.691749       0.16588
  30     15.07        0.0121        0.0000        5.6539        5.6539       5.641719       0.12917
  29     18.79        0.0121        0.0000        5.6127        5.6127       5.600592       0.09325
  28     23.16        0.0121        0.0000        5.5794        5.5794       5.567225       0.06452
  27     28.12        0.0121        0.0000        5.5518        5.5518       5.539668       0.04685
  26     33.73        0.0121        0.0000        5.5268        5.5268       5.514624       0.03765
  25     40.54        0.0121        0.0000        5.4993        5.4993       5.487190       0.03404
  24     48.69        0.0121        0.0000        5.4678        5.4678       5.455657       0.03263
  23     57.69        0.0121        0.0000        5.4340        5.4340       5.421877       0.03166
  22     68.43        0.0121        0.0000        5.3947        5.3948       5.382612       0.03087
  21     81.20        0.0121        0.0000        5.3497        5.3497       5.337587       0.02975
  20     96.49        0.0121        0.0000        5.2982        5.2982       5.286084       0.02843
  19     114.6        0.0121        0.0000        5.2389        5.2389       5.226773       0.02769
  18     136.5        0.0121        0.0000        5.1716        5.1717       5.159529       0.02586
  17     162.9        0.0121        0.0000        5.0890        5.0890       5.076913       0.02641
  16     196.4        0.0121        0.0000        4.9668        4.9668       4.954702       0.03076
  15     218.7        0.0121        0.0000        4.8585        4.8585       4.846341       0.04114
  14     243.0        0.0121        0.0000        4.7078        4.7079       4.695726       0.05224
  13     269.0        0.0121        0.0000        4.5343        4.5343       4.522142       0.05631
  12     297.5        0.0121        0.0000        4.3419        4.3420       4.329819       0.05704
  11     328.5        0.0122        0.0000        4.1281        4.1281       4.115986       0.05814
  10     361.9        0.0122        0.0000        3.8786        3.8787       3.866506       0.06312
   9     398.1        0.0122        0.0000        3.6159        3.6159       3.603759       0.06121
   8     437.6        0.0122        0.0000        3.3759        3.3759       3.363674       0.05133
   7     480.5        0.0122        0.0000        3.1957        3.1958       3.183537       0.03538
   6     533.0        0.0123        0.0000        3.0467        3.0467       3.034406       0.02399
   5     589.8        0.0124        0.0000        2.9023        2.9023       2.889941       0.02144
   4     651.6        0.0125        0.0000        2.7183        2.7184       2.705839       0.02518
   3     718.7        0.0128        0.0000        2.5058        2.5059       2.493083       0.02674
   2     792.3        0.0132        0.0000        2.2756        2.2757       2.262426       0.02645
   1     891.5        0.0144        0.0000        1.9621        1.9621       1.947703       0.02678
   0    1013.0        0.0175        0.0000        1.5468        1.5469       1.529392       0.02905

  Modules and versions used in this calculation:

       rrtmg_sw.1col.f90:  $Revision$                    rrtmg_sw_init.f90:  $Revision$        
     rrtmgsw_cldprop.f90:  $Revision$                  rrtmgsw_cldprmc.f90:  NOT USED          
     rrtmg_sw_reftra.f90:  $Revision$                  rrtmg_sw_spcvrt.f90:  NOT USED          
     rrtmg_sw_spcvmc.f90:  NOT USED                    rrtmgsw_setcoef.f90:  NOT USED          
     rrtmg_sw_taumol.f90:  $Revision$                  rrtmg_sw_vrtqdr.f90:  NOT USED          
                rrtatm.f:  NOT USED                             util_xxx.f:  NOT USED          
                 extra.f:  NOT USED                       rrtmg_sw_k_g.f90:  $Revision$        

