

 Wavenumbers:   820. - 50000. cm-1, ATM      1
 LEVEL PRESSURE   UPWARD FLUX   DIFDOWN FLUX  DIRDOWN FLUX  DOWNWARD FLUX   NET FLUX    HEATING RATE
          mb          W/m2          W/m2          W/m2        W/m2          W/m2       degree/day
  51    .06700      437.5510        0.0000     1178.5299     1178.5299     740.978880       0.00000
  50    .07753      437.5510        0.0016     1178.5089     1178.5105     740.959530      15.50979
  49    .09103      437.5509        0.0036     1178.4900     1178.4936     740.942714      10.51034
  48    0.1069      437.5508        0.0059     1178.4687     1178.4746     740.923769      10.08435
  47    0.1255      437.5508        0.0085     1178.4432     1178.4517     740.900883      10.37551
  46    0.1487      437.5509        0.0118     1178.4086     1178.4204     740.869516      11.43361
  45    0.1794      437.5512        0.0163     1178.3578     1178.3741     740.822964      12.77961
  44    0.2165      437.5517        0.0217     1178.2925     1178.3142     740.762498      13.75509
  43    0.2613      437.5524        0.0280     1178.2080     1178.2360     740.683552      14.88098
  42    0.3336      437.5542        0.0384     1178.0552     1178.0937     740.539454      16.80036
  41    0.4307      437.5572        0.0522     1177.8366     1177.8887     740.331564      18.07552
  40    0.5894      437.5634        0.0744     1177.4455     1177.5199     739.956522      19.94431
  39     1.339      437.6193        0.1763     1175.1524     1175.3287     737.709393      25.29858
  38     1.782      437.6706        0.2339     1173.7149     1173.9489     736.278225      27.24714
  37     2.292      437.7471        0.2995     1172.1483     1172.4478     734.700718      26.12762
  36     2.964      437.8732        0.3848     1170.3627     1170.7475     732.874314      22.92689
  35     3.853      438.0760        0.4968     1168.4602     1168.9569     730.880941      18.91748
  34     5.035      438.3810        0.6448     1166.4934     1167.1382     728.757252      15.17075
  33     6.613      438.8074        0.8419     1164.4532     1165.2951     726.487760      12.13271
  32     8.786      439.3654        1.1068     1162.3234     1163.4302     724.064770       9.41002
  31     11.80      440.0984        1.4845     1159.9474     1161.4319     721.333487       7.64673
  30     15.07      440.8099        1.8892     1157.8674     1159.7565     718.946604       6.16247
  29     18.79      441.5462        2.3450     1155.8452     1158.1901     716.643907       5.22092
  28     23.16      442.3288        2.8761     1153.7776     1156.6537     714.324873       4.48426
  27     28.12      443.1326        3.4824     1151.6911     1155.1735     712.040903       3.88260
  26     33.73      443.8966        4.1604     1149.6526     1153.8130     709.916385       3.19427
  25     40.54      444.6602        4.9794     1147.4894     1152.4688     707.808645       2.61489
  24     48.69      445.4252        5.9656     1145.1555     1151.1211     705.695884       2.18638
  23     57.69      446.1129        7.0477     1142.8372     1149.8849     703.772007       1.80335
  22     68.43      446.7641        8.3351     1140.3233     1148.6585     701.894375       1.47607
  21     81.20      447.3021        9.8686     1137.6280     1147.4966     700.194483       1.12326
  20     96.49      447.7184       11.6938     1134.6836     1146.3774     698.659004       0.84747
  19     114.6      448.1077       13.8524     1131.3157     1145.1681     697.060409       0.74643
  18     136.5      448.4877       16.3947     1127.4102     1143.8049     695.317190       0.67031
  17     162.9      448.8650       19.4001     1122.7168     1142.1168     693.251824       0.66017
  16     196.4      449.1890       23.2757     1116.3929     1139.6686     690.479576       0.69781
  15     218.7      449.3373       25.7932     1111.9747     1137.7679     688.430578       0.77793
  14     243.0      449.4683       28.5102     1106.5758     1135.0860     685.617662       0.97561
  13     269.0      449.5793       31.4319     1099.2788     1130.7107     681.131409       1.45532
  12     297.5      449.6701       34.5632     1090.1816     1124.7448     675.074751       1.79634
  11     328.5      449.7563       37.9158     1079.6115     1117.5273     667.771040       1.98586
  10     361.9      449.8410       41.4899     1067.7434     1109.2333     659.392235       2.11992
   9     398.1      449.9294       45.2959     1054.4905     1099.7864     649.857009       2.22149
   8     437.6      450.0338       49.3365     1039.6221     1088.9587     638.924862       2.33736
   7     480.5      450.1739       53.6155     1022.9170     1076.5325     626.358598       2.46797
   6     533.0      450.4014       58.8099     1002.5852     1061.3951     610.993734       2.47172
   5     589.8      450.7304       64.3217      981.4193     1045.7410     595.010586       2.37242
   4     651.6      451.2161       70.1475      959.4661     1029.6136     578.397487       2.27189
   3     718.7      451.8916       76.2859      937.6818     1013.9677     562.076150       2.05114
   2     792.3      452.7998       82.7240      916.5383      999.2623     546.462493       1.79071
   1     891.5      454.4646       91.1933      890.0508      981.2441     526.779496       1.67493
   0    1013.0      457.7102      101.0375      859.0942      960.1317     502.421470       1.69130



 Wavenumbers:  2600. -  3250. cm-1, ATM      1
 LEVEL PRESSURE   UPWARD FLUX   DIFDOWN FLUX  DIRDOWN FLUX  DOWNWARD FLUX   NET FLUX    HEATING RATE
          mb          W/m2          W/m2          W/m2        W/m2          W/m2       degree/day
  51    .06700        0.1332        0.0000       10.3869       10.3869      10.253656       0.00000
  50    .07753        0.1332        0.0000       10.3869       10.3869      10.253648       0.00640
  49    .09103        0.1332        0.0000       10.3868       10.3868      10.253638       0.00627
  48    0.1069        0.1332        0.0000       10.3868       10.3868      10.253627       0.00613
  47    0.1255        0.1332        0.0000       10.3868       10.3868      10.253614       0.00600
  46    0.1487        0.1332        0.0000       10.3868       10.3868      10.253597       0.00608
  45    0.1794        0.1332        0.0000       10.3868       10.3868      10.253574       0.00625
  44    0.2165        0.1332        0.0000       10.3868       10.3868      10.253547       0.00613
  43    0.2613        0.1332        0.0000       10.3867       10.3867      10.253515       0.00601
  42    0.3336        0.1332        0.0000       10.3867       10.3867      10.253462       0.00618
  41    0.4307        0.1332        0.0000       10.3866       10.3866      10.253391       0.00622
  40    0.5894        0.1332        0.0000       10.3865       10.3865      10.253270       0.00640
  39     1.339        0.1332        0.0000       10.3858       10.3858      10.252555       0.00805
  38     1.782        0.1332        0.0000       10.3852       10.3852      10.252002       0.01054
  37     2.292        0.1332        0.0000       10.3845       10.3845      10.251265       0.01221
  36     2.964        0.1332        0.0000       10.3834       10.3834      10.250182       0.01359
  35     3.853        0.1332        0.0000       10.3818       10.3818      10.248611       0.01490
  34     5.035        0.1332        0.0000       10.3796       10.3796      10.246368       0.01603
  33     6.613        0.1332        0.0000       10.3764       10.3764      10.243210       0.01688
  32     8.786        0.1332        0.0000       10.3720       10.3720      10.238842       0.01696
  31     11.80        0.1332        0.0000       10.3658       10.3658      10.232626       0.01740
  30     15.07        0.1332        0.0000       10.3594       10.3594      10.226192       0.01661
  29     18.79        0.1332        0.0000       10.3526       10.3526      10.219413       0.01537
  28     23.16        0.1332        0.0000       10.3453       10.3454      10.212153       0.01404
  27     28.12        0.1332        0.0000       10.3378       10.3378      10.204604       0.01283
  26     33.73        0.1332        0.0000       10.3297       10.3297      10.196526       0.01214
  25     40.54        0.1332        0.0000       10.3200       10.3200      10.186832       0.01203
  24     48.69        0.1332        0.0000       10.3082       10.3082      10.174996       0.01225
  23     57.69        0.1332        0.0000       10.2946       10.2946      10.161412       0.01273
  22     68.43        0.1332        0.0000       10.2773       10.2774      10.144171       0.01355
  21     81.20        0.1332        0.0000       10.2553       10.2553      10.122098       0.01459
  20     96.49        0.1332        0.0000       10.2272       10.2272      10.094040       0.01549
  19     114.6        0.1332        0.0000       10.1909       10.1910      10.057764       0.01694
  18     136.5        0.1332        0.0001       10.1464       10.1464      10.013199       0.01714
  17     162.9        0.1332        0.0001       10.0915       10.0916       9.958383       0.01752
  16     196.4        0.1332        0.0001       10.0183       10.0183       9.885101       0.01845
  15     218.7        0.1333        0.0001        9.9673        9.9673       9.834077       0.01937
  14     243.0        0.1333        0.0001        9.9055        9.9056       9.772260       0.02144
  13     269.0        0.1334        0.0001        9.8232        9.8233       9.689887       0.02672
  12     297.5        0.1335        0.0001        9.7204        9.7205       9.586992       0.03052
  11     328.5        0.1337        0.0001        9.5957        9.5959       9.462128       0.03395
  10     361.9        0.1340        0.0001        9.4473        9.4475       9.313439       0.03762
   9     398.1        0.1345        0.0001        9.2669        9.2670       9.132538       0.04215
   8     437.6        0.1351        0.0001        9.0383        9.0385       8.903365       0.04900
   7     480.5        0.1361        0.0001        8.7337        8.7339       8.597836       0.06000
   6     533.0        0.1377        0.0002        8.3094        8.3095       8.171883       0.06852
   5     589.8        0.1400        0.0002        7.8377        7.8378       7.697832       0.07036
   4     651.6        0.1435        0.0002        7.3446        7.3448       7.201306       0.06790
   3     718.7        0.1484        0.0002        6.8696        6.8697       6.721388       0.06031
   2     792.3        0.1551        0.0002        6.4239        6.4241       6.268985       0.05189
   1     891.5        0.1677        0.0002        5.8764        5.8766       5.708875       0.04766
   0    1013.0        0.1954        0.0002        5.2387        5.2389       5.043466       0.04620



 Wavenumbers:  3250. -  4000. cm-1, ATM      1
 LEVEL PRESSURE   UPWARD FLUX   DIFDOWN FLUX  DIRDOWN FLUX  DOWNWARD FLUX   NET FLUX    HEATING RATE
          mb          W/m2          W/m2          W/m2        W/m2          W/m2       degree/day
  51    .06700        0.0005        0.0000       17.5107       17.5107      17.510251       0.00000
  50    .07753        0.0005        0.0000       17.5052       17.5052      17.504724       4.42966
  49    .09103        0.0005        0.0000       17.5003       17.5003      17.499836       3.05556
  48    0.1069        0.0005        0.0000       17.4963       17.4963      17.495840       2.12669
  47    0.1255        0.0005        0.0000       17.4929       17.4929      17.492378       1.56962
  46    0.1487        0.0005        0.0000       17.4893       17.4893      17.488865       1.28050
  45    0.1794        0.0005        0.0000       17.4853       17.4853      17.484828       1.10826
  44    0.2165        0.0005        0.0000       17.4811       17.4811      17.480646       0.95138
  43    0.2613        0.0005        0.0000       17.4767       17.4767      17.476224       0.83361
  42    0.3336        0.0005        0.0000       17.4703       17.4703      17.469866       0.74122
  41    0.4307        0.0005        0.0000       17.4633       17.4633      17.462783       0.61586
  40    0.5894        0.0005        0.0000       17.4537       17.4537      17.453179       0.51071
  39     1.339        0.0005        0.0000       17.4189       17.4189      17.418440       0.39110
  38     1.782        0.0005        0.0000       17.4024       17.4024      17.401890       0.31508
  37     2.292        0.0005        0.0000       17.3857       17.3857      17.385252       0.27557
  36     2.964        0.0005        0.0000       17.3667       17.3667      17.366179       0.23942
  35     3.853        0.0005        0.0000       17.3444       17.3444      17.343961       0.21086
  34     5.035        0.0005        0.0000       17.3179       17.3179      17.317404       0.18971
  33     6.613        0.0005        0.0000       17.2848       17.2848      17.284338       0.17677
  32     8.786        0.0005        0.0000       17.2410       17.2410      17.240517       0.17019
  31     11.80        0.0005        0.0000       17.1768       17.1768      17.176323       0.17972
  30     15.07        0.0005        0.0000       17.1048       17.1048      17.104376       0.18575
  29     18.79        0.0005        0.0000       17.0202       17.0202      17.019790       0.19178
  28     23.16        0.0005        0.0000       16.9188       16.9188      16.918343       0.19617
  27     28.12        0.0004        0.0000       16.8013       16.8014      16.800927       0.19960
  26     33.73        0.0004        0.0000       16.6717       16.6717      16.671281       0.19493
  25     40.54        0.0004        0.0001       16.5212       16.5213      16.520852       0.18662
  24     48.69        0.0004        0.0001       16.3534       16.3535      16.353053       0.17365
  23     57.69        0.0004        0.0001       16.1868       16.1868      16.186427       0.15619
  22     68.43        0.0004        0.0001       16.0086       16.0087      16.008263       0.14006
  21     81.20        0.0004        0.0001       15.8139       15.8140      15.813646       0.12860
  20     96.49        0.0004        0.0001       15.5943       15.5944      15.594027       0.12121
  19     114.6        0.0003        0.0001       15.3272       15.3273      15.326961       0.12470
  18     136.5        0.0003        0.0002       15.0076       15.0078      15.007442       0.12286
  17     162.9        0.0003        0.0002       14.5885       14.5887      14.588369       0.13395
  16     196.4        0.0002        0.0002       13.9150       13.9152      13.914929       0.16951
  15     218.7        0.0002        0.0002       13.4030       13.4033      13.403031       0.19435
  14     243.0        0.0002        0.0002       12.7221       12.7224      12.722169       0.23615
  13     269.0        0.0002        0.0002       11.7516       11.7518      11.751629       0.31484
  12     297.5        0.0002        0.0002       10.6153       10.6155      10.615341       0.33701
  11     328.5        0.0001        0.0002        9.4075        9.4077       9.407564       0.32839
  10     361.9        0.0001        0.0002        8.1663        8.1665       8.166419       0.31402
   9     398.1        0.0001        0.0002        7.0099        7.0101       7.010023       0.26941
   8     437.6        0.0001        0.0002        5.9522        5.9524       5.952270       0.22615
   7     480.5        0.0001        0.0002        4.9597        4.9598       4.959766       0.19492
   6     533.0        0.0001        0.0001        3.9527        3.9529       3.952814       0.16199
   5     589.8        0.0001        0.0001        3.0771        3.0772       3.077126       0.12998
   4     651.6        0.0001        0.0001        2.2909        2.2910       2.290970       0.10751
   3     718.7        0.0001        0.0001        1.6367        1.6368       1.636686       0.08223
   2     792.3        0.0001        0.0000        1.1387        1.1387       1.138573       0.05713
   1     891.5        0.0003        0.0000        0.6711        0.6711       0.670799       0.03981
   0    1013.0        0.0012        0.0000        0.2896        0.2896       0.288418       0.02655



 Wavenumbers:  4000. -  4650. cm-1, ATM      1
 LEVEL PRESSURE   UPWARD FLUX   DIFDOWN FLUX  DIRDOWN FLUX  DOWNWARD FLUX   NET FLUX    HEATING RATE
          mb          W/m2          W/m2          W/m2        W/m2          W/m2       degree/day
  51    .06700        0.1839        0.0000       20.5629       20.5629      20.378979       0.00000
  50    .07753        0.1839        0.0000       20.5629       20.5629      20.378978       0.00079
  49    .09103        0.1839        0.0000       20.5629       20.5629      20.378977       0.00078
  48    0.1069        0.1839        0.0000       20.5629       20.5629      20.378975       0.00076
  47    0.1255        0.1839        0.0000       20.5629       20.5629      20.378974       0.00074
  46    0.1487        0.1839        0.0000       20.5629       20.5629      20.378971       0.00075
  45    0.1794        0.1839        0.0000       20.5629       20.5629      20.378969       0.00077
  44    0.2165        0.1839        0.0000       20.5629       20.5629      20.378965       0.00076
  43    0.2613        0.1839        0.0000       20.5629       20.5629      20.378961       0.00074
  42    0.3336        0.1839        0.0000       20.5629       20.5629      20.378955       0.00076
  41    0.4307        0.1839        0.0000       20.5629       20.5629      20.378946       0.00077
  40    0.5894        0.1839        0.0000       20.5628       20.5628      20.378931       0.00079
  39     1.339        0.1839        0.0000       20.5627       20.5627      20.378842       0.00100
  38     1.782        0.1839        0.0000       20.5627       20.5627      20.378773       0.00132
  37     2.292        0.1839        0.0000       20.5626       20.5626      20.378679       0.00155
  36     2.964        0.1839        0.0000       20.5624       20.5624      20.378540       0.00175
  35     3.853        0.1839        0.0000       20.5622       20.5622      20.378333       0.00196
  34     5.035        0.1839        0.0000       20.5619       20.5619      20.378027       0.00218
  33     6.613        0.1839        0.0000       20.5614       20.5615      20.377577       0.00241
  32     8.786        0.1839        0.0000       20.5608       20.5608      20.376912       0.00258
  31     11.80        0.1839        0.0000       20.5597       20.5597      20.375866       0.00293
  30     15.07        0.1839        0.0001       20.5584       20.5585      20.374637       0.00317
  29     18.79        0.1838        0.0001       20.5569       20.5570      20.373148       0.00338
  28     23.16        0.1838        0.0001       20.5550       20.5551      20.371294       0.00358
  27     28.12        0.1838        0.0001       20.5528       20.5529      20.369044       0.00383
  26     33.73        0.1838        0.0001       20.5499       20.5501      20.366261       0.00418
  25     40.54        0.1838        0.0001       20.5461       20.5462      20.362471       0.00470
  24     48.69        0.1837        0.0002       20.5410       20.5411      20.357399       0.00525
  23     57.69        0.1837        0.0002       20.5349       20.5351      20.351356       0.00566
  22     68.43        0.1837        0.0002       20.5272       20.5274      20.343750       0.00598
  21     81.20        0.1836        0.0003       20.5177       20.5180      20.334330       0.00622
  20     96.49        0.1836        0.0003       20.5061       20.5064      20.322815       0.00636
  19     114.6        0.1835        0.0004       20.4914       20.4918      20.308218       0.00682
  18     136.5        0.1835        0.0005       20.4734       20.4739      20.290423       0.00684
  17     162.9        0.1834        0.0006       20.4509       20.4515      20.268073       0.00714
  16     196.4        0.1834        0.0007       20.4188       20.4195      20.236123       0.00804
  15     218.7        0.1833        0.0008       20.3943       20.3951      20.211770       0.00925
  14     243.0        0.1833        0.0009       20.3615       20.3624      20.179102       0.01133
  13     269.0        0.1833        0.0009       20.3117       20.3126      20.129359       0.01614
  12     297.5        0.1833        0.0010       20.2427       20.2438      20.060460       0.02043
  11     328.5        0.1834        0.0011       20.1499       20.1511      19.967690       0.02522
  10     361.9        0.1835        0.0012       20.0217       20.0229      19.839405       0.03246
   9     398.1        0.1837        0.0013       19.8442       19.8456      19.661921       0.04135
   8     437.6        0.1839        0.0015       19.6068       19.6083      19.424355       0.05079
   7     480.5        0.1843        0.0016       19.3034       19.3050      19.120619       0.05965
   6     533.0        0.1851        0.0017       18.9161       18.9178      18.732768       0.06239
   5     589.8        0.1862        0.0018       18.5086       18.5105      18.324305       0.06063
   4     651.6        0.1879        0.0020       18.0462       18.0482      17.860299       0.06345
   3     718.7        0.1903        0.0021       17.5163       17.5184      17.328072       0.06689
   2     792.3        0.1936        0.0022       16.9462       16.9484      16.754759       0.06575
   1     891.5        0.1997        0.0024       16.1994       16.2018      16.002066       0.06405
   0    1013.0        0.2132        0.0025       15.3260       15.3286      15.115405       0.06157



 Wavenumbers:  4650. -  5150. cm-1, ATM      1
 LEVEL PRESSURE   UPWARD FLUX   DIFDOWN FLUX  DIRDOWN FLUX  DOWNWARD FLUX   NET FLUX    HEATING RATE
          mb          W/m2          W/m2          W/m2        W/m2          W/m2       degree/day
  51    .06700        0.1445        0.0000       19.4637       19.4637      19.319228       0.00000
  50    .07753        0.1445        0.0000       19.4635       19.4635      19.318992       0.18932
  49    .09103        0.1445        0.0000       19.4632       19.4632      19.318696       0.18504
  48    0.1069        0.1445        0.0000       19.4629       19.4629      19.318357       0.18057
  47    0.1255        0.1445        0.0000       19.4625       19.4625      19.317968       0.17606
  46    0.1487        0.1445        0.0000       19.4620       19.4620      19.317480       0.17787
  45    0.1794        0.1445        0.0000       19.4613       19.4613      19.316817       0.18200
  44    0.2165        0.1445        0.0000       19.4606       19.4606      19.316038       0.17729
  43    0.2613        0.1445        0.0000       19.4596       19.4596      19.315123       0.17254
  42    0.3336        0.1445        0.0000       19.4581       19.4581      19.313626       0.17450
  41    0.4307        0.1445        0.0000       19.4562       19.4562      19.311674       0.16974
  40    0.5894        0.1445        0.0000       19.4531       19.4531      19.308563       0.16542
  39     1.339        0.1445        0.0000       19.4395       19.4395      19.295040       0.15225
  38     1.782        0.1445        0.0000       19.4324       19.4324      19.287939       0.13520
  37     2.292        0.1445        0.0000       19.4249       19.4249      19.280429       0.12438
  36     2.964        0.1445        0.0000       19.4161       19.4161      19.271580       0.11108
  35     3.853        0.1445        0.0000       19.4059       19.4059      19.261386       0.09674
  34     5.035        0.1445        0.0000       19.3945       19.3945      19.250013       0.08124
  33     6.613        0.1445        0.0000       19.3821       19.3822      19.237704       0.06580
  32     8.786        0.1445        0.0000       19.3691       19.3691      19.224654       0.05069
  31     11.80        0.1445        0.0001       19.3544       19.3545      19.210013       0.04099
  30     15.07        0.1444        0.0001       19.3411       19.3412      19.196718       0.03432
  29     18.79        0.1444        0.0001       19.3269       19.3270      19.182545       0.03213
  28     23.16        0.1444        0.0001       19.3100       19.3101      19.165687       0.03260
  27     28.12        0.1444        0.0002       19.2894       19.2895      19.145164       0.03489
  26     33.73        0.1444        0.0002       19.2645       19.2647      19.120327       0.03734
  25     40.54        0.1443        0.0002       19.2318       19.2320      19.087718       0.04046
  24     48.69        0.1443        0.0003       19.1892       19.1895      19.045189       0.04401
  23     57.69        0.1442        0.0003       19.1391       19.1394      18.995182       0.04687
  22     68.43        0.1442        0.0004       19.0761       19.0765      18.932252       0.04947
  21     81.20        0.1442        0.0004       18.9980       18.9984      18.854259       0.05154
  20     96.49        0.1441        0.0005       18.9030       18.9035      18.759391       0.05236
  19     114.6        0.1440        0.0006       18.7903       18.7909      18.646889       0.05253
  18     136.5        0.1440        0.0007       18.6601       18.6609      18.516873       0.04999
  17     162.9        0.1439        0.0008       18.5126       18.5135      18.369540       0.04709
  16     196.4        0.1438        0.0010       18.3353       18.3363      18.192438       0.04458
  15     218.7        0.1438        0.0011       18.2261       18.2272      18.083379       0.04141
  14     243.0        0.1438        0.0012       18.1110       18.1123      17.968455       0.03986
  13     269.0        0.1438        0.0014       17.9846       17.9859      17.842134       0.04098
  12     297.5        0.1439        0.0015       17.8418       17.8432      17.699385       0.04234
  11     328.5        0.1440        0.0016       17.6775       17.6791      17.535132       0.04466
  10     361.9        0.1442        0.0018       17.4852       17.4870      17.342829       0.04865
   9     398.1        0.1445        0.0019       17.2575       17.2594      17.114889       0.05310
   8     437.6        0.1449        0.0020       16.9828       16.9849      16.839935       0.05879
   7     480.5        0.1456        0.0022       16.6451       16.6473      16.501751       0.06642
   6     533.0        0.1467        0.0023       16.1764       16.1787      16.032028       0.07556
   5     589.8        0.1483        0.0025       15.6239       15.6264      15.478051       0.08223
   4     651.6        0.1507        0.0026       14.9920       14.9946      14.843952       0.08671
   3     718.7        0.1540        0.0027       14.3291       14.3318      14.177841       0.08371
   2     792.3        0.1585        0.0028       13.6786       13.6814      13.522893       0.07512
   1     891.5        0.1668        0.0030       12.8905       12.8935      12.726681       0.06775
   0    1013.0        0.1829        0.0032       12.0193       12.0225      11.839586       0.06160



 Wavenumbers:  5150. -  6150. cm-1, ATM      1
 LEVEL PRESSURE   UPWARD FLUX   DIFDOWN FLUX  DIRDOWN FLUX  DOWNWARD FLUX   NET FLUX    HEATING RATE
          mb          W/m2          W/m2          W/m2        W/m2          W/m2       degree/day
  51    .06700        0.3990        0.0000       48.7957       48.7957      48.396714       0.00000
  50    .07753        0.3990        0.0000       48.7956       48.7956      48.396680       0.02761
  49    .09103        0.3990        0.0000       48.7956       48.7956      48.396635       0.02811
  48    0.1069        0.3990        0.0000       48.7955       48.7955      48.396581       0.02860
  47    0.1255        0.3990        0.0000       48.7955       48.7955      48.396517       0.02906
  46    0.1487        0.3990        0.0000       48.7954       48.7954      48.396433       0.03062
  45    0.1794        0.3990        0.0000       48.7953       48.7953      48.396314       0.03273
  44    0.2165        0.3990        0.0000       48.7951       48.7951      48.396167       0.03337
  43    0.2613        0.3990        0.0000       48.7949       48.7949      48.395987       0.03384
  42    0.3336        0.3990        0.0000       48.7946       48.7946      48.395681       0.03576
  41    0.4307        0.3990        0.0000       48.7942       48.7942      48.395260       0.03662
  40    0.5894        0.3990        0.0000       48.7935       48.7935      48.394554       0.03754
  39     1.339        0.3989        0.0000       48.7900       48.7900      48.391095       0.03894
  38     1.782        0.3989        0.0000       48.7879       48.7880      48.389044       0.03903
  37     2.292        0.3989        0.0001       48.7855       48.7856      48.386676       0.03924
  36     2.964        0.3989        0.0001       48.7824       48.7825      48.383574       0.03894
  35     3.853        0.3989        0.0001       48.7783       48.7784      48.379494       0.03871
  34     5.035        0.3988        0.0001       48.7728       48.7730      48.374109       0.03847
  33     6.613        0.3988        0.0002       48.7656       48.7658      48.366982       0.03810
  32     8.786        0.3988        0.0002       48.7561       48.7563      48.357523       0.03674
  31     11.80        0.3987        0.0003       48.7427       48.7430      48.344291       0.03705
  30     15.07        0.3986        0.0004       48.7287       48.7291      48.330482       0.03565
  29     18.79        0.3985        0.0005       48.7134       48.7139      48.315366       0.03427
  28     23.16        0.3984        0.0006       48.6962       48.6968      48.298333       0.03294
  27     28.12        0.3983        0.0007       48.6772       48.6779      48.279608       0.03183
  26     33.73        0.3982        0.0008       48.6569       48.6577      48.259560       0.03014
  25     40.54        0.3980        0.0010       48.6337       48.6347      48.236673       0.02839
  24     48.69        0.3978        0.0012       48.6074       48.6086      48.210799       0.02678
  23     57.69        0.3976        0.0014       48.5807       48.5821      48.184505       0.02465
  22     68.43        0.3974        0.0017       48.5518       48.5535      48.156079       0.02235
  21     81.20        0.3971        0.0020       48.5197       48.5218      48.124636       0.02078
  20     96.49        0.3968        0.0024       48.4835       48.4859      48.089142       0.01959
  19     114.6        0.3964        0.0028       48.4415       48.4443      48.047965       0.01923
  18     136.5        0.3959        0.0034       48.3855       48.3889      47.993006       0.02113
  17     162.9        0.3953        0.0040       48.2871       48.2911      47.895732       0.03109
  16     196.4        0.3946        0.0048       48.0799       48.0847      47.690113       0.05176
  15     218.7        0.3942        0.0053       47.8641       47.8695      47.475302       0.08156
  14     243.0        0.3937        0.0059       47.4658       47.4717      47.078041       0.13778
  13     269.0        0.3932        0.0063       46.6226       46.6289      46.235783       0.27322
  12     297.5        0.3926        0.0068       45.4195       45.4263      45.033626       0.35655
  11     328.5        0.3922        0.0072       44.0479       44.0551      43.662956       0.37268
  10     361.9        0.3917        0.0076       42.4723       42.4800      42.088250       0.39842
   9     398.1        0.3913        0.0080       40.6232       40.6312      40.239860       0.43063
   8     437.6        0.3910        0.0082       38.5776       38.5859      38.194865       0.43723
   7     480.5        0.3909        0.0085       36.3768       36.3853      35.994380       0.43217
   6     533.0        0.3910        0.0088       33.9554       33.9641      33.573097       0.38951
   5     589.8        0.3917        0.0092       31.8440       31.8531      31.461407       0.31344
   4     651.6        0.3933        0.0096       30.0913       30.1010      29.707677       0.23983
   3     718.7        0.3960        0.0102       28.7501       28.7603      28.364340       0.16882
   2     792.3        0.4002        0.0109       27.7293       27.7401      27.339900       0.11749
   1     891.5        0.4095        0.0117       26.6457       26.6574      26.247945       0.09292
   0    1013.0        0.4327        0.0126       25.4071       25.4197      24.987005       0.08755



 Wavenumbers:  6150. -  7700. cm-1, ATM      1
 LEVEL PRESSURE   UPWARD FLUX   DIFDOWN FLUX  DIRDOWN FLUX  DOWNWARD FLUX   NET FLUX    HEATING RATE
          mb          W/m2          W/m2          W/m2        W/m2          W/m2       degree/day
  51    .06700        0.7057        0.0000       90.2495       90.2495      89.543737       0.00000
  50    .07753        0.7057        0.0000       90.2494       90.2494      89.543685       0.04144
  49    .09103        0.7057        0.0000       90.2494       90.2494      89.543619       0.04174
  48    0.1069        0.7057        0.0000       90.2493       90.2493      89.543540       0.04203
  47    0.1255        0.7057        0.0000       90.2492       90.2492      89.543446       0.04229
  46    0.1487        0.7057        0.0000       90.2491       90.2491      89.543325       0.04414
  45    0.1794        0.7057        0.0000       90.2489       90.2489      89.543155       0.04673
  44    0.2165        0.7057        0.0000       90.2487       90.2487      89.542948       0.04721
  43    0.2613        0.7057        0.0000       90.2484       90.2484      89.542695       0.04752
  42    0.3336        0.7057        0.0000       90.2480       90.2480      89.542268       0.04986
  41    0.4307        0.7057        0.0000       90.2474       90.2474      89.541685       0.05068
  40    0.5894        0.7057        0.0001       90.2463       90.2464      89.540713       0.05169
  39     1.339        0.7056        0.0001       90.2415       90.2416      89.535985       0.05323
  38     1.782        0.7056        0.0002       90.2386       90.2388      89.533192       0.05318
  37     2.292        0.7055        0.0002       90.2352       90.2355      89.529966       0.05342
  36     2.964        0.7054        0.0003       90.2309       90.2312      89.525745       0.05299
  35     3.853        0.7054        0.0004       90.2251       90.2255      89.520192       0.05270
  34     5.035        0.7052        0.0005       90.2176       90.2181      89.512854       0.05241
  33     6.613        0.7051        0.0007       90.2075       90.2082      89.503123       0.05202
  32     8.786        0.7048        0.0009       90.1941       90.1950      89.490158       0.05035
  31     11.80        0.7045        0.0012       90.1752       90.1764      89.471905       0.05110
  30     15.07        0.7042        0.0016       90.1553       90.1569      89.452695       0.04960
  29     18.79        0.7038        0.0020       90.1333       90.1353      89.431459       0.04815
  28     23.16        0.7034        0.0024       90.1082       90.1106      89.407250       0.04681
  27     28.12        0.7029        0.0030       90.0802       90.0831      89.380282       0.04584
  26     33.73        0.7023        0.0036       90.0497       90.0533      89.351011       0.04401
  25     40.54        0.7016        0.0043       90.0144       90.0186      89.317052       0.04213
  24     48.69        0.7008        0.0051       89.9735       89.9787      89.277921       0.04049
  23     57.69        0.6998        0.0061       89.9311       89.9371      89.237300       0.03808
  22     68.43        0.6987        0.0072       89.8838       89.8910      89.192224       0.03544
  21     81.20        0.6974        0.0085       89.8302       89.8387      89.141327       0.03363
  20     96.49        0.6959        0.0101       89.7685       89.7787      89.082813       0.03230
  19     114.6        0.6940        0.0120       89.6958       89.7078      89.013816       0.03222
  18     136.5        0.6918        0.0143       89.5999       89.6142      88.922460       0.03513
  17     162.9        0.6891        0.0170       89.4366       89.4536      88.764467       0.05050
  16     196.4        0.6858        0.0204       89.0898       89.1102      88.424478       0.08558
  15     218.7        0.6835        0.0226       88.7361       88.7587      88.075166       0.13262
  14     243.0        0.6812        0.0249       88.1547       88.1796      87.498421       0.20003
  13     269.0        0.6787        0.0271       87.0176       87.0447      86.365992       0.36735
  12     297.5        0.6762        0.0291       85.1839       85.2130      84.536847       0.54250
  11     328.5        0.6736        0.0311       82.7504       82.7815      82.107894       0.66043
  10     361.9        0.6711        0.0329       79.9987       80.0315      79.360452       0.69513
   9     398.1        0.6687        0.0345       76.9069       76.9413      76.272598       0.71940
   8     437.6        0.6666        0.0358       73.3051       73.3409      72.674309       0.76934
   7     480.5        0.6650        0.0367       69.1994       69.2361      68.571119       0.80585
   6     533.0        0.6642        0.0377       64.4399       64.4776      63.813415       0.76536
   5     589.8        0.6649        0.0386       59.8803       59.9189      59.254026       0.67676
   4     651.6        0.6681        0.0395       55.6198       55.6593      54.991186       0.58295
   3     718.7        0.6747        0.0406       51.8853       51.9259      51.251252       0.47001
   2     792.3        0.6854        0.0419       48.7123       48.7543      48.068832       0.36499
   1     891.5        0.7093        0.0438       45.2359       45.2797      44.570324       0.29771
   0    1013.0        0.7730        0.0457       41.6263       41.6720      40.899015       0.25492



 Wavenumbers:  7700. -  8050. cm-1, ATM      1
 LEVEL PRESSURE   UPWARD FLUX   DIFDOWN FLUX  DIRDOWN FLUX  DOWNWARD FLUX   NET FLUX    HEATING RATE
          mb          W/m2          W/m2          W/m2        W/m2          W/m2       degree/day
  51    .06700        0.4419        0.0000       21.3286       21.3286      20.886743       0.00000
  50    .07753        0.4419        0.0000       21.3286       21.3286      20.886725       0.01447
  49    .09103        0.4419        0.0000       21.3286       21.3286      20.886702       0.01418
  48    0.1069        0.4419        0.0000       21.3286       21.3286      20.886676       0.01388
  47    0.1255        0.4419        0.0000       21.3285       21.3285      20.886646       0.01358
  46    0.1487        0.4419        0.0000       21.3285       21.3285      20.886608       0.01378
  45    0.1794        0.4419        0.0000       21.3284       21.3284      20.886557       0.01418
  44    0.2165        0.4419        0.0000       21.3284       21.3284      20.886496       0.01391
  43    0.2613        0.4419        0.0000       21.3283       21.3283      20.886423       0.01365
  42    0.3336        0.4419        0.0000       21.3282       21.3282      20.886303       0.01397
  41    0.4307        0.4419        0.0000       21.3280       21.3280      20.886144       0.01382
  40    0.5894        0.4419        0.0000       21.3278       21.3278      20.885885       0.01380
  39     1.339        0.4419        0.0001       21.3265       21.3265      20.884657       0.01382
  38     1.782        0.4419        0.0001       21.3257       21.3258      20.883936       0.01373
  37     2.292        0.4419        0.0001       21.3249       21.3250      20.883101       0.01383
  36     2.964        0.4419        0.0001       21.3237       21.3239      20.882004       0.01377
  35     3.853        0.4419        0.0002       21.3223       21.3224      20.880556       0.01375
  34     5.035        0.4418        0.0002       21.3203       21.3205      20.878631       0.01375
  33     6.613        0.4418        0.0003       21.3176       21.3179      20.876059       0.01375
  32     8.786        0.4418        0.0004       21.3140       21.3144      20.872594       0.01346
  31     11.80        0.4418        0.0005       21.3089       21.3094      20.867637       0.01388
  30     15.07        0.4417        0.0006       21.3034       21.3041      20.862316       0.01374
  29     18.79        0.4417        0.0008       21.2972       21.2980      20.856308       0.01362
  28     23.16        0.4417        0.0010       21.2900       21.2910      20.849294       0.01356
  27     28.12        0.4416        0.0012       21.2817       21.2829      20.841278       0.01363
  26     33.73        0.4416        0.0014       21.2725       21.2739      20.832317       0.01347
  25     40.54        0.4415        0.0017       21.2613       21.2630      20.821504       0.01341
  24     48.69        0.4414        0.0020       21.2479       21.2499      20.808490       0.01347
  23     57.69        0.4413        0.0024       21.2332       21.2356      20.794223       0.01337
  22     68.43        0.4412        0.0028       21.2157       21.2185      20.777272       0.01333
  21     81.20        0.4411        0.0034       21.1949       21.1983      20.757140       0.01330
  20     96.49        0.4410        0.0040       21.1702       21.1742      20.733239       0.01319
  19     114.6        0.4408        0.0047       21.1411       21.1458      20.704990       0.01319
  18     136.5        0.4406        0.0056       21.1067       21.1123      20.671687       0.01281
  17     162.9        0.4404        0.0066       21.0661       21.0727      20.632280       0.01260
  16     196.4        0.4402        0.0080       21.0137       21.0217      20.581563       0.01277
  15     218.7        0.4400        0.0089       20.9796       20.9885      20.548472       0.01256
  14     243.0        0.4398        0.0098       20.9426       20.9525      20.512655       0.01242
  13     269.0        0.4396        0.0109       20.9027       20.9136      20.473918       0.01257
  12     297.5        0.4395        0.0120       20.8595       20.8715      20.432047       0.01242
  11     328.5        0.4393        0.0132       20.8127       20.8259      20.386625       0.01235
  10     361.9        0.4392        0.0145       20.7620       20.7765      20.337309       0.01248
   9     398.1        0.4391        0.0159       20.7067       20.7226      20.283544       0.01253
   8     437.6        0.4390        0.0174       20.6462       20.6636      20.224609       0.01260
   7     480.5        0.4391        0.0190       20.5792       20.5982      20.159169       0.01285
   6     533.0        0.4393        0.0210       20.4933       20.5143      20.075024       0.01354
   5     589.8        0.4397        0.0231       20.3959       20.4190      19.979295       0.01421
   4     651.6        0.4405        0.0253       20.2847       20.3100      19.869539       0.01501
   3     718.7        0.4417        0.0277       20.1592       20.1869      19.745243       0.01562
   2     792.3        0.4433        0.0303       20.0203       20.0505      19.607239       0.01583
   1     891.5        0.4461        0.0336       19.8254       19.8590      19.412892       0.01654
   0    1013.0        0.4509        0.0376       19.5724       19.6100      19.159083       0.01762



 Wavenumbers:  8050. - 12850. cm-1, ATM      1
 LEVEL PRESSURE   UPWARD FLUX   DIFDOWN FLUX  DIRDOWN FLUX  DOWNWARD FLUX   NET FLUX    HEATING RATE
          mb          W/m2          W/m2          W/m2        W/m2          W/m2       degree/day
  51    .06700       29.4850        0.0000      298.6167      298.6167     269.131686       0.00000
  50    .07753       29.4850        0.0000      298.6166      298.6167     269.131686       0.00000
  49    .09103       29.4849        0.0001      298.6166      298.6166     269.131686       0.00000
  48    0.1069       29.4849        0.0001      298.6165      298.6166     269.131686      -0.00000
  47    0.1255       29.4849        0.0001      298.6164      298.6166     269.131686       0.00000
  46    0.1487       29.4848        0.0002      298.6163      298.6165     269.131686       0.00000
  45    0.1794       29.4848        0.0003      298.6162      298.6165     269.131686       0.00000
  44    0.2165       29.4847        0.0003      298.6161      298.6164     269.131686       0.00000
  43    0.2613       29.4847        0.0004      298.6159      298.6163     269.131686       0.00000
  42    0.3336       29.4845        0.0006      298.6156      298.6162     269.131686       0.00000
  41    0.4307       29.4844        0.0008      298.6152      298.6161     269.131686      -0.00000
  40    0.5894       29.4841        0.0012      298.6146      298.6158     269.131686       0.00000
  39     1.339       29.4828        0.0029      298.6117      298.6145     269.131686      -0.00000
  38     1.782       29.4821        0.0038      298.6099      298.6138     269.131686      -0.00000
  37     2.292       29.4812        0.0050      298.6079      298.6129     269.131686       0.00000
  36     2.964       29.4801        0.0065      298.6053      298.6117     269.131686       0.00000
  35     3.853       29.4786        0.0085      298.6018      298.6102     269.131686      -0.00000
  34     5.035       29.4766        0.0111      298.5971      298.6082     269.131686      -0.00000
  33     6.613       29.4739        0.0146      298.5909      298.6056     269.131686      -0.00000
  32     8.786       29.4703        0.0194      298.5826      298.6020     269.131686       0.00000
  31     11.80       29.4651        0.0262      298.5706      298.5968     269.131686       0.00000
  30     15.07       29.4595        0.0335      298.5577      298.5912     269.131686      -0.00000
  29     18.79       29.4533        0.0418      298.5431      298.5849     269.131686       0.00000
  28     23.16       29.4459        0.0515      298.5261      298.5776     269.131686       0.00000
  27     28.12       29.4375        0.0626      298.5066      298.5692     269.131686       0.00000
  26     33.73       29.4281        0.0750      298.4848      298.5597     269.131686       0.00000
  25     40.54       29.4166        0.0900      298.4583      298.5483     269.131686      -0.00000
  24     48.69       29.4029        0.1081      298.4264      298.5345     269.131686       0.00000
  23     57.69       29.3877        0.1281      298.3913      298.5194     269.131686       0.00000
  22     68.43       29.3696        0.1519      298.3494      298.5013     269.131686      -0.00000
  21     81.20       29.3480        0.1803      298.2994      298.4797     269.131686       0.00000
  20     96.49       29.3222        0.2142      298.2396      298.4539     269.131686       0.00000
  19     114.6       29.2915        0.2546      298.1609      298.4155     269.123940       0.00362
  18     136.5       29.2552        0.3025      298.0654      298.3679     269.112715       0.00432
  17     162.9       29.2117        0.3596      297.9418      298.3014     269.089671       0.00737
  16     196.4       29.1553        0.4340      297.7478      298.1818     269.026457       0.01591
  15     218.7       29.1182        0.4828      297.5781      298.0609     268.942635       0.03182
  14     243.0       29.0781        0.5359      297.3080      297.8439     268.765865       0.06131
  13     269.0       29.0352        0.5931      296.7985      297.3917     268.356435       0.13282
  12     297.5       28.9902        0.6546      296.0018      296.6565     267.666213       0.20471
  11     328.5       28.9440        0.7205      294.9005      295.6210     266.677033       0.26896
  10     361.9       28.8979        0.7907      293.4920      294.2827     265.384803       0.32695
   9     398.1       28.8539        0.8651      291.6912      292.5563     263.702407       0.39196
   8     437.6       28.8156        0.9432      289.3216      290.2648     261.449262       0.48174
   7     480.5       28.7903        1.0241      286.1500      287.1741     258.383784       0.60205
   6     533.0       28.7861        1.1201      281.6387      282.7588     253.972712       0.70960
   5     589.8       28.8220        1.2195      276.2642      277.4837     248.661713       0.78833
   4     651.6       28.9224        1.3220      270.0688      271.3909     242.468432       0.84695
   3     718.7       29.1058        1.4288      263.5631      264.9919     235.886115       0.82721
   2     792.3       29.3928        1.5406      257.0983      258.6388     229.246033       0.76154
   1     891.5       29.9961        1.6861      248.8099      250.4960     220.499898       0.74425
   0    1013.0       31.4048        1.8490      238.7171      240.5660     209.161197       0.78730



 Wavenumbers: 12850. - 16000. cm-1, ATM      1
 LEVEL PRESSURE   UPWARD FLUX   DIFDOWN FLUX  DIRDOWN FLUX  DOWNWARD FLUX   NET FLUX    HEATING RATE
          mb          W/m2          W/m2          W/m2        W/m2          W/m2       degree/day
  51    .06700       79.1741        0.0000      187.1097      187.1097     107.935597       0.00000
  50    .07753       79.1741        0.0001      187.1089      187.1089     107.934803       0.63637
  49    .09103       79.1741        0.0002      187.1078      187.1079     107.933801       0.62635
  48    0.1069       79.1741        0.0003      187.1065      187.1068     107.932643       0.61645
  47    0.1255       79.1742        0.0004      187.1051      187.1055     107.931304       0.60708
  46    0.1487       79.1742        0.0005      187.1033      187.1038     107.929601       0.62060
  45    0.1794       79.1742        0.0007      187.1008      187.1015     107.927263       0.64182
  44    0.2165       79.1743        0.0010      187.0978      187.0988     107.924482       0.63269
  43    0.2613       79.1744        0.0013      187.0943      187.0956     107.921170       0.62427
  42    0.3336       79.1747        0.0017      187.0886      187.0904     107.915675       0.64073
  41    0.4307       79.1751        0.0023      187.0811      187.0835     107.908415       0.63124
  40    0.5894       79.1759        0.0034      187.0691      187.0725     107.896611       0.62768
  39     1.339       79.1827        0.0082      187.0146      187.0228     107.840036       0.63694
  38     1.782       79.1890        0.0110      186.9834      186.9944     107.805439       0.65866
  37     2.292       79.1982        0.0143      186.9471      186.9614     107.763146       0.70049
  36     2.964       79.2135        0.0186      186.8983      186.9169     107.703342       0.75072
  35     3.853       79.2382        0.0243      186.8316      186.8559     107.617749       0.81229
  34     5.035       79.2752        0.0318      186.7418      186.7736     107.498377       0.85275
  33     6.613       79.3270        0.0419      186.6240      186.6659     107.338908       0.85252
  32     8.786       79.3944        0.0554      186.4741      186.5295     107.135132       0.79139
  31     11.80       79.4821        0.0748      186.2773      186.3521     106.869971       0.74237
  30     15.07       79.5663        0.0956      186.0838      186.1794     106.613144       0.66308
  29     18.79       79.6523        0.1191      185.8805      185.9996     106.347325       0.60269
  28     23.16       79.7423        0.1466      185.6602      185.8067     106.064440       0.54701
  27     28.12       79.8330        0.1780      185.4279      185.6059     105.772916       0.49557
  26     33.73       79.9171        0.2131      185.1960      185.4091     105.492078       0.42225
  25     40.54       79.9984        0.2556      184.9479      185.2035     105.205116       0.35601
  24     48.69       80.0768        0.3069      184.6806      184.9875     104.910712       0.30466
  23     57.69       80.1439        0.3633      184.4182      184.7815     104.637632       0.25597
  22     68.43       80.2032        0.4306      184.1400      184.5705     104.367384       0.21245
  21     81.20       80.2455        0.5109      183.8556      184.3665     104.120940       0.16285
  20     96.49       80.2699        0.6067      183.5626      184.1693     103.899449       0.12225
  19     114.6       80.2977        0.7217      183.2413      183.9630     103.665261       0.10935
  18     136.5       80.3193        0.8580      182.8847      183.7427     103.423441       0.09299
  17     162.9       80.3344        1.0206      182.4822      183.5028     103.168347       0.08154
  16     196.4       80.3317        1.2317      181.9942      183.2259     102.894111       0.06903
  15     218.7       80.3220        1.3704      181.6836      183.0540     102.731993       0.06155
  14     243.0       80.3080        1.5214      181.3468      182.8681     102.560085       0.05962
  13     269.0       80.2902        1.6851      180.9786      182.6636     102.373466       0.06054
  12     297.5       80.2692        1.8621      180.5728      182.4350     102.165788       0.06159
  11     328.5       80.2483        2.0536      180.1197      182.1733     101.925003       0.06547
  10     361.9       80.2299        2.2599      179.6107      181.8706     101.640753       0.07192
   9     398.1       80.2168        2.4821      179.0368      181.5189     101.302049       0.07891
   8     437.6       80.2151        2.7206      178.3827      181.1033     100.888213       0.08848
   7     480.5       80.2352        2.9759      177.6219      180.5978     100.362610       0.10323
   6     533.0       80.2969        3.2895      176.6021      179.8916      99.594675       0.12354
   5     589.8       80.4102        3.6257      175.4201      179.0458      98.635519       0.14237
   4     651.6       80.5982        3.9845      174.0516      178.0361      97.437915       0.16378
   3     718.7       80.8761        4.3667      172.5119      176.8786      96.002511       0.18039
   2     792.3       81.2643        4.7729      170.8271      175.6001      94.335729       0.19116
   1     891.5       81.9844        5.3154      168.4828      173.7982      91.813845       0.21460
   0    1013.0       83.3036        5.9558      165.5252      171.4811      88.177474       0.25249



 Wavenumbers: 16000. - 22650. cm-1, ATM      1
 LEVEL PRESSURE   UPWARD FLUX   DIFDOWN FLUX  DIRDOWN FLUX  DOWNWARD FLUX   NET FLUX    HEATING RATE
          mb          W/m2          W/m2          W/m2        W/m2          W/m2       degree/day
  51    .06700      215.6645        0.0000      298.3258      298.3258      82.661218       0.00000
  50    .07753      215.6646        0.0005      298.3252      298.3257      82.661035       0.14650
  49    .09103      215.6648        0.0011      298.3245      298.3255      82.660769       0.16616
  48    0.1069      215.6649        0.0018      298.3236      298.3254      82.660413       0.18948
  47    0.1255      215.6652        0.0026      298.3226      298.3251      82.659937       0.21598
  46    0.1487      215.6655        0.0036      298.3212      298.3248      82.659235       0.25593
  45    0.1794      215.6661        0.0049      298.3193      298.3243      82.658137       0.30134
  44    0.2165      215.6669        0.0065      298.3170      298.3235      82.656648       0.33868
  43    0.2613      215.6679        0.0084      298.3141      298.3226      82.654628       0.38076
  42    0.3336      215.6700        0.0116      298.3092      298.3208      82.650788       0.44777
  41    0.4307      215.6730        0.0158      298.3022      298.3180      82.644998       0.50335
  40    0.5894      215.6789        0.0227      298.2902      298.3129      82.633957       0.58715
  39     1.339      215.7226        0.0551      298.2199      298.2750      82.552374       0.91848
  38     1.782      215.7601        0.0742      298.1688      298.2430      82.482862       1.32341
  37     2.292      215.8145        0.0962      298.1005      298.1967      82.382222       1.66686
  36     2.964      215.9028        0.1252      297.9968      298.1220      82.219135       2.04723
  35     3.853      216.0433        0.1634      297.8402      298.0036      81.960238       2.45698
  34     5.035      216.2534        0.2141      297.6130      297.8271      81.573718       2.76114
  33     6.613      216.5461        0.2819      297.3002      297.5821      81.036044       2.87440
  32     8.786      216.9281        0.3732      296.8904      297.2636      80.335498       2.72067
  31     11.80      217.4284        0.5038      296.3446      296.8484      79.419907       2.56337
  30     15.07      217.9117        0.6439      295.8053      296.4492      78.537454       2.27832
  29     18.79      218.4092        0.8022      295.2382      296.0404      77.631282       2.05457
  28     23.16      218.9341        0.9871      294.6243      295.6113      76.677205       1.84488
  27     28.12      219.4689        1.1985      293.9780      295.1765      75.707561       1.64833
  26     33.73      219.9734        1.4352      293.3330      294.7682      74.794841       1.37230
  25     40.54      220.4739        1.7215      292.6433      294.3648      73.890828       1.12153
  24     48.69      220.9715        2.0669      291.8984      293.9653      72.993867       0.92821
  23     57.69      221.4154        2.4466      291.1635      293.6101      72.194628       0.74917
  22     68.43      221.8335        2.8992      290.3771      293.2763      71.442734       0.59109
  21     81.20      222.1799        3.4392      289.5601      292.9993      70.819402       0.41189
  20     96.49      222.4515        4.0836      288.6972      292.7808      70.329215       0.27055
  19     114.6      222.7003        4.8484      287.7320      292.5804      69.880144       0.20968
  18     136.5      222.9450        5.7543      286.6280      292.3823      69.437337       0.17027
  17     162.9      223.1900        6.8317      285.3509      292.1826      68.992572       0.14216
  16     196.4      223.4090        8.2278      283.7724      292.0002      68.591205       0.10103
  15     218.7      223.5157        9.1436      282.7651      291.9086      68.392900       0.07529
  14     243.0      223.6140       10.1379      281.6844      291.8223      68.208279       0.06403
  13     269.0      223.7020       11.2142      280.5279      291.7421      68.040096       0.05456
  12     297.5      223.7793       12.3760      279.2920      291.6680      67.888737       0.04489
  11     328.5      223.8539       13.6297      277.9634      291.5931      67.739223       0.04065
  10     361.9      223.9260       14.9777      276.5389      291.5166      67.590600       0.03760
   9     398.1      223.9965       16.4264      275.0108      291.4372      67.440639       0.03494
   8     437.6      224.0683       17.9798      273.3717      291.3515      67.283210       0.03366
   7     480.5      224.1440       19.6425      271.6137      291.2562      67.112243       0.03358
   6     533.0      224.2387       21.6861      269.4454      291.1315      66.892782       0.03530
   5     589.8      224.3479       23.8851      267.0994      290.9845      66.636659       0.03802
   4     651.6      224.4786       26.2447      264.5638      290.8085      66.329866       0.04195
   3     718.7      224.6313       28.7705      261.8335      290.6040      65.972736       0.04488
   2     792.3      224.8085       31.4631      258.9071      290.3702      65.561701       0.04714
   1     891.5      225.0826       35.0760      254.9468      290.0228      64.940233       0.05288
   0    1013.0      225.4835       39.3828      250.1650      289.5478      64.064282       0.06082



 Wavenumbers: 22650. - 29000. cm-1, ATM      1
 LEVEL PRESSURE   UPWARD FLUX   DIFDOWN FLUX  DIRDOWN FLUX  DOWNWARD FLUX   NET FLUX    HEATING RATE
          mb          W/m2          W/m2          W/m2        W/m2          W/m2       degree/day
  51    .06700       96.2301        0.0000      112.5773      112.5773      16.347155       0.00000
  50    .07753       96.2302        0.0006      112.5767      112.5773      16.347155      -0.00000
  49    .09103       96.2302        0.0013      112.5760      112.5774      16.347155       0.00000
  48    0.1069       96.2302        0.0022      112.5752      112.5774      16.347155      -0.00000
  47    0.1255       96.2303        0.0031      112.5743      112.5774      16.347155       0.00000
  46    0.1487       96.2304        0.0043      112.5732      112.5775      16.347155      -0.00000
  45    0.1794       96.2304        0.0060      112.5716      112.5776      16.347155       0.00000
  44    0.2165       96.2305        0.0080      112.5697      112.5777      16.347155       0.00000
  43    0.2613       96.2307        0.0103      112.5675      112.5778      16.347155       0.00000
  42    0.3336       96.2309        0.0142      112.5638      112.5780      16.347155       0.00000
  41    0.4307       96.2311        0.0193      112.5590      112.5783      16.347155       0.00000
  40    0.5894       96.2316        0.0277      112.5510      112.5787      16.347155       0.00000
  39     1.339       96.2337        0.0674      112.5134      112.5808      16.347155      -0.00000
  38     1.782       96.2349        0.0907      112.4913      112.5820      16.347155       0.00000
  37     2.292       96.2363        0.1177      112.4658      112.5835      16.347155       0.00000
  36     2.964       96.2382        0.1531      112.4322      112.5853      16.347155      -0.00000
  35     3.853       96.2406        0.1999      112.3879      112.5878      16.347155       0.00000
  34     5.035       96.2439        0.2621      112.3290      112.5910      16.347155       0.00000
  33     6.613       96.2482        0.3451      112.2503      112.5954      16.347155      -0.00000
  32     8.786       96.2541        0.4570      112.1443      112.6012      16.347155       0.00000
  31     11.80       96.2624        0.6170      111.9926      112.6096      16.347155       0.00000
  30     15.07       96.2714        0.7887      111.8299      112.6185      16.347155       0.00000
  29     18.79       96.2814        0.9825      111.6461      112.6286      16.347155       0.00000
  28     23.16       96.2931        1.2087      111.4316      112.6403      16.347155      -0.00000
  27     28.12       96.3065        1.4671      111.1865      112.6536      16.347155       0.00000
  26     33.73       96.3213        1.7558      110.9126      112.6684      16.347155       0.00000
  25     40.54       96.3391        2.1041      110.5821      112.6862      16.347155       0.00000
  24     48.69       96.3603        2.5230      110.1845      112.7075      16.347155      -0.00000
  23     57.69       96.3835        2.9819      109.7487      112.7306      16.347155      -0.00000
  22     68.43       96.4107        3.5266      109.2312      112.7579      16.347155       0.00000
  21     81.20       96.4427        4.1729      108.6169      112.7899      16.347155       0.00000
  20     96.49       96.4802        4.9391      107.8882      112.8273      16.347155       0.00000
  19     114.6       96.5237        5.8430      107.0279      112.8709      16.347155       0.00000
  18     136.5       96.5741        6.9061      106.0151      112.9212      16.347155       0.00000
  17     162.9       96.6322        8.1604      104.8189      112.9793      16.347155      -0.00000
  16     196.4       96.7045        9.7679      103.2837      113.0516      16.347155       0.00000
  15     218.7       96.7501       10.8119      102.2854      113.0973      16.347155      -0.00000
  14     243.0       96.7981       11.9364      101.2089      113.1453      16.347155       0.00000
  13     269.0       96.8482       13.1430      100.0523      113.1954      16.347155       0.00000
  12     297.5       96.9001       14.4332       98.8141      113.2473      16.347155       0.00000
  11     328.5       96.9537       15.8116       97.4892      113.3008      16.347155      -0.00000
  10     361.9       97.0083       17.2777       96.0778      113.3555      16.347155       0.00000
   9     398.1       97.0637       18.8351       94.5758      113.4109      16.347155      -0.00000
   8     437.6       97.1193       20.4844       92.9820      113.4664      16.347155       0.00000
   7     480.5       97.1743       22.2263       91.2951      113.5215      16.347155       0.00000
   6     533.0       97.2357       24.3344       89.2485      113.5828      16.347155      -0.00000
   5     589.8       97.2940       26.5629       87.0783      113.6412      16.347155       0.00000
   4     651.6       97.3477       28.9089       84.7859      113.6948      16.347155       0.00000
   3     718.7       97.3948       31.3684       82.3736      113.7420      16.347155       0.00000
   2     792.3       97.4333       33.9317       79.8488      113.7805      16.347155       0.00000
   1     891.5       97.4658       37.2791       76.5339      113.8130      16.347155       0.00000
   0    1013.0       97.4755       41.1326       72.6900      113.8226      16.347155      -0.00000



 Wavenumbers: 29000. - 38000. cm-1, ATM      1
 LEVEL PRESSURE   UPWARD FLUX   DIFDOWN FLUX  DIRDOWN FLUX  DOWNWARD FLUX   NET FLUX    HEATING RATE
          mb          W/m2          W/m2          W/m2        W/m2          W/m2       degree/day
  51    .06700       14.9167        0.0000       39.6994       39.6994      24.782758       0.00000
  50    .07753       14.9165        0.0004       39.6951       39.6955      24.778935       3.06421
  49    .09103       14.9164        0.0008       39.6889       39.6898      24.773371       3.47791
  48    0.1069       14.9162        0.0013       39.6808       39.6821      24.765916       3.96796
  47    0.1255       14.9160        0.0019       39.6701       39.6720      24.755938       4.52365
  46    0.1487       14.9158        0.0027       39.6544       39.6571      24.741238       5.35839
  45    0.1794       14.9156        0.0037       39.6302       39.6339      24.718291       6.29934
  44    0.2165       14.9153        0.0049       39.5977       39.6026      24.687258       7.05957
  43    0.2613       14.9151        0.0063       39.5541       39.5604      24.645339       7.90158
  42    0.3336       14.9148        0.0087       39.4724       39.4811      24.566307       9.21429
  41    0.4307       14.9146        0.0118       39.3517       39.3635      24.448954      10.20360
  40    0.5894       14.9146        0.0167       39.1290       39.1457      24.231166      11.58170
  39     1.339       14.9209        0.0385       37.7272       37.7657      22.844784      15.60814
  38     1.782       14.9289        0.0500       36.7932       36.8432      21.914252      17.71582
  37     2.292       14.9418        0.0625       35.7337       35.7962      20.854367      17.55447
  36     2.964       14.9642        0.0781       34.4834       34.5614      19.597229      15.78087
  35     3.853       15.0014        0.0978       33.1337       33.2315      18.230064      12.97465
  34     5.035       15.0585        0.1230       31.7759       31.8989      16.840431       9.92696
  33     6.613       15.1393        0.1558       30.4559       30.6117      15.472449       7.31324
  32     8.786       15.2461        0.1990       29.2069       29.4059      14.159771       5.09797
  31     11.80       15.3885        0.2598       27.9832       28.2429      12.854399       3.65463
  30     15.07       15.5298        0.3240       27.0492       27.3732      11.843414       2.61017
  29     18.79       15.6795        0.3954       26.2430       26.6384      10.958887       2.00550
  28     23.16       15.8435        0.4777       25.5054       25.9831      10.139644       1.58415
  27     28.12       16.0176        0.5709       24.8371       25.4080       9.390382       1.27370
  26     33.73       16.1886        0.6749       24.2528       24.9277       8.739190       0.97908
  25     40.54       16.3648        0.8006       23.6985       24.4991       8.134233       0.75052
  24     48.69       16.5476        0.9516       23.1583       24.1099       7.562271       0.59189
  23     57.69       16.7176        1.1173       22.6715       23.7887       7.071101       0.46040
  22     68.43       16.8838        1.3143       22.1902       23.5046       6.620756       0.35403
  21     81.20       17.0245        1.5505       21.7276       23.2781       6.253548       0.24265
  20     96.49       17.1353        1.8326       21.2703       23.1030       5.967647       0.15780
  19     114.6       17.2377        2.1640       20.7814       22.9454       5.707655       0.12140
  18     136.5       17.3405        2.5490       20.2433       22.7923       5.451800       0.09838
  17     162.9       17.4465        2.9984       19.6439       22.6423       5.195866       0.08181
  16     196.4       17.5428        3.5792       18.9359       22.5151       4.972311       0.05627
  15     218.7       17.5885        3.9455       18.4990       22.4446       4.856142       0.04411
  14     243.0       17.6303        4.3357       18.0418       22.3775       4.747143       0.03780
  13     269.0       17.6669        4.7495       17.5651       22.3146       4.647686       0.03226
  12     297.5       17.6974        5.1865       17.0695       22.2560       4.558616       0.02642
  11     328.5       17.7253        5.6457       16.5516       22.1973       4.471990       0.02355
  10     361.9       17.7501        6.1254       16.0130       22.1384       4.388286       0.02118
   9     398.1       17.7713        6.6253       15.4537       22.0790       4.307692       0.01878
   8     437.6       17.7893        7.1433       14.8747       22.0181       4.228807       0.01687
   7     480.5       17.8029        7.6783       14.2773       21.9557       4.152779       0.01493
   6     533.0       17.8128        8.3081       13.5733       21.8814       4.068550       0.01355
   5     589.8       17.8169        8.9530       12.8496       21.8026       3.985685       0.01230
   4     651.6       17.8147        9.6080       12.1100       21.7180       3.903283       0.01127
   3     718.7       17.8053       10.2679       11.3588       21.6267       3.821372       0.01029
   2     792.3       17.7881       10.9273       10.6009       21.5282       3.740093       0.00932
   1     891.5       17.7542       11.7420        9.6505       21.3925       3.638306       0.00866
   0    1013.0       17.7002       12.6155        8.6088       21.2243       3.524085       0.00793



 Wavenumbers: 38000. - 50000. cm-1, ATM      1
 LEVEL PRESSURE   UPWARD FLUX   DIFDOWN FLUX  DIRDOWN FLUX  DOWNWARD FLUX   NET FLUX    HEATING RATE
          mb          W/m2          W/m2          W/m2        W/m2          W/m2       degree/day
  51    .06700        0.0074        0.0000        2.4486        2.4486       2.441190       0.00000
  50    .07753        0.0074        0.0001        2.4462        2.4462       2.438852       1.87385
  49    .09103        0.0073        0.0002        2.4427        2.4428       2.435512       2.08768
  48    0.1069        0.0072        0.0003        2.4381        2.4384       2.431115       2.34048
  47    0.1255        0.0071        0.0004        2.4321        2.4325       2.425322       2.62623
  46    0.1487        0.0070        0.0005        2.4235        2.4240       2.416914       3.06494
  45    0.1794        0.0069        0.0007        2.4102        2.4108       2.403955       3.55742
  44    0.2165        0.0067        0.0009        2.3925        2.3934       2.386654       3.93563
  43    0.2613        0.0065        0.0012        2.3690        2.3701       2.363590       4.34750
  42    0.3336        0.0063        0.0015        2.3255        2.3270       2.320778       4.99154
  41    0.4307        0.0059        0.0020        2.2623        2.2643       2.258401       5.42350
  40    0.5894        0.0053        0.0027        2.1484        2.1511       2.145732       5.99159
  39     1.339        0.0035        0.0041        1.5115        1.5155       1.512023       7.13441
  38     1.782        0.0028        0.0039        1.1616        1.1655       1.162718       6.65020
  37     2.292        0.0022        0.0034        0.8378        0.8412       0.839022       5.36125
  36     2.964        0.0017        0.0028        0.5542        0.5570       0.555324       3.56128
  35     3.853        0.0013        0.0023        0.3504        0.3527       0.351377       1.93549
  34     5.035        0.0010        0.0018        0.2191        0.2210       0.219975       0.93868
  33     6.613        0.0008        0.0014        0.1358        0.1373       0.136524       0.44613
  32     8.786        0.0006        0.0012        0.0843        0.0855       0.084918       0.20042
  31     11.80        0.0004        0.0009        0.0507        0.0516       0.051201       0.09440
  30     15.07        0.0003        0.0007        0.0324        0.0331       0.032836       0.04742
  29     18.79        0.0002        0.0005        0.0207        0.0212       0.021029       0.02677
  28     23.16        0.0001        0.0004        0.0129        0.0133       0.013123       0.01529
  27     28.12        0.0001        0.0002        0.0079        0.0081       0.008035       0.00865
  26     33.73        0.0001        0.0002        0.0048        0.0050       0.004927       0.00467
  25     40.54        0.0000        0.0001        0.0028        0.0029       0.002909       0.00250
  24     48.69        0.0000        0.0001        0.0016        0.0017       0.001633       0.00132
  23     57.69        0.0000        0.0000        0.0009        0.0009       0.000912       0.00068
  22     68.43        0.0000        0.0000        0.0005        0.0005       0.000480       0.00034
  21     81.20        0.0000        0.0000        0.0002        0.0002       0.000239       0.00016
  20     96.49        0.0000        0.0000        0.0001        0.0001       0.000110       0.00007
  19     114.6        0.0000        0.0000        0.0000        0.0000       0.000045       0.00003
  18     136.5        0.0000        0.0000        0.0000        0.0000       0.000015       0.00001
  17     162.9        0.0000        0.0000        0.0000        0.0000       0.000004       0.00000
  16     196.4        0.0000        0.0000        0.0000        0.0000       0.000001       0.00000
  15     218.7        0.0000        0.0000        0.0000        0.0000       0.000000       0.00000
  14     243.0        0.0000        0.0000        0.0000        0.0000       0.000000       0.00000
  13     269.0        0.0000        0.0000        0.0000        0.0000       0.000000       0.00000
  12     297.5        0.0000        0.0000        0.0000        0.0000       0.000000       0.00000
  11     328.5        0.0000        0.0000        0.0000        0.0000       0.000000       0.00000
  10     361.9        0.0000        0.0000        0.0000        0.0000       0.000000       0.00000
   9     398.1        0.0000        0.0000        0.0000        0.0000       0.000000       0.00000
   8     437.6        0.0000        0.0000        0.0000        0.0000       0.000000       0.00000
   7     480.5        0.0000        0.0000        0.0000        0.0000       0.000000       0.00000
   6     533.0        0.0000        0.0000        0.0000        0.0000       0.000000       0.00000
   5     589.8        0.0000        0.0000        0.0000        0.0000       0.000000       0.00000
   4     651.6        0.0000        0.0000        0.0000        0.0000       0.000000       0.00000
   3     718.7        0.0000        0.0000        0.0000        0.0000       0.000000       0.00000
   2     792.3        0.0000        0.0000        0.0000        0.0000       0.000000       0.00000
   1     891.5        0.0000        0.0000        0.0000        0.0000       0.000000       0.00000
   0    1013.0        0.0000        0.0000        0.0000        0.0000       0.000000       0.00000



 Wavenumbers:   820. -  2600. cm-1, ATM      1
 LEVEL PRESSURE   UPWARD FLUX   DIFDOWN FLUX  DIRDOWN FLUX  DOWNWARD FLUX   NET FLUX    HEATING RATE
          mb          W/m2          W/m2          W/m2        W/m2          W/m2       degree/day
  51    .06700        0.0644        0.0000       11.4544       11.4544      11.389968       0.00000
  50    .07753        0.0644        0.0000       11.4480       11.4480      11.383632       5.07918
  49    .09103        0.0644        0.0000       11.4467       11.4467      11.382319       0.82057
  48    0.1069        0.0644        0.0000       11.4457       11.4457      11.381245       0.57133
  47    0.1255        0.0644        0.0000       11.4444       11.4444      11.379999       0.56522
  46    0.1487        0.0644        0.0000       11.4428       11.4428      11.378407       0.58000
  45    0.1794        0.0644        0.0000       11.4407       11.4407      11.376263       0.58875
  44    0.2165        0.0644        0.0000       11.4382       11.4382      11.373808       0.55848
  43    0.2613        0.0644        0.0000       11.4355       11.4355      11.371055       0.51896
  42    0.3336        0.0644        0.0000       11.4313       11.4313      11.366905       0.48378
  41    0.4307        0.0644        0.0000       11.4265       11.4265      11.362073       0.42013
  40    0.5894        0.0644        0.0000       11.4195       11.4195      11.355119       0.36984
  39     1.339        0.0644        0.0000       11.3891       11.3891      11.324721       0.34222
  38     1.782        0.0644        0.0000       11.3717       11.3717      11.307338       0.33096
  37     2.292        0.0644        0.0000       11.3522       11.3522      11.287754       0.32435
  36     2.964        0.0644        0.0000       11.3271       11.3271      11.262640       0.31525
  35     3.853        0.0644        0.0000       11.2946       11.2946      11.230140       0.30843
  34     5.035        0.0644        0.0000       11.2529       11.2529      11.188505       0.29743
  33     6.613        0.0644        0.0000       11.2004       11.2004      11.136001       0.28069
  32     8.786        0.0644        0.0000       11.1338       11.1338      11.069411       0.25861
  31     11.80        0.0644        0.0000       11.0449       11.0449      10.980507       0.24890
  30     15.07        0.0644        0.0000       10.9579       10.9579      10.893499       0.22464
  29     18.79        0.0644        0.0000       10.8729       10.8729      10.808514       0.19269
  28     23.16        0.0644        0.0000       10.7937       10.7937      10.729267       0.15324
  27     28.12        0.0644        0.0000       10.7267       10.7267      10.662262       0.11390
  26     33.73        0.0644        0.0000       10.6736       10.6736      10.609224       0.07974
  25     40.54        0.0644        0.0000       10.6280       10.6280      10.563616       0.05658
  24     48.69        0.0644        0.0000       10.5851       10.5851      10.520715       0.04440
  23     57.69        0.0644        0.0000       10.5429       10.5429      10.478486       0.03958
  22     68.43        0.0644        0.0000       10.4946       10.4946      10.430169       0.03798
  21     81.20        0.0644        0.0000       10.4385       10.4385      10.374079       0.03706
  20     96.49        0.0644        0.0000       10.3727       10.3727      10.308275       0.03632
  19     114.6        0.0644        0.0000       10.2940       10.2940      10.229605       0.03673
  18     136.5        0.0644        0.0000       10.1941       10.1941      10.129635       0.03844
  17     162.9        0.0645        0.0000       10.0458       10.0458       9.981367       0.04739
  16     196.4        0.0645        0.0000        9.7880        9.7881       9.723592       0.06489
  15     218.7        0.0645        0.0000        9.5930        9.5931       9.528555       0.07405
  14     243.0        0.0645        0.0000        9.3225        9.3226       9.258033       0.09383
  13     269.0        0.0646        0.0000        8.9424        8.9424       8.877872       0.12332
  12     297.5        0.0647        0.0000        8.5482        8.5482       8.483544       0.11695
  11     328.5        0.0648        0.0000        8.1454        8.1454       8.080646       0.10955
  10     361.9        0.0650        0.0000        7.6575        7.6575       7.592535       0.12350
   9     398.1        0.0653        0.0000        7.1069        7.1070       7.041694       0.12833
   8     437.6        0.0657        0.0000        6.5802        6.5802       6.514508       0.11272
   7     480.5        0.0663        0.0000        6.1616        6.1616       6.095390       0.08231
   6     533.0        0.0672        0.0000        5.8340        5.8340       5.766831       0.05285
   5     589.8        0.0685        0.0000        5.5403        5.5403       5.471815       0.04379
   4     651.6        0.0705        0.0000        5.2164        5.2164       5.145909       0.04457
   3     718.7        0.0731        0.0000        4.8945        4.8946       4.821438       0.04078
   2     792.3        0.0764        0.0000        4.6070        4.6070       4.530600       0.03336
   1     891.5        0.0821        0.0000        4.2826        4.2826       4.200477       0.02809
   0    1013.0        0.0934        0.0000        3.9087        3.9087       3.815299       0.02674

  Modules and versions used in this calculation:

       rrtmg_sw.1col.f90:  $Revision$                    rrtmg_sw_init.f90:  $Revision$        
     rrtmgsw_cldprop.f90:  $Revision$                  rrtmgsw_cldprmc.f90:  NOT USED          
     rrtmg_sw_reftra.f90:  $Revision$                  rrtmg_sw_spcvrt.f90:  NOT USED          
     rrtmg_sw_spcvmc.f90:  NOT USED                    rrtmgsw_setcoef.f90:  NOT USED          
     rrtmg_sw_taumol.f90:  $Revision$                  rrtmg_sw_vrtqdr.f90:  NOT USED          
                rrtatm.f:  NOT USED                             util_xxx.f:  NOT USED          
                 extra.f:  NOT USED                       rrtmg_sw_k_g.f90:  $Revision$        

