

 Wavenumbers:   820. - 50000. cm-1, ATM      1
 LEVEL PRESSURE   UPWARD FLUX   DIFDOWN FLUX  DIRDOWN FLUX  DOWNWARD FLUX   NET FLUX    HEATING RATE
          mb          W/m2          W/m2          W/m2        W/m2          W/m2       degree/day
  51    .06700      491.0144        0.0000     1340.1748     1340.1748     849.160366       0.00000
  50    .07753      491.0144        0.0016     1340.1530     1340.1547     849.140287      16.09358
  49    .09103      491.0144        0.0037     1340.1337     1340.1373     849.122944      10.83963
  48    0.1069      491.0144        0.0060     1340.1120     1340.1180     849.103569      10.31343
  47    0.1255      491.0145        0.0087     1340.0861     1340.0948     849.080258      10.56825
  46    0.1487      491.0147        0.0121     1340.0511     1340.0632     849.048436      11.59932
  45    0.1794      491.0152        0.0167     1339.9998     1340.0165     849.001329      12.93200
  44    0.2165      491.0159        0.0222     1339.9340     1339.9561     848.940200      13.90590
  43    0.2613      491.0170        0.0286     1339.8488     1339.8774     848.860369      15.04786
  42    0.3336      491.0194        0.0393     1339.6946     1339.7338     848.714491      17.00786
  41    0.4307      491.0231        0.0533     1339.4735     1339.5268     848.503676      18.32994
  40    0.5894      491.0309        0.0761     1339.0771     1339.1533     848.122402      20.27563
  39     1.339      491.0961        0.1806     1336.7120     1336.8926     845.796498      26.18546
  38     1.782      491.1548        0.2397     1335.1872     1335.4268     844.272075      29.02256
  37     2.292      491.2413        0.3070     1333.4864     1333.7933     842.552070      28.48776
  36     2.964      491.3833        0.3944     1331.5100     1331.9044     840.521172      25.49391
  35     3.853      491.6106        0.5093     1329.3895     1329.8987     838.288117      21.19210
  34     5.035      491.9519        0.6612     1327.2199     1327.8811     835.929216      16.85101
  33     6.613      492.4288        0.8636     1324.9966     1325.8602     833.431376      13.35346
  32     8.786      493.0532        1.1355     1322.6964     1323.8319     830.778697      10.30204
  31     11.80      493.8746        1.5236     1320.1581     1321.6817     827.807081       8.31959
  30     15.07      494.6733        1.9392     1317.9517     1319.8910     825.217704       6.68527
  29     18.79      495.5013        2.4076     1315.8162     1318.2238     822.722466       5.65747
  28     23.16      496.3832        2.9537     1313.6420     1316.5956     820.212393       4.85367
  27     28.12      497.2914        3.5771     1311.4542     1315.0312     817.739843       4.20317
  26     33.73      498.1582        4.2747     1309.3264     1313.6012     815.442994       3.45337
  25     40.54      499.0291        5.1176     1307.0759     1312.1935     813.164446       2.82680
  24     48.69      499.9071        6.1331     1304.6572     1310.7904     810.883260       2.36067
  23     57.69      500.7027        7.2481     1302.2617     1309.5097     808.807062       1.94612
  22     68.43      501.4639        8.5751     1299.6698     1308.2449     806.780995       1.59276
  21     81.20      502.1064       10.1570     1296.8977     1307.0546     804.948262       1.21104
  20     96.49      502.6213       12.0411     1293.8764     1305.9175     803.296161       0.91184
  19     114.6      503.1154       14.2711     1290.4215     1304.6926     801.577175       0.80265
  18     136.5      503.6096       16.8992     1286.4108     1303.3100     799.700385       0.72167
  17     162.9      504.1136       20.0083     1281.5759     1301.5841     797.470530       0.71275
  16     196.4      504.5792       24.0125     1275.0285     1299.0410     794.461741       0.75735
  15     218.7      504.8136       26.6228     1270.4309     1297.0537     792.240068       0.84349
  14     243.0      505.0342       29.4420     1264.7946     1294.2366     789.202386       1.05357
  13     269.0      505.2386       32.4759     1257.1470     1289.6230     784.384341       1.56295
  12     297.5      505.4274       35.7302     1247.5228     1283.2530     777.825587       1.94525
  11     328.5      505.6193       39.2173     1236.2564     1275.4736     769.854366       2.16735
  10     361.9      505.8189       42.9381     1223.6182     1266.5563     760.737411       2.30668
   9     398.1      506.0337       46.9040     1209.5255     1256.4295     750.395830       2.40936
   8     437.6      506.2806       51.1185     1193.6265     1244.7450     738.464387       2.55102
   7     480.5      506.5876       55.5861     1175.6394     1231.2255     724.637962       2.71546
   6     533.0      507.0466       61.0167     1153.6765     1214.6932     707.646582       2.73337
   5     589.8      507.6663       66.7853     1130.7613     1197.5466     689.880300       2.63710
   4     651.6      508.5314       72.8907     1106.9318     1179.8225     671.291159       2.54212
   3     718.7      509.6987       79.3341     1083.2479     1162.5821     652.883401       2.31335
   2     792.3      511.2399       86.1001     1060.2800     1146.3801     635.140243       2.03494
   1     891.5      514.0314       95.0112     1031.5808     1126.5919     612.560541       1.92142
   0    1013.0      519.6249      105.3879      997.9927     1103.3806     583.755725       2.00007



 Wavenumbers:  2600. -  3250. cm-1, ATM      1
 LEVEL PRESSURE   UPWARD FLUX   DIFDOWN FLUX  DIRDOWN FLUX  DOWNWARD FLUX   NET FLUX    HEATING RATE
          mb          W/m2          W/m2          W/m2        W/m2          W/m2       degree/day
  51    .06700        0.5728        0.0000       11.8115       11.8115      11.238720       0.00000
  50    .07753        0.5728        0.0000       11.8115       11.8115      11.238712       0.00640
  49    .09103        0.5728        0.0000       11.8115       11.8115      11.238702       0.00627
  48    0.1069        0.5728        0.0000       11.8115       11.8115      11.238691       0.00613
  47    0.1255        0.5728        0.0000       11.8115       11.8115      11.238678       0.00600
  46    0.1487        0.5728        0.0000       11.8114       11.8114      11.238661       0.00608
  45    0.1794        0.5728        0.0000       11.8114       11.8114      11.238638       0.00625
  44    0.2165        0.5728        0.0000       11.8114       11.8114      11.238611       0.00613
  43    0.2613        0.5728        0.0000       11.8114       11.8114      11.238579       0.00601
  42    0.3336        0.5728        0.0000       11.8113       11.8113      11.238526       0.00618
  41    0.4307        0.5728        0.0000       11.8112       11.8112      11.238455       0.00622
  40    0.5894        0.5728        0.0000       11.8111       11.8111      11.238334       0.00640
  39     1.339        0.5728        0.0000       11.8104       11.8104      11.237618       0.00806
  38     1.782        0.5728        0.0000       11.8098       11.8098      11.237063       0.01057
  37     2.292        0.5728        0.0000       11.8091       11.8091      11.236323       0.01225
  36     2.964        0.5728        0.0000       11.8080       11.8080      11.235234       0.01367
  35     3.853        0.5728        0.0000       11.8064       11.8064      11.233651       0.01502
  34     5.035        0.5728        0.0000       11.8042       11.8042      11.231380       0.01622
  33     6.613        0.5728        0.0000       11.8010       11.8010      11.228171       0.01716
  32     8.786        0.5728        0.0000       11.7965       11.7965      11.223690       0.01740
  31     11.80        0.5728        0.0000       11.7900       11.7900      11.217249       0.01803
  30     15.07        0.5728        0.0000       11.7833       11.7833      11.210482       0.01747
  29     18.79        0.5728        0.0000       11.7760       11.7760      11.203249       0.01640
  28     23.16        0.5728        0.0000       11.7682       11.7682      11.195395       0.01519
  27     28.12        0.5728        0.0000       11.7599       11.7599      11.187143       0.01403
  26     33.73        0.5728        0.0000       11.7510       11.7511      11.178277       0.01333
  25     40.54        0.5728        0.0000       11.7405       11.7405      11.167692       0.01313
  24     48.69        0.5728        0.0000       11.7277       11.7278      11.154969       0.01317
  23     57.69        0.5728        0.0000       11.7134       11.7135      11.140669       0.01340
  22     68.43        0.5728        0.0000       11.6956       11.6956      11.122834       0.01402
  21     81.20        0.5728        0.0000       11.6730       11.6730      11.100222       0.01494
  20     96.49        0.5728        0.0000       11.6443       11.6444      11.071537       0.01583
  19     114.6        0.5729        0.0000       11.6071       11.6072      11.034282       0.01740
  18     136.5        0.5729        0.0001       11.5610       11.5610      10.988075       0.01777
  17     162.9        0.5730        0.0001       11.5038       11.5039      10.930880       0.01828
  16     196.4        0.5732        0.0001       11.4265       11.4266      10.853440       0.01949
  15     218.7        0.5733        0.0001       11.3720       11.3721      10.798795       0.02075
  14     243.0        0.5735        0.0001       11.3055       11.3056      10.732032       0.02316
  13     269.0        0.5739        0.0001       11.2159       11.2160      10.642092       0.02918
  12     297.5        0.5745        0.0001       11.1029       11.1031      10.528509       0.03369
  11     328.5        0.5755        0.0001       10.9653       10.9654      10.389912       0.03768
  10     361.9        0.5768        0.0001       10.8026       10.8028      10.225933       0.04149
   9     398.1        0.5788        0.0001       10.6090       10.6091      10.030308       0.04558
   8     437.6        0.5816        0.0001       10.3679       10.3680       9.786392       0.05215
   7     480.5        0.5858        0.0002       10.0479       10.0480       9.462195       0.06367
   6     533.0        0.5930        0.0002        9.5961        9.5963       9.003317       0.07382
   5     589.8        0.6034        0.0002        9.0836        9.0838       8.480356       0.07762
   4     651.6        0.6189        0.0002        8.5372        8.5374       7.918480       0.07684
   3     718.7        0.6408        0.0002        8.0069        8.0071       7.366213       0.06940
   2     792.3        0.6711        0.0002        7.5124        7.5126       6.841494       0.06018
   1     891.5        0.7286        0.0002        6.9089        6.9091       6.180480       0.05625
   0    1013.0        0.8580        0.0002        6.1993        6.1995       5.341498       0.05825



 Wavenumbers:  3250. -  4000. cm-1, ATM      1
 LEVEL PRESSURE   UPWARD FLUX   DIFDOWN FLUX  DIRDOWN FLUX  DOWNWARD FLUX   NET FLUX    HEATING RATE
          mb          W/m2          W/m2          W/m2        W/m2          W/m2       degree/day
  51    .06700        0.0018        0.0000       19.9125       19.9125      19.910668       0.00000
  50    .07753        0.0018        0.0000       19.9068       19.9068      19.905032       4.51665
  49    .09103        0.0018        0.0000       19.9017       19.9017      19.899864       3.23072
  48    0.1069        0.0018        0.0000       19.8973       19.8973      19.895511       2.31677
  47    0.1255        0.0018        0.0000       19.8935       19.8935      19.891701       1.72745
  46    0.1487        0.0018        0.0000       19.8897       19.8897      19.887865       1.39823
  45    0.1794        0.0018        0.0000       19.8853       19.8853      19.883508       1.19610
  44    0.2165        0.0018        0.0000       19.8808       19.8808      19.879031       1.01836
  43    0.2613        0.0018        0.0000       19.8761       19.8761      19.874293       0.89322
  42    0.3336        0.0018        0.0000       19.8692       19.8692      19.867421       0.80115
  41    0.4307        0.0018        0.0000       19.8615       19.8615      19.859705       0.67086
  40    0.5894        0.0018        0.0000       19.8511       19.8511      19.849254       0.55577
  39     1.339        0.0018        0.0000       19.8143       19.8143      19.812541       0.41333
  38     1.782        0.0018        0.0000       19.7968       19.7968      19.795040       0.33318
  37     2.292        0.0018        0.0000       19.7790       19.7791      19.777251       0.29465
  36     2.964        0.0018        0.0000       19.7585       19.7585      19.756682       0.25820
  35     3.853        0.0018        0.0000       19.7344       19.7344      19.732578       0.22875
  34     5.035        0.0018        0.0000       19.7056       19.7056      19.703803       0.20556
  33     6.613        0.0018        0.0000       19.6701       19.6701      19.668334       0.18962
  32     8.786        0.0018        0.0000       19.6238       19.6238      19.621976       0.18004
  31     11.80        0.0018        0.0000       19.5566       19.5566      19.554833       0.18798
  30     15.07        0.0018        0.0000       19.4816       19.4816      19.479807       0.19370
  29     18.79        0.0018        0.0000       19.3931       19.3932      19.391379       0.20049
  28     23.16        0.0018        0.0000       19.2866       19.2866      19.284835       0.20602
  27     28.12        0.0018        0.0000       19.1624       19.1625      19.160701       0.21102
  26     33.73        0.0018        0.0000       19.0238       19.0239      19.022100       0.20839
  25     40.54        0.0017        0.0001       18.8610       18.8610      18.859264       0.20202
  24     48.69        0.0017        0.0001       18.6766       18.6767      18.674919       0.19077
  23     57.69        0.0017        0.0001       18.4917       18.4918      18.490051       0.17329
  22     68.43        0.0017        0.0001       18.2937       18.2938      18.292080       0.15563
  21     81.20        0.0017        0.0001       18.0794       18.0795      18.077765       0.14162
  20     96.49        0.0017        0.0001       17.8412       17.8413      17.839657       0.13142
  19     114.6        0.0017        0.0001       17.5546       17.5548      17.553108       0.13380
  18     136.5        0.0016        0.0002       17.2115       17.2117      17.210052       0.13191
  17     162.9        0.0016        0.0002       16.7570       16.7571      16.755545       0.14528
  16     196.4        0.0016        0.0002       16.0226       16.0229      16.021285       0.18482
  15     218.7        0.0015        0.0002       15.4611       15.4614      15.459825       0.21317
  14     243.0        0.0015        0.0002       14.7101       14.7103      14.708785       0.26049
  13     269.0        0.0015        0.0002       13.6298       13.6300      13.628512       0.35044
  12     297.5        0.0015        0.0002       12.3473       12.3476      12.346081       0.38035
  11     328.5        0.0015        0.0002       10.9854       10.9857      10.984203       0.37029
  10     361.9        0.0015        0.0002        9.5905        9.5907       9.589244       0.35294
   9     398.1        0.0015        0.0002        8.2729        8.2731       8.271607       0.30698
   8     437.6        0.0015        0.0002        7.0522        7.0524       7.050876       0.26100
   7     480.5        0.0016        0.0002        5.9048        5.9050       5.903408       0.22536
   6     533.0        0.0017        0.0001        4.7425        4.7426       4.740890       0.18701
   5     589.8        0.0020        0.0001        3.7327        3.7328       3.730798       0.14993
   4     651.6        0.0026        0.0001        2.8288        2.8289       2.826339       0.12369
   3     718.7        0.0037        0.0001        2.0644        2.0644       2.060697       0.09622
   2     792.3        0.0061        0.0000        1.4698        1.4699       1.463770       0.06846
   1     891.5        0.0141        0.0000        0.9056        0.9056       0.891549       0.04869
   0    1013.0        0.0594        0.0000        0.4289        0.4289       0.369545       0.03625



 Wavenumbers:  4000. -  4650. cm-1, ATM      1
 LEVEL PRESSURE   UPWARD FLUX   DIFDOWN FLUX  DIRDOWN FLUX  DOWNWARD FLUX   NET FLUX    HEATING RATE
          mb          W/m2          W/m2          W/m2        W/m2          W/m2       degree/day
  51    .06700        2.0685        0.0000       23.3833       23.3833      21.314767       0.00000
  50    .07753        2.0685        0.0000       23.3833       23.3833      21.314766       0.00079
  49    .09103        2.0685        0.0000       23.3833       23.3833      21.314764       0.00078
  48    0.1069        2.0685        0.0000       23.3833       23.3833      21.314763       0.00076
  47    0.1255        2.0685        0.0000       23.3832       23.3832      21.314761       0.00074
  46    0.1487        2.0685        0.0000       23.3832       23.3832      21.314759       0.00075
  45    0.1794        2.0685        0.0000       23.3832       23.3832      21.314756       0.00077
  44    0.2165        2.0685        0.0000       23.3832       23.3832      21.314753       0.00076
  43    0.2613        2.0685        0.0000       23.3832       23.3832      21.314749       0.00074
  42    0.3336        2.0685        0.0000       23.3832       23.3832      21.314743       0.00076
  41    0.4307        2.0685        0.0000       23.3832       23.3832      21.314734       0.00077
  40    0.5894        2.0685        0.0000       23.3832       23.3832      21.314719       0.00079
  39     1.339        2.0685        0.0000       23.3831       23.3831      21.314630       0.00100
  38     1.782        2.0685        0.0000       23.3830       23.3830      21.314561       0.00132
  37     2.292        2.0685        0.0000       23.3829       23.3829      21.314467       0.00155
  36     2.964        2.0685        0.0000       23.3828       23.3828      21.314327       0.00175
  35     3.853        2.0685        0.0000       23.3826       23.3826      21.314120       0.00197
  34     5.035        2.0685        0.0000       23.3823       23.3823      21.313814       0.00218
  33     6.613        2.0685        0.0000       23.3818       23.3818      21.313364       0.00241
  32     8.786        2.0685        0.0000       23.3811       23.3812      21.312698       0.00259
  31     11.80        2.0685        0.0000       23.3801       23.3801      21.311651       0.00293
  30     15.07        2.0684        0.0001       23.3788       23.3789      21.310419       0.00318
  29     18.79        2.0684        0.0001       23.3773       23.3774      21.308925       0.00339
  28     23.16        2.0684        0.0001       23.3754       23.3755      21.307065       0.00360
  27     28.12        2.0684        0.0001       23.3731       23.3732      21.304805       0.00384
  26     33.73        2.0684        0.0001       23.3703       23.3704      21.302008       0.00421
  25     40.54        2.0684        0.0002       23.3664       23.3666      21.298195       0.00473
  24     48.69        2.0684        0.0002       23.3613       23.3615      21.293084       0.00529
  23     57.69        2.0684        0.0002       23.3551       23.3554      21.286987       0.00572
  22     68.43        2.0684        0.0003       23.3474       23.3477      21.279299       0.00604
  21     81.20        2.0684        0.0003       23.3379       23.3382      21.269761       0.00630
  20     96.49        2.0684        0.0004       23.3261       23.3265      21.258080       0.00645
  19     114.6        2.0685        0.0005       23.3113       23.3117      21.243235       0.00693
  18     136.5        2.0686        0.0005       23.2932       23.2937      21.225092       0.00698
  17     162.9        2.0688        0.0006       23.2704       23.2711      21.202244       0.00730
  16     196.4        2.0692        0.0008       23.2378       23.2386      21.169424       0.00826
  15     218.7        2.0695        0.0009       23.2130       23.2138      21.144279       0.00955
  14     243.0        2.0701        0.0010       23.1794       23.1804      21.110299       0.01179
  13     269.0        2.0709        0.0011       23.1277       23.1288      21.057847       0.01702
  12     297.5        2.0722        0.0012       23.0554       23.0566      20.984324       0.02181
  11     328.5        2.0741        0.0013       22.9584       22.9596      20.885510       0.02687
  10     361.9        2.0766        0.0014       22.8259       22.8273      20.750693       0.03411
   9     398.1        2.0800        0.0015       22.6422       22.6437      20.563728       0.04356
   8     437.6        2.0844        0.0016       22.3923       22.3940      20.309563       0.05434
   7     480.5        2.0906        0.0018       22.0659       22.0676      19.977059       0.06530
   6     533.0        2.1006        0.0019       21.6407       21.6426      19.541953       0.06999
   5     589.8        2.1154        0.0021       21.1925       21.1946      19.079171       0.06869
   4     651.6        2.1372        0.0022       20.6975       20.6997      18.562499       0.07066
   3     718.7        2.1679        0.0024       20.1377       20.1400      17.972174       0.07419
   2     792.3        2.2090        0.0025       19.5289       19.5314      17.322409       0.07452
   1     891.5        2.2852        0.0027       18.7142       18.7169      16.431753       0.07579
   0    1013.0        2.4560        0.0029       17.7401       17.7430      15.287055       0.07948



 Wavenumbers:  4650. -  5150. cm-1, ATM      1
 LEVEL PRESSURE   UPWARD FLUX   DIFDOWN FLUX  DIRDOWN FLUX  DOWNWARD FLUX   NET FLUX    HEATING RATE
          mb          W/m2          W/m2          W/m2        W/m2          W/m2       degree/day
  51    .06700        1.4773        0.0000       22.1334       22.1334      20.656013       0.00000
  50    .07753        1.4773        0.0000       22.1331       22.1331      20.655777       0.18935
  49    .09103        1.4773        0.0000       22.1328       22.1328      20.655481       0.18513
  48    0.1069        1.4773        0.0000       22.1325       22.1325      20.655141       0.18072
  47    0.1255        1.4773        0.0000       22.1321       22.1321      20.654752       0.17629
  46    0.1487        1.4773        0.0000       22.1316       22.1316      20.654263       0.17820
  45    0.1794        1.4773        0.0000       22.1309       22.1309      20.653599       0.18246
  44    0.2165        1.4773        0.0000       22.1302       22.1302      20.652817       0.17788
  43    0.2613        1.4773        0.0000       22.1292       22.1292      20.651898       0.17329
  42    0.3336        1.4773        0.0000       22.1277       22.1277      20.650392       0.17551
  41    0.4307        1.4773        0.0000       22.1258       22.1258      20.648425       0.17107
  40    0.5894        1.4773        0.0000       22.1226       22.1226      20.645280       0.16721
  39     1.339        1.4773        0.0000       22.1088       22.1088      20.631490       0.15525
  38     1.782        1.4773        0.0000       22.1015       22.1015      20.624152       0.13972
  37     2.292        1.4773        0.0000       22.0936       22.0936      20.616295       0.13013
  36     2.964        1.4773        0.0000       22.0842       22.0842      20.606918       0.11771
  35     3.853        1.4773        0.0000       22.0733       22.0733      20.595970       0.10389
  34     5.035        1.4773        0.0000       22.0608       22.0608      20.583527       0.08889
  33     6.613        1.4773        0.0000       22.0471       22.0471      20.569823       0.07326
  32     8.786        1.4773        0.0001       22.0323       22.0324      20.555065       0.05731
  31     11.80        1.4773        0.0001       22.0157       22.0158      20.538495       0.04639
  30     15.07        1.4773        0.0001       22.0010       22.0010      20.523749       0.03807
  29     18.79        1.4773        0.0001       21.9857       21.9858      20.508510       0.03455
  28     23.16        1.4773        0.0001       21.9680       21.9682      20.490887       0.03408
  27     28.12        1.4773        0.0002       21.9469       21.9471      20.469817       0.03582
  26     33.73        1.4773        0.0002       21.9216       21.9218      20.444533       0.03802
  25     40.54        1.4773        0.0002       21.8885       21.8887      20.411408       0.04110
  24     48.69        1.4774        0.0003       21.8452       21.8455      20.368138       0.04478
  23     57.69        1.4774        0.0003       21.7941       21.7945      20.317073       0.04787
  22     68.43        1.4775        0.0004       21.7296       21.7300      20.252531       0.05074
  21     81.20        1.4776        0.0005       21.6490       21.6494      20.171829       0.05333
  20     96.49        1.4778        0.0006       21.5504       21.5509      20.073155       0.05446
  19     114.6        1.4781        0.0007       21.4321       21.4327      19.954689       0.05532
  18     136.5        1.4784        0.0008       21.2939       21.2947      19.816308       0.05321
  17     162.9        1.4790        0.0009       21.1353       21.1362      19.657240       0.05084
  16     196.4        1.4798        0.0011       20.9422       20.9433      19.463478       0.04877
  15     218.7        1.4805        0.0012       20.8224       20.8236      19.343109       0.04570
  14     243.0        1.4814        0.0014       20.6959       20.6973      19.215866       0.04413
  13     269.0        1.4828        0.0015       20.5574       20.5588      19.076080       0.04535
  12     297.5        1.4847        0.0016       20.4017       20.4034      18.918686       0.04668
  11     328.5        1.4873        0.0018       20.2240       20.2258      18.738485       0.04900
  10     361.9        1.4909        0.0019       20.0178       20.0197      18.528819       0.05305
   9     398.1        1.4957        0.0021       19.7753       19.7774      18.281697       0.05757
   8     437.6        1.5022        0.0023       19.4849       19.4871      17.984980       0.06344
   7     480.5        1.5110        0.0024       19.1287       19.1311      17.620093       0.07166
   6     533.0        1.5252        0.0026       18.6330       18.6356      17.110440       0.08199
   5     589.8        1.5450        0.0028       18.0449       18.0477      16.502701       0.09021
   4     651.6        1.5733        0.0029       17.3644       17.3673      15.794016       0.09691
   3     718.7        1.6121        0.0031       16.6401       16.6432      15.031124       0.09587
   2     792.3        1.6643        0.0032       15.9180       15.9213      14.256925       0.08879
   1     891.5        1.7592        0.0034       15.0353       15.0388      13.279537       0.08317
   0    1013.0        1.9463        0.0036       14.0566       14.0602      12.113854       0.08094



 Wavenumbers:  5150. -  6150. cm-1, ATM      1
 LEVEL PRESSURE   UPWARD FLUX   DIFDOWN FLUX  DIRDOWN FLUX  DOWNWARD FLUX   NET FLUX    HEATING RATE
          mb          W/m2          W/m2          W/m2        W/m2          W/m2       degree/day
  51    .06700        3.5654        0.0000       55.4884       55.4884      51.923020       0.00000
  50    .07753        3.5654        0.0000       55.4884       55.4884      51.922986       0.02762
  49    .09103        3.5654        0.0000       55.4883       55.4883      51.922941       0.02812
  48    0.1069        3.5654        0.0000       55.4883       55.4883      51.922887       0.02862
  47    0.1255        3.5654        0.0000       55.4882       55.4882      51.922823       0.02907
  46    0.1487        3.5654        0.0000       55.4881       55.4881      51.922739       0.03064
  45    0.1794        3.5654        0.0000       55.4880       55.4880      51.922620       0.03275
  44    0.2165        3.5654        0.0000       55.4878       55.4878      51.922473       0.03339
  43    0.2613        3.5654        0.0000       55.4877       55.4877      51.922293       0.03386
  42    0.3336        3.5654        0.0000       55.4874       55.4874      51.921986       0.03578
  41    0.4307        3.5654        0.0000       55.4869       55.4869      51.921565       0.03665
  40    0.5894        3.5654        0.0000       55.4862       55.4862      51.920858       0.03757
  39     1.339        3.5654        0.0000       55.4827       55.4827      51.917394       0.03900
  38     1.782        3.5653        0.0000       55.4806       55.4807      51.915339       0.03912
  37     2.292        3.5653        0.0001       55.4782       55.4783      51.912963       0.03935
  36     2.964        3.5653        0.0001       55.4751       55.4752      51.909850       0.03908
  35     3.853        3.5653        0.0001       55.4710       55.4711      51.905752       0.03889
  34     5.035        3.5653        0.0001       55.4655       55.4656      51.900336       0.03869
  33     6.613        3.5653        0.0002       55.4582       55.4584      51.893155       0.03839
  32     8.786        3.5652        0.0002       55.4486       55.4488      51.883606       0.03709
  31     11.80        3.5652        0.0003       55.4351       55.4354      51.870210       0.03751
  30     15.07        3.5651        0.0004       55.4209       55.4213      51.856184       0.03621
  29     18.79        3.5651        0.0005       55.4054       55.4059      51.840775       0.03494
  28     23.16        3.5650        0.0006       55.3878       55.3884      51.823345       0.03370
  27     28.12        3.5650        0.0008       55.3683       55.3691      51.804099       0.03272
  26     33.73        3.5649        0.0009       55.3474       55.3483      51.783397       0.03113
  25     40.54        3.5649        0.0011       55.3234       55.3245      51.759639       0.02947
  24     48.69        3.5648        0.0013       55.2961       55.2974      51.732597       0.02798
  23     57.69        3.5648        0.0016       55.2682       55.2697      51.704969       0.02590
  22     68.43        3.5647        0.0018       55.2378       55.2397      51.674965       0.02359
  21     81.20        3.5647        0.0022       55.2040       55.2062      51.641551       0.02208
  20     96.49        3.5646        0.0026       55.1657       55.1683      51.603694       0.02089
  19     114.6        3.5646        0.0031       55.1210       55.1241      51.559496       0.02064
  18     136.5        3.5646        0.0037       55.0611       55.0647      51.500170       0.02281
  17     162.9        3.5645        0.0044       54.9545       54.9588      51.394286       0.03384
  16     196.4        3.5646        0.0052       54.7283       54.7335      51.168976       0.05671
  15     218.7        3.5646        0.0058       54.4963       54.5021      50.937458       0.08790
  14     243.0        3.5647        0.0064       54.0811       54.0874      50.522728       0.14384
  13     269.0        3.5650        0.0069       53.1993       53.2062      49.641188       0.28597
  12     297.5        3.5654        0.0074       51.8992       51.9066      48.341188       0.38557
  11     328.5        3.5662        0.0079       50.3922       50.4001      46.833871       0.40984
  10     361.9        3.5676        0.0084       48.6947       48.7031      45.135553       0.42969
   9     398.1        3.5696        0.0088       46.6947       46.7035      43.133927       0.46633
   8     437.6        3.5727        0.0092       44.4377       44.4468      40.874175       0.48315
   7     480.5        3.5775        0.0095       41.9797       41.9892      38.411613       0.48364
   6     533.0        3.5864        0.0099       39.2327       39.2426      35.656219       0.44326
   5     589.8        3.6005        0.0104       36.7887       36.7991      33.198588       0.36479
   4     651.6        3.6233        0.0110       34.7247       34.7357      31.112398       0.28529
   3     718.7        3.6579        0.0117       33.1304       33.1421      29.484134       0.20463
   2     792.3        3.7086        0.0125       31.9232       31.9357      28.227070       0.14417
   1     891.5        3.8121        0.0135       30.6818       30.6954      26.883309       0.11435
   0    1013.0        4.0602        0.0147       29.3103       29.3250      25.264798       0.11238



 Wavenumbers:  6150. -  7700. cm-1, ATM      1
 LEVEL PRESSURE   UPWARD FLUX   DIFDOWN FLUX  DIRDOWN FLUX  DOWNWARD FLUX   NET FLUX    HEATING RATE
          mb          W/m2          W/m2          W/m2        W/m2          W/m2       degree/day
  51    .06700        5.5022        0.0000      102.6279      102.6279      97.125716       0.00000
  50    .07753        5.5022        0.0000      102.6279      102.6279      97.125664       0.04144
  49    .09103        5.5022        0.0000      102.6278      102.6278      97.125597       0.04174
  48    0.1069        5.5022        0.0000      102.6277      102.6277      97.125518       0.04203
  47    0.1255        5.5022        0.0000      102.6276      102.6276      97.125425       0.04229
  46    0.1487        5.5022        0.0000      102.6275      102.6275      97.125304       0.04414
  45    0.1794        5.5022        0.0000      102.6273      102.6273      97.125134       0.04674
  44    0.2165        5.5022        0.0000      102.6271      102.6271      97.124926       0.04721
  43    0.2613        5.5022        0.0000      102.6268      102.6269      97.124674       0.04752
  42    0.3336        5.5022        0.0000      102.6264      102.6264      97.124246       0.04986
  41    0.4307        5.5022        0.0000      102.6258      102.6258      97.123663       0.05069
  40    0.5894        5.5022        0.0001      102.6248      102.6248      97.122691       0.05170
  39     1.339        5.5021        0.0001      102.6199      102.6200      97.117961       0.05326
  38     1.782        5.5020        0.0002      102.6170      102.6172      97.115164       0.05324
  37     2.292        5.5020        0.0003      102.6137      102.6139      97.111935       0.05349
  36     2.964        5.5019        0.0003      102.6093      102.6096      97.107706       0.05308
  35     3.853        5.5018        0.0004      102.6036      102.6040      97.102141       0.05282
  34     5.035        5.5017        0.0006      102.5959      102.5965      97.094782       0.05257
  33     6.613        5.5016        0.0007      102.5858      102.5866      97.085014       0.05222
  32     8.786        5.5014        0.0010      102.5724      102.5734      97.071983       0.05061
  31     11.80        5.5011        0.0013      102.5534      102.5547      97.053608       0.05144
  30     15.07        5.5008        0.0017      102.5333      102.5350      97.034232       0.05003
  29     18.79        5.5004        0.0021      102.5111      102.5132      97.012767       0.04867
  28     23.16        5.5000        0.0026      102.4856      102.4882      96.988241       0.04742
  27     28.12        5.4995        0.0032      102.4572      102.4604      96.960851       0.04656
  26     33.73        5.4990        0.0038      102.4262      102.4300      96.931039       0.04482
  25     40.54        5.4983        0.0046      102.3901      102.3947      96.896352       0.04303
  24     48.69        5.4976        0.0055      102.3483      102.3538      96.856249       0.04150
  23     57.69        5.4967        0.0065      102.3047      102.3112      96.814478       0.03915
  22     68.43        5.4957        0.0077      102.2560      102.2637      96.767966       0.03656
  21     81.20        5.4945        0.0091      102.2006      102.2097      96.715261       0.03483
  20     96.49        5.4930        0.0108      102.1366      102.1475      96.654418       0.03358
  19     114.6        5.4913        0.0129      102.0608      102.0737      96.582389       0.03363
  18     136.5        5.4893        0.0153      101.9607      101.9759      96.486660       0.03681
  17     162.9        5.4869        0.0181      101.7889      101.8070      96.320144       0.05323
  16     196.4        5.4838        0.0218      101.4186      101.4404      95.956638       0.09150
  15     218.7        5.4818        0.0242      101.0364      101.0605      95.578697       0.14349
  14     243.0        5.4798        0.0266      100.4115      100.4381      94.958366       0.21515
  13     269.0        5.4778        0.0290       99.2224       99.2514      93.773550       0.38435
  12     297.5        5.4762        0.0313       97.2954       97.3267      91.850451       0.57037
  11     328.5        5.4752        0.0335       94.6668       94.7002      89.225023       0.71385
  10     361.9        5.4753        0.0355       91.6532       91.6887      86.213396       0.76197
   9     398.1        5.4770        0.0374       88.3064       88.3438      82.866739       0.77970
   8     437.6        5.4815        0.0390       84.3940       84.4330      78.951462       0.83711
   7     480.5        5.4909        0.0403       79.8599       79.9001      74.409240       0.89208
   6     533.0        5.5104        0.0416       74.5390       74.5806      69.070232       0.85888
   5     589.8        5.5441        0.0429       69.3954       69.4383      63.894179       0.76830
   4     651.6        5.6007        0.0443       64.5459       64.5902      58.989543       0.67072
   3     718.7        5.6878        0.0458       60.2771       60.3229      54.635070       0.54724
   2     792.3        5.8151        0.0476       56.6449       56.6925      50.877396       0.43096
   1     891.5        6.0740        0.0501       52.6611       52.7112      46.637178       0.36082
   0    1013.0        6.7272        0.0528       48.5115       48.5644      41.837132       0.33329



 Wavenumbers:  7700. -  8050. cm-1, ATM      1
 LEVEL PRESSURE   UPWARD FLUX   DIFDOWN FLUX  DIRDOWN FLUX  DOWNWARD FLUX   NET FLUX    HEATING RATE
          mb          W/m2          W/m2          W/m2        W/m2          W/m2       degree/day
  51    .06700        2.8306        0.0000       24.2540       24.2540      21.423411       0.00000
  50    .07753        2.8306        0.0000       24.2540       24.2540      21.423391       0.01585
  49    .09103        2.8306        0.0000       24.2540       24.2540      21.423367       0.01554
  48    0.1069        2.8306        0.0000       24.2540       24.2540      21.423338       0.01521
  47    0.1255        2.8306        0.0000       24.2539       24.2539      21.423305       0.01488
  46    0.1487        2.8306        0.0000       24.2539       24.2539      21.423264       0.01510
  45    0.1794        2.8306        0.0000       24.2538       24.2538      21.423207       0.01554
  44    0.2165        2.8306        0.0000       24.2538       24.2538      21.423140       0.01525
  43    0.2613        2.8306        0.0000       24.2537       24.2537      21.423061       0.01496
  42    0.3336        2.8307        0.0000       24.2536       24.2536      21.422929       0.01531
  41    0.4307        2.8307        0.0000       24.2534       24.2534      21.422755       0.01514
  40    0.5894        2.8307        0.0000       24.2531       24.2532      21.422471       0.01513
  39     1.339        2.8308        0.0001       24.2519       24.2519      21.421125       0.01515
  38     1.782        2.8309        0.0001       24.2511       24.2512      21.420334       0.01505
  37     2.292        2.8310        0.0001       24.2503       24.2504      21.419419       0.01516
  36     2.964        2.8311        0.0001       24.2491       24.2493      21.418217       0.01509
  35     3.853        2.8312        0.0002       24.2476       24.2478      21.416628       0.01507
  34     5.035        2.8314        0.0002       24.2457       24.2459      21.414518       0.01508
  33     6.613        2.8316        0.0003       24.2430       24.2433      21.411697       0.01508
  32     8.786        2.8319        0.0004       24.2394       24.2398      21.407896       0.01476
  31     11.80        2.8324        0.0006       24.2343       24.2349      21.402456       0.01523
  30     15.07        2.8329        0.0007       24.2288       24.2295      21.396615       0.01508
  29     18.79        2.8335        0.0009       24.2226       24.2235      21.390015       0.01496
  28     23.16        2.8342        0.0011       24.2154       24.2165      21.382306       0.01491
  27     28.12        2.8349        0.0013       24.2071       24.2084      21.373492       0.01498
  26     33.73        2.8358        0.0016       24.1978       24.1994      21.363631       0.01483
  25     40.54        2.8368        0.0019       24.1866       24.1886      21.351722       0.01477
  24     48.69        2.8381        0.0023       24.1732       24.1755      21.337375       0.01485
  23     57.69        2.8395        0.0027       24.1584       24.1611      21.321628       0.01476
  22     68.43        2.8412        0.0032       24.1409       24.1441      21.302895       0.01473
  21     81.20        2.8432        0.0038       24.1200       24.1238      21.280611       0.01473
  20     96.49        2.8457        0.0045       24.0952       24.0998      21.254108       0.01463
  19     114.6        2.8486        0.0054       24.0659       24.0713      21.222713       0.01466
  18     136.5        2.8521        0.0064       24.0313       24.0377      21.185607       0.01427
  17     162.9        2.8564        0.0076       23.9904       23.9980      21.141562       0.01408
  16     196.4        2.8621        0.0092       23.9376       23.9467      21.084662       0.01432
  15     218.7        2.8658        0.0102       23.9031       23.9132      21.047404       0.01415
  14     243.0        2.8700        0.0113       23.8657       23.8770      21.006957       0.01403
  13     269.0        2.8747        0.0125       23.8253       23.8378      20.963070       0.01424
  12     297.5        2.8799        0.0138       23.7815       23.7953      20.915463       0.01412
  11     328.5        2.8856        0.0152       23.7341       23.7492      20.863616       0.01410
  10     361.9        2.8921        0.0167       23.6825       23.6992      20.807078       0.01430
   9     398.1        2.8995        0.0183       23.6264       23.6447      20.745157       0.01443
   8     437.6        2.9079        0.0200       23.5648       23.5848      20.676952       0.01458
   7     480.5        2.9176        0.0219       23.4965       23.5184      20.600818       0.01495
   6     533.0        2.9307        0.0242       23.4089       23.4330      20.502319       0.01585
   5     589.8        2.9465        0.0266       23.3093       23.3359      20.389449       0.01675
   4     651.6        2.9656        0.0292       23.1954       23.2246      20.258992       0.01784
   3     718.7        2.9887        0.0320       23.0666       23.0986      20.109889       0.01874
   2     792.3        3.0162        0.0350       22.9240       22.9590      19.942780       0.01917
   1     891.5        3.0582        0.0389       22.7235       22.7624      19.704150       0.02031
   0    1013.0        3.1197        0.0436       22.4623       22.5059      19.386166       0.02208



 Wavenumbers:  8050. - 12850. cm-1, ATM      1
 LEVEL PRESSURE   UPWARD FLUX   DIFDOWN FLUX  DIRDOWN FLUX  DOWNWARD FLUX   NET FLUX    HEATING RATE
          mb          W/m2          W/m2          W/m2        W/m2          W/m2       degree/day
  51    .06700       35.5985        0.0000      339.5744      339.5744     303.975878       0.00000
  50    .07753       35.5985        0.0000      339.5743      339.5743     303.975878       0.00000
  49    .09103       35.5984        0.0001      339.5743      339.5743     303.975878       0.00000
  48    0.1069       35.5984        0.0001      339.5742      339.5743     303.975878      -0.00000
  47    0.1255       35.5984        0.0001      339.5741      339.5743     303.975878      -0.00000
  46    0.1487       35.5983        0.0002      339.5740      339.5742     303.975878      -0.00000
  45    0.1794       35.5983        0.0003      339.5739      339.5742     303.975878       0.00000
  44    0.2165       35.5982        0.0003      339.5738      339.5741     303.975878      -0.00000
  43    0.2613       35.5982        0.0004      339.5736      339.5740     303.975878       0.00000
  42    0.3336       35.5980        0.0006      339.5733      339.5739     303.975878       0.00000
  41    0.4307       35.5979        0.0008      339.5729      339.5738     303.975878       0.00000
  40    0.5894       35.5976        0.0012      339.5723      339.5735     303.975878       0.00000
  39     1.339       35.5964        0.0029      339.5693      339.5723     303.975878      -0.00000
  38     1.782       35.5957        0.0039      339.5676      339.5715     303.975878       0.00000
  37     2.292       35.5948        0.0051      339.5656      339.5707     303.975878      -0.00000
  36     2.964       35.5937        0.0067      339.5629      339.5696     303.975878       0.00000
  35     3.853       35.5923        0.0087      339.5594      339.5681     303.975878       0.00000
  34     5.035       35.5903        0.0114      339.5548      339.5662     303.975878      -0.00000
  33     6.613       35.5877        0.0150      339.5486      339.5636     303.975878       0.00000
  32     8.786       35.5842        0.0199      339.5402      339.5601     303.975878      -0.00000
  31     11.80       35.5792        0.0269      339.5283      339.5551     303.975878       0.00000
  30     15.07       35.5739        0.0344      339.5154      339.5497     303.975878       0.00000
  29     18.79       35.5678        0.0428      339.5008      339.5437     303.975878      -0.00000
  28     23.16       35.5607        0.0528      339.4838      339.5366     303.975878       0.00000
  27     28.12       35.5525        0.0641      339.4643      339.5284     303.975878       0.00000
  26     33.73       35.5434        0.0769      339.4424      339.5193     303.975878       0.00000
  25     40.54       35.5324        0.0923      339.4160      339.5082     303.975878       0.00000
  24     48.69       35.5190        0.1108      339.3841      339.4949     303.975878       0.00000
  23     57.69       35.5044        0.1313      339.3489      339.4802     303.975878       0.00000
  22     68.43       35.4869        0.1557      339.3070      339.4627     303.975878       0.00000
  21     81.20       35.4660        0.1848      339.2570      339.4418     303.975878       0.00000
  20     96.49       35.4410        0.2196      339.1973      339.4169     303.975878       0.00000
  19     114.6       35.4114        0.2609      339.1186      339.3795     303.968113       0.00363
  18     136.5       35.3762        0.3100      339.0230      339.3331     303.956856       0.00433
  17     162.9       35.3342        0.3687      338.8993      339.2680     303.933739       0.00739
  16     196.4       35.2798        0.4449      338.7051      339.1500     303.870249       0.01598
  15     218.7       35.2439        0.4950      338.5348      339.0298     303.785847       0.03204
  14     243.0       35.2052        0.5494      338.2627      338.8121     303.606913       0.06206
  13     269.0       35.1641        0.6081      337.7441      338.3522     303.188123       0.13585
  12     297.5       35.1213        0.6712      336.9211      337.5923     302.471007       0.21269
  11     328.5       35.0780        0.7389      335.7650      336.5039     301.425883       0.28417
  10     361.9       35.0360        0.8110      334.2823      335.0933     300.057314       0.34626
   9     398.1       34.9978        0.8875      332.4022      333.2897     298.291908       0.41130
   8     437.6       34.9679        0.9678      329.9302      330.8980     295.930121       0.50496
   7     480.5       34.9557        1.0512      326.6027      327.6539     292.698174       0.63474
   6     533.0       34.9744        1.1502      321.8437      322.9939     288.019504       0.75265
   5     589.8       35.0456        1.2530      316.1288      317.3818     282.336202       0.84359
   4     651.6       35.2006        1.3592      309.4817      310.8409     275.640306       0.91568
   3     718.7       35.4636        1.4699      302.4369      303.9068     268.443224       0.90447
   2     792.3       35.8625        1.5859      295.4071      296.9930     261.130498       0.83869
   1     891.5       36.6841        1.7373      286.3948      288.1321     251.448002       0.82393
   0    1013.0       38.5898        1.9074      275.3787      277.2861     238.696248       0.88542



 Wavenumbers: 12850. - 16000. cm-1, ATM      1
 LEVEL PRESSURE   UPWARD FLUX   DIFDOWN FLUX  DIRDOWN FLUX  DOWNWARD FLUX   NET FLUX    HEATING RATE
          mb          W/m2          W/m2          W/m2        W/m2          W/m2       degree/day
  51    .06700       89.3037        0.0000      212.7733      212.7733     123.469675       0.00000
  50    .07753       89.3037        0.0001      212.7725      212.7725     123.468878       0.63852
  49    .09103       89.3037        0.0002      212.7714      212.7715     123.467871       0.62916
  48    0.1069       89.3037        0.0003      212.7701      212.7704     123.466706       0.62002
  47    0.1255       89.3037        0.0004      212.7687      212.7691     123.465358       0.61150
  46    0.1487       89.3038        0.0006      212.7668      212.7674     123.463640       0.62618
  45    0.1794       89.3038        0.0008      212.7643      212.7651     123.461276       0.64888
  44    0.2165       89.3039        0.0010      212.7614      212.7624     123.458458       0.64114
  43    0.2613       89.3041        0.0013      212.7579      212.7592     123.455093       0.63428
  42    0.3336       89.3044        0.0018      212.7521      212.7539     123.449490       0.65324
  41    0.4307       89.3049        0.0025      212.7445      212.7470     123.442056       0.64639
  40    0.5894       89.3059        0.0035      212.7324      212.7359     123.429925       0.64508
  39     1.339       89.3141        0.0085      212.6762      212.6848     123.370692       0.66687
  38     1.782       89.3214        0.0115      212.6439      212.6554     123.333983       0.69887
  37     2.292       89.3321        0.0149      212.6061      212.6210     123.288911       0.74651
  36     2.964       89.3498        0.0194      212.5554      212.5748     123.225035       0.80184
  35     3.853       89.3782        0.0253      212.4865      212.5119     123.133693       0.86685
  34     5.035       89.4208        0.0332      212.3942      212.4274     123.006661       0.90747
  33     6.613       89.4802        0.0437      212.2741      212.3178     122.837609       0.90375
  32     8.786       89.5576        0.0579      212.1222      212.1801     122.622495       0.83542
  31     11.80       89.6586        0.0782      211.9240      212.0022     122.343602       0.78081
  30     15.07       89.7556        0.1000      211.7297      211.8296     122.074009       0.69604
  29     18.79       89.8550        0.1245      211.5256      211.6501     121.795120       0.63233
  28     23.16       89.9592        0.1533      211.3042      211.4574     121.498269       0.57401
  27     28.12       90.0645        0.1861      211.0706      211.2567     121.192189       0.52032
  26     33.73       90.1626        0.2229      210.8367      211.0596     120.896982       0.44385
  25     40.54       90.2583        0.2674      210.5862      210.8536     120.595237       0.37435
  24     48.69       90.3514        0.3211      210.3154      210.6364     120.285027       0.32102
  23     57.69       90.4321        0.3801      210.0484      210.4286     119.996438       0.27051
  22     68.43       90.5049        0.4506      209.7641      210.2147     119.709770       0.22536
  21     81.20       90.5597        0.5347      209.4719      210.0065     119.446865       0.17372
  20     96.49       90.5953        0.6351      209.1690      209.8041     119.208743       0.13143
  19     114.6       90.6362        0.7556      208.8358      209.5914     118.955152       0.11841
  18     136.5       90.6718        0.8986      208.4657      209.3642     118.692395       0.10104
  17     162.9       90.7024        1.0690      208.0489      209.1179     118.415513       0.08850
  16     196.4       90.7170        1.2905      207.5460      208.8365     118.119483       0.07451
  15     218.7       90.7177        1.4361      207.2275      208.6636     117.945977       0.06587
  14     243.0       90.7146        1.5945      206.8834      208.4780     117.763312       0.06335
  13     269.0       90.7084        1.7664      206.5082      208.2746     117.566203       0.06394
  12     297.5       90.6999        1.9524      206.0946      208.0470     117.347105       0.06498
  11     328.5       90.6930        2.1535      205.6323      207.7859     117.092899       0.06912
  10     361.9       90.6903        2.3703      205.1124      207.4827     116.792376       0.07604
   9     398.1       90.6956        2.6038      204.5251      207.1289     116.433334       0.08365
   8     437.6       90.7157        2.8547      203.8540      206.7087     115.993010       0.09414
   7     480.5       90.7630        3.1234      203.0719      206.1953     115.432295       0.11012
   6     533.0       90.8647        3.4535      202.0216      205.4751     114.610432       0.13221
   5     589.8       91.0294        3.8078      200.8007      204.6085     113.579146       0.15308
   4     651.6       91.2844        4.1861      199.3847      203.5708     112.286389       0.17679
   3     718.7       91.6487        4.5896      197.7886      202.3782     110.729558       0.19565
   2     792.3       92.1469        5.0189      196.0372      201.0561     108.909202       0.20877
   1     891.5       93.0548        5.5929      193.5937      199.1866     106.131750       0.23635
   0    1013.0       94.6971        6.2718      190.4928      196.7646     102.067482       0.28220



 Wavenumbers: 16000. - 22650. cm-1, ATM      1
 LEVEL PRESSURE   UPWARD FLUX   DIFDOWN FLUX  DIRDOWN FLUX  DOWNWARD FLUX   NET FLUX    HEATING RATE
          mb          W/m2          W/m2          W/m2        W/m2          W/m2       degree/day
  51    .06700      236.8912        0.0000      339.2435      339.2435     102.352362       0.00000
  50    .07753      236.8913        0.0005      339.2430      339.2435     102.352169       0.15453
  49    .09103      236.8915        0.0011      339.2422      339.2434     102.351889       0.17527
  48    0.1069      236.8917        0.0018      339.2414      339.2432     102.351514       0.19986
  47    0.1255      236.8920        0.0027      339.2403      339.2430     102.351011       0.22782
  46    0.1487      236.8925        0.0037      339.2390      339.2427     102.350270       0.26996
  45    0.1794      236.8931        0.0051      339.2371      339.2423     102.349113       0.31786
  44    0.2165      236.8941        0.0068      339.2348      339.2416     102.347542       0.35724
  43    0.2613      236.8953        0.0088      339.2319      339.2408     102.345412       0.40162
  42    0.3336      236.8977        0.0122      339.2269      339.2391     102.341361       0.47231
  41    0.4307      236.9013        0.0166      339.2200      339.2366     102.335254       0.53094
  40    0.5894      236.9081        0.0237      339.2080      339.2317     102.323608       0.61933
  39     1.339      236.9579        0.0577      339.1377      339.1954     102.237551       0.96884
  38     1.782      237.0001        0.0777      339.0866      339.1643     102.164226       1.39601
  37     2.292      237.0610        0.1008      339.0183      339.1191     102.058061       1.75836
  36     2.964      237.1597        0.1311      338.9146      339.0457     101.886016       2.15969
  35     3.853      237.3162        0.1712      338.7579      338.9291     101.612878       2.59213
  34     5.035      237.5499        0.2244      338.5306      338.7550     101.205058       2.91330
  33     6.613      237.8755        0.2954      338.2178      338.5132     100.637674       3.03323
  32     8.786      238.3005        0.3911      337.8077      338.1988      99.898280       2.87154
  31     11.80      238.8577        0.5279      337.2614      337.7894      98.931677       2.70618
  30     15.07      239.3966        0.6749      336.7215      337.3964      97.999802       2.40592
  29     18.79      239.9520        0.8409      336.1537      336.9946      97.042614       2.17024
  28     23.16      240.5390        1.0348      335.5387      336.5735      96.034530       1.94931
  27     28.12      241.1382        1.2566      334.8912      336.1479      95.009684       1.74217
  26     33.73      241.7052        1.5051      334.2448      335.7499      94.044707       1.45087
  25     40.54      242.2703        1.8056      333.5534      335.3590      93.088643       1.18611
  24     48.69      242.8350        2.1682      332.8066      334.9748      92.139734       0.98197
  23     57.69      243.3425        2.5669      332.0695      334.6364      91.293940       0.79280
  22     68.43      243.8249        3.0424      331.2805      334.3229      90.498000       0.62572
  21     81.20      244.2326        3.6099      330.4607      334.0706      89.837950       0.43615
  20     96.49      244.5631        4.2873      329.5945      333.8818      89.318731       0.28657
  19     114.6      244.8740        5.0916      328.6254      333.7170      88.843019       0.22212
  18     136.5      245.1873        6.0446      327.5165      333.5611      88.373786       0.18043
  17     162.9      245.5094        7.1787      326.2330      333.4117      87.902303       0.15071
  16     196.4      245.8181        8.6490      324.6457      333.2947      87.476639       0.10714
  15     218.7      245.9800        9.6141      323.6321      333.2462      87.266248       0.07988
  14     243.0      246.1363       10.6624      322.5443      333.2066      87.070316       0.06796
  13     269.0      246.2853       11.7977      321.3794      333.1771      86.891770       0.05792
  12     297.5      246.4267       13.0237      320.1340      333.1577      86.731029       0.04767
  11     328.5      246.5696       14.3475      318.7943      333.1418      86.572189       0.04319
  10     361.9      246.7145       15.7717      317.3570      333.1287      86.414231       0.03997
   9     398.1      246.8626       17.3033      315.8140      333.1174      86.254775       0.03715
   8     437.6      247.0173       18.9468      314.1578      333.1046      86.087286       0.03581
   7     480.5      247.1818       20.7073      312.3798      333.0871      85.905270       0.03575
   6     533.0      247.3864       22.8729      310.1849      333.0578      85.671411       0.03762
   5     589.8      247.6148       25.2056      307.8073      333.0129      85.398147       0.04056
   4     651.6      247.8756       27.7115      305.2344      332.9459      85.070313       0.04483
   3     718.7      248.1694       30.3971      302.4603      332.8574      84.687993       0.04805
   2     792.3      248.4992       33.2638      299.4825      332.7463      84.247124       0.05056
   1     891.5      248.9829       37.1166      295.4454      332.5620      83.579052       0.05685
   0    1013.0      249.6437       41.7189      290.5594      332.2783      82.634568       0.06558



 Wavenumbers: 22650. - 29000. cm-1, ATM      1
 LEVEL PRESSURE   UPWARD FLUX   DIFDOWN FLUX  DIRDOWN FLUX  DOWNWARD FLUX   NET FLUX    HEATING RATE
          mb          W/m2          W/m2          W/m2        W/m2          W/m2       degree/day
  51    .06700       96.9785        0.0000      128.0182      128.0182      31.039613       0.00000
  50    .07753       96.9786        0.0006      128.0176      128.0182      31.039613       0.00000
  49    .09103       96.9786        0.0013      128.0169      128.0182      31.039613       0.00000
  48    0.1069       96.9787        0.0022      128.0161      128.0183      31.039613      -0.00000
  47    0.1255       96.9787        0.0031      128.0152      128.0183      31.039613       0.00000
  46    0.1487       96.9788        0.0044      128.0140      128.0184      31.039613       0.00000
  45    0.1794       96.9789        0.0060      128.0125      128.0185      31.039613       0.00000
  44    0.2165       96.9790        0.0080      128.0106      128.0186      31.039613       0.00000
  43    0.2613       96.9791        0.0104      128.0084      128.0188      31.039613       0.00000
  42    0.3336       96.9794        0.0143      128.0047      128.0190      31.039613      -0.00000
  41    0.4307       96.9797        0.0194      127.9999      128.0193      31.039613       0.00000
  40    0.5894       96.9801        0.0278      127.9919      128.0197      31.039613      -0.00000
  39     1.339       96.9824        0.0677      127.9543      128.0220      31.039613       0.00000
  38     1.782       96.9837        0.0911      127.9322      128.0233      31.039613       0.00000
  37     2.292       96.9853        0.1182      127.9067      128.0249      31.039613       0.00000
  36     2.964       96.9873        0.1538      127.8731      128.0269      31.039613       0.00000
  35     3.853       96.9899        0.2008      127.8287      128.0295      31.039613      -0.00000
  34     5.035       96.9935        0.2632      127.7698      128.0331      31.039613       0.00000
  33     6.613       96.9982        0.3467      127.6911      128.0378      31.039613       0.00000
  32     8.786       97.0045        0.4591      127.5850      128.0441      31.039613       0.00000
  31     11.80       97.0135        0.6198      127.4333      128.0531      31.039613       0.00000
  30     15.07       97.0232        0.7924      127.2704      128.0628      31.039613      -0.00000
  29     18.79       97.0340        0.9871      127.0865      128.0736      31.039613       0.00000
  28     23.16       97.0466        1.2145      126.8717      128.0862      31.039613      -0.00000
  27     28.12       97.0609        1.4742      126.6263      128.1005      31.039613       0.00000
  26     33.73       97.0768        1.7646      126.3519      128.1164      31.039613       0.00000
  25     40.54       97.0958        2.1148      126.0207      128.1354      31.039613       0.00000
  24     48.69       97.1185        2.5361      125.6220      128.1581      31.039613      -0.00000
  23     57.69       97.1431        2.9978      125.1849      128.1827      31.039613       0.00000
  22     68.43       97.1718        3.5460      124.6655      128.2115      31.039613      -0.00000
  21     81.20       97.2055        4.1966      124.0485      128.2451      31.039613      -0.00000
  20     96.49       97.2446        4.9681      123.3161      128.2842      31.039613       0.00000
  19     114.6       97.2897        5.8788      122.4505      128.3293      31.039613      -0.00000
  18     136.5       97.3413        6.9506      121.4304      128.3809      31.039613       0.00000
  17     162.9       97.4000        8.2158      120.2238      128.4396      31.039613      -0.00000
  16     196.4       97.4718        9.8387      118.6727      128.5114      31.039613       0.00000
  15     218.7       97.5163       10.8934      117.6625      128.5559      31.039613      -0.00000
  14     243.0       97.5622       12.0302      116.5716      128.6018      31.039613      -0.00000
  13     269.0       97.6092       13.2508      115.3980      128.6488      31.039613       0.00000
  12     297.5       97.6566       14.5567      114.1396      128.6963      31.039613       0.00000
  11     328.5       97.7042       15.9530      112.7907      128.7438      31.039613       0.00000
  10     361.9       97.7509       17.4394      111.3512      128.7905      31.039613       0.00000
   9     398.1       97.7961       19.0195      109.8162      128.8357      31.039613      -0.00000
   8     437.6       97.8388       20.6943      108.1841      128.8784      31.039613       0.00000
   7     480.5       97.8778       22.4647      106.4526      128.9174      31.039613      -0.00000
   6     533.0       97.9162       24.6094      104.3463      128.9558      31.039613      -0.00000
   5     589.8       97.9457       26.8792      102.1061      128.9853      31.039613       0.00000
   4     651.6       97.9636       29.2714       99.7319      129.0033      31.039613       0.00000
   3     718.7       97.9670       31.7820       97.2246      129.0066      31.039613      -0.00000
   2     792.3       97.9522       34.4016       94.5902      128.9919      31.039613      -0.00000
   1     891.5       97.9021       37.8241       91.1176      128.9417      31.039613       0.00000
   0    1013.0       97.7962       41.7683       87.0675      128.8358      31.039613       0.00000



 Wavenumbers: 29000. - 38000. cm-1, ATM      1
 LEVEL PRESSURE   UPWARD FLUX   DIFDOWN FLUX  DIRDOWN FLUX  DOWNWARD FLUX   NET FLUX    HEATING RATE
          mb          W/m2          W/m2          W/m2        W/m2          W/m2       degree/day
  51    .06700       15.7828        0.0000       45.1445       45.1445      29.361689       0.00000
  50    .07753       15.7827        0.0004       45.1402       45.1406      29.357863       3.06649
  49    .09103       15.7826        0.0008       45.1340       45.1349      29.352294       3.48087
  48    0.1069       15.7824        0.0014       45.1259       45.1273      29.344832       3.97190
  47    0.1255       15.7823        0.0020       45.1151       45.1171      29.334842       4.52900
  46    0.1487       15.7821        0.0027       45.0995       45.1022      29.320121       5.36614
  45    0.1794       15.7819        0.0038       45.0752       45.0790      29.297132       6.31096
  44    0.2165       15.7817        0.0050       45.0427       45.0477      29.266024       7.07659
  43    0.2613       15.7815        0.0065       44.9990       45.0054      29.223971       7.92666
  42    0.3336       15.7813        0.0088       44.9170       44.9259      29.144589       9.25521
  41    0.4307       15.7812        0.0120       44.7957       44.8077      29.026473      10.26992
  40    0.5894       15.7814        0.0170       44.5709       44.5879      28.806487      11.69856
  39     1.339       15.7895        0.0393       43.1320       43.1712      27.381699      16.04053
  38     1.782       15.7988        0.0511       42.1484       42.1995      26.400638      18.67783
  37     2.292       15.8135        0.0639       41.0073       41.0712      25.257678      18.93040
  36     2.964       15.8388        0.0799       39.6314       39.7113      23.872533      17.38775
  35     3.853       15.8805        0.1001       38.1244       38.2244      22.343996      14.50610
  34     5.035       15.9441        0.1261       36.6081       36.7342      20.790105      11.10035
  33     6.613       16.0341        0.1599       35.1382       35.2981      19.263984       8.15864
  32     8.786       16.1533        0.2045       33.7455       33.9500      17.796677       5.69849
  31     11.80       16.3126        0.2674       32.3833       32.6507      16.338091       4.08358
  30     15.07       16.4711        0.3339       31.3427       31.6766      15.205520       2.92408
  29     18.79       16.6396        0.4078       30.4443       30.8522      14.212612       2.25123
  28     23.16       16.8247        0.4933       29.6246       30.1179      13.293211       1.77782
  27     28.12       17.0219        0.5900       28.8817       29.4717      12.449767       1.43380
  26     33.73       17.2166        0.6984       28.2360       28.9344      11.717847       1.10046
  25     40.54       17.4183        0.8293       27.6241       28.4535      11.035122       0.84700
  24     48.69       17.6288        0.9871       27.0316       28.0187      10.389879       0.66773
  23     57.69       17.8258        1.1604       26.5005       27.6609       9.835084       0.52004
  22     68.43       18.0197        1.3669       25.9781       27.3450       9.325219       0.40082
  21     81.20       18.1861        1.6149       25.4801       27.0949       8.908833       0.27514
  20     96.49       18.3196        1.9120       24.9919       26.9038       8.584217       0.17916
  19     114.6       18.4448        2.2614       24.4717       26.7331       8.288307       0.13817
  18     136.5       18.5717        2.6685       23.8997       26.5682       7.996556       0.11219
  17     162.9       18.7035        3.1441       23.2628       26.4068       7.703328       0.09373
  16     196.4       18.8244        3.7511       22.5108       26.2619       7.437446       0.06693
  15     218.7       18.8845        4.1417       22.0470       26.1887       7.304194       0.05059
  14     243.0       18.9404        4.5586       21.5607       26.1193       7.178931       0.04345
  13     269.0       18.9903        5.0017       21.0531       26.0547       7.064436       0.03714
  12     297.5       19.0331        5.4705       20.5243       25.9948       6.961712       0.03047
  11     328.5       19.0728        5.9643       19.9701       25.9344       6.861613       0.02722
  10     361.9       19.1087        6.4814       19.3920       25.8734       6.764705       0.02452
   9     398.1       19.1399        7.0214       18.7897       25.8112       6.671241       0.02178
   8     437.6       19.1668        7.5826       18.1638       25.7464       6.579603       0.01959
   7     480.5       19.1878        8.1634       17.5155       25.6789       6.491121       0.01738
   6     533.0       19.2042        8.8501       16.7472       25.5973       6.393124       0.01576
   5     589.8       19.2118        9.5545       15.9535       25.5080       6.296253       0.01438
   4     651.6       19.2098       10.2726       15.1370       25.4097       6.199832       0.01319
   3     718.7       19.1972       11.0003       14.3008       25.3011       6.103910       0.01205
   2     792.3       19.1718       11.7287       13.4517       25.1804       6.008597       0.01093
   1     891.5       19.1200       12.6313       12.3777       25.0090       5.889064       0.01017
   0    1013.0       19.0346       13.6036       11.1856       24.7892       5.754652       0.00933



 Wavenumbers: 38000. - 50000. cm-1, ATM      1
 LEVEL PRESSURE   UPWARD FLUX   DIFDOWN FLUX  DIRDOWN FLUX  DOWNWARD FLUX   NET FLUX    HEATING RATE
          mb          W/m2          W/m2          W/m2        W/m2          W/m2       degree/day
  51    .06700        0.0077        0.0000        2.7845        2.7845       2.776804       0.00000
  50    .07753        0.0076        0.0001        2.7820        2.7821       2.774466       1.87422
  49    .09103        0.0076        0.0002        2.7785        2.7787       2.771124       2.08844
  48    0.1069        0.0075        0.0003        2.7739        2.7742       2.766725       2.34187
  47    0.1255        0.0074        0.0004        2.7680        2.7683       2.760927       2.62859
  46    0.1487        0.0073        0.0005        2.7593        2.7598       2.752507       3.06903
  45    0.1794        0.0071        0.0007        2.7460        2.7467       2.739523       3.56452
  44    0.2165        0.0070        0.0009        2.7282        2.7291       2.722171       3.94722
  43    0.2613        0.0068        0.0012        2.7046        2.7058       2.699009       4.36588
  42    0.3336        0.0065        0.0015        2.6609        2.6624       2.655924       5.02335
  41    0.4307        0.0061        0.0020        2.5970        2.5991       2.592931       5.47710
  40    0.5894        0.0056        0.0027        2.4815        2.4842       2.478574       6.08134
  39     1.339        0.0038        0.0042        1.8149        1.8190       1.815270       7.46761
  38     1.782        0.0030        0.0040        1.4302        1.4342       1.431208       7.31192
  37     2.292        0.0024        0.0036        1.0577        1.0613       1.058903       6.16633
  36     2.964        0.0019        0.0030        0.7140        0.7170       0.715149       4.31516
  35     3.853        0.0015        0.0024        0.4564        0.4589       0.457401       2.44607
  34     5.035        0.0011        0.0019        0.2892        0.2911       0.289993       1.19590
  33     6.613        0.0009        0.0016        0.1825        0.1840       0.183159       0.57113
  32     8.786        0.0007        0.0013        0.1153        0.1165       0.115840       0.26144
  31     11.80        0.0005        0.0010        0.0712        0.0722       0.071711       0.12355
  30     15.07        0.0004        0.0008        0.0472        0.0480       0.047626       0.06218
  29     18.79        0.0003        0.0006        0.0315        0.0321       0.031814       0.03585
  28     23.16        0.0002        0.0004        0.0206        0.0210       0.020821       0.02126
  27     28.12        0.0001        0.0003        0.0132        0.0136       0.013410       0.01260
  26     33.73        0.0001        0.0002        0.0085        0.0088       0.008654       0.00715
  25     40.54        0.0001        0.0002        0.0053        0.0055       0.005402       0.00403
  24     48.69        0.0000        0.0001        0.0032        0.0033       0.003226       0.00225
  23     57.69        0.0000        0.0001        0.0019        0.0019       0.001920       0.00122
  22     68.43        0.0000        0.0000        0.0011        0.0011       0.001085       0.00066
  21     81.20        0.0000        0.0000        0.0006        0.0006       0.000585       0.00033
  20     96.49        0.0000        0.0000        0.0003        0.0003       0.000295       0.00016
  19     114.6        0.0000        0.0000        0.0001        0.0001       0.000133       0.00008
  18     136.5        0.0000        0.0000        0.0001        0.0001       0.000052       0.00003
  17     162.9        0.0000        0.0000        0.0000        0.0000       0.000017       0.00001
  16     196.4        0.0000        0.0000        0.0000        0.0000       0.000004       0.00000
  15     218.7        0.0000        0.0000        0.0000        0.0000       0.000002       0.00000
  14     243.0        0.0000        0.0000        0.0000        0.0000       0.000001       0.00000
  13     269.0        0.0000        0.0000        0.0000        0.0000       0.000000       0.00000
  12     297.5        0.0000        0.0000        0.0000        0.0000       0.000000       0.00000
  11     328.5        0.0000        0.0000        0.0000        0.0000       0.000000       0.00000
  10     361.9        0.0000        0.0000        0.0000        0.0000       0.000000       0.00000
   9     398.1        0.0000        0.0000        0.0000        0.0000       0.000000       0.00000
   8     437.6        0.0000        0.0000        0.0000        0.0000       0.000000       0.00000
   7     480.5        0.0000        0.0000        0.0000        0.0000       0.000000       0.00000
   6     533.0        0.0000        0.0000        0.0000        0.0000       0.000000       0.00000
   5     589.8        0.0000        0.0000        0.0000        0.0000       0.000000       0.00000
   4     651.6        0.0000        0.0000        0.0000        0.0000       0.000000       0.00000
   3     718.7        0.0000        0.0000        0.0000        0.0000       0.000000       0.00000
   2     792.3        0.0000        0.0000        0.0000        0.0000       0.000000       0.00000
   1     891.5        0.0000        0.0000        0.0000        0.0000       0.000000       0.00000
   0    1013.0        0.0000        0.0000        0.0000        0.0000       0.000000       0.00000



 Wavenumbers:   820. -  2600. cm-1, ATM      1
 LEVEL PRESSURE   UPWARD FLUX   DIFDOWN FLUX  DIRDOWN FLUX  DOWNWARD FLUX   NET FLUX    HEATING RATE
          mb          W/m2          W/m2          W/m2        W/m2          W/m2       degree/day
  51    .06700        0.4334        0.0000       13.0254       13.0254      12.592031       0.00000
  50    .07753        0.4334        0.0000       13.0185       13.0185      12.585092       5.56171
  49    .09103        0.4334        0.0000       13.0170       13.0170      12.583560       0.95759
  48    0.1069        0.4334        0.0000       13.0159       13.0159      12.582452       0.58953
  47    0.1255        0.4334        0.0000       13.0146       13.0146      12.581184       0.57462
  46    0.1487        0.4334        0.0000       13.0130       13.0130      12.579553       0.59487
  45    0.1794        0.4334        0.0000       13.0107       13.0107      12.577333       0.60919
  44    0.2165        0.4334        0.0000       13.0082       13.0082      12.574763       0.58474
  43    0.2613        0.4334        0.0000       13.0053       13.0053      12.571846       0.54981
  42    0.3336        0.4334        0.0000       13.0008       13.0008      12.567393       0.51919
  41    0.4307        0.4334        0.0000       12.9956       12.9956      12.562169       0.45420
  40    0.5894        0.4334        0.0000       12.9881       12.9881      12.554708       0.39675
  39     1.339        0.4334        0.0000       12.9564       12.9564      12.523036       0.35657
  38     1.782        0.4334        0.0000       12.9383       12.9383      12.504876       0.34575
  37     2.292        0.4334        0.0000       12.9178       12.9178      12.484374       0.33957
  36     2.964        0.4334        0.0000       12.8914       12.8914      12.458015       0.33088
  35     3.853        0.4334        0.0000       12.8572       12.8572      12.423818       0.32454
  34     5.035        0.4334        0.0000       12.8132       12.8132      12.379750       0.31480
  33     6.613        0.4334        0.0000       12.7573       12.7573      12.323903       0.29856
  32     8.786        0.4334        0.0000       12.6864       12.6864      12.253000       0.27536
  31     11.80        0.4334        0.0000       12.5914       12.5914      12.158008       0.26595
  30     15.07        0.4334        0.0000       12.4972       12.4972      12.063770       0.24330
  29     18.79        0.4334        0.0000       12.4026       12.4026      11.969196       0.21443
  28     23.16        0.4335        0.0000       12.3114       12.3115      11.877997       0.17635
  27     28.12        0.4335        0.0000       12.2319       12.2319      11.798394       0.13532
  26     33.73        0.4335        0.0000       12.1678       12.1678      11.734328       0.09633
  25     40.54        0.4335        0.0000       12.1138       12.1138      11.680280       0.06705
  24     48.69        0.4335        0.0000       12.0661       12.0661      11.632573       0.04937
  23     57.69        0.4335        0.0000       12.0219       12.0219      11.588334       0.04147
  22     68.43        0.4336        0.0000       11.9724       11.9724      11.538860       0.03889
  21     81.20        0.4336        0.0000       11.9151       11.9151      11.481536       0.03788
  20     96.49        0.4336        0.0000       11.8476       11.8476      11.414034       0.03726
  19     114.6        0.4337        0.0000       11.7666       11.7666      11.332926       0.03787
  18     136.5        0.4337        0.0000       11.6629       11.6629      11.229162       0.03990
  17     162.9        0.4338        0.0000       11.5079       11.5079      11.074114       0.04956
  16     196.4        0.4340        0.0000       11.2344       11.2344      10.800405       0.06890
  15     218.7        0.4342        0.0000       11.0228       11.0228      10.588618       0.08041
  14     243.0        0.4344        0.0000       10.7226       10.7226      10.288268       0.10417
  13     269.0        0.4347        0.0000       10.2866       10.2866       9.851857       0.14157
  12     297.5        0.4353        0.0000        9.8257        9.8257       9.390418       0.13686
  11     328.5        0.4363        0.0000        9.3778        9.3778       8.941549       0.12205
  10     361.9        0.4377        0.0000        8.8561        8.8561       8.418454       0.13235
   9     398.1        0.4397        0.0000        8.2514        8.2515       7.811799       0.14134
   8     437.6        0.4425        0.0000        7.6428        7.6428       7.200352       0.13073
   7     480.5        0.4464        0.0000        7.1334        7.1335       6.687064       0.10081
   6     533.0        0.4529        0.0000        6.7399        6.7400       6.287126       0.06434
   5     589.8        0.4621        0.0000        6.4177        6.4178       5.955697       0.04919
   4     651.6        0.4757        0.0000        6.0681        6.0681       5.592438       0.04968
   3     718.7        0.4939        0.0000        5.7136        5.7137       5.219801       0.04683
   2     792.3        0.5167        0.0000        5.3900        5.3900       4.873363       0.03973
   1     891.5        0.5561        0.0000        5.0211        5.0212       4.465103       0.03474
   0    1013.0        0.6366        0.0000        4.5997        4.5997       3.963114       0.03486

  Modules and versions used in this calculation:

       rrtmg_sw.1col.f90:  $Revision$                    rrtmg_sw_init.f90:  $Revision$        
     rrtmgsw_cldprop.f90:  $Revision$                  rrtmgsw_cldprmc.f90:  NOT USED          
     rrtmg_sw_reftra.f90:  $Revision$                  rrtmg_sw_spcvrt.f90:  NOT USED          
     rrtmg_sw_spcvmc.f90:  NOT USED                    rrtmgsw_setcoef.f90:  NOT USED          
     rrtmg_sw_taumol.f90:  $Revision$                  rrtmg_sw_vrtqdr.f90:  NOT USED          
                rrtatm.f:  NOT USED                             util_xxx.f:  NOT USED          
                 extra.f:  NOT USED                       rrtmg_sw_k_g.f90:  $Revision$        

