

 Wavenumbers:   820. - 50000. cm-1, ATM      1
 LEVEL PRESSURE   UPWARD FLUX   DIFDOWN FLUX  DIRDOWN FLUX  DOWNWARD FLUX   NET FLUX    HEATING RATE
          mb          W/m2          W/m2          W/m2        W/m2          W/m2       degree/day
  51    .06700      268.6102        0.0000      680.4246      680.4246     411.814373       0.00000
  50    .07753      268.6097        0.0013      680.4063      680.4076     411.797860      13.23518
  49    .09103      268.6092        0.0029      680.3892      680.3921     411.782872       9.36758
  48    0.1069      268.6086        0.0048      680.3693      680.3741     411.765488       9.25371
  47    0.1255      268.6080        0.0069      680.3451      680.3520     411.744067       9.71134
  46    0.1487      268.6072        0.0096      680.3119      680.3215     411.714310      10.84659
  45    0.1794      268.6062        0.0133      680.2628      680.2761     411.669949      12.17816
  44    0.2165      268.6051        0.0176      680.1999      680.2175     411.612413      13.08856
  43    0.2613      268.6040        0.0228      680.1188      680.1416     411.537566      14.10841
  42    0.3336      268.6024        0.0312      679.9729      680.0041     411.401722      15.83798
  41    0.4307      268.6007        0.0424      679.7658      679.8082     411.207560      16.88196
  40    0.5894      268.5987        0.0603      679.4021      679.4625     410.863777      18.28198
  39     1.339      268.6050        0.1413      677.4741      677.6154     409.010451      20.86508
  38     1.782      268.6195        0.1868      676.4299      676.6167     407.997204      19.29059
  37     2.292      268.6461        0.2386      675.3901      675.6287     406.982670      16.80333
  36     2.964      268.6956        0.3054      674.2576      674.5630     405.867414      13.99982
  35     3.853      268.7815        0.3934      673.0210      673.4143     404.632815      11.71658
  34     5.035      268.9157        0.5093      671.6729      672.1822     403.266496       9.76042
  33     6.613      269.1058        0.6633      670.2115      670.8748     401.768949       8.00589
  32     8.786      269.3529        0.8709      668.6184      669.4893     400.136375       6.34033
  31     11.80      269.6702        1.1656      666.7696      667.9352     398.264937       5.23943
  30     15.07      269.9689        1.4797      665.1048      666.5845     396.615544       4.25841
  29     18.79      270.2688        1.8330      663.4575      665.2906     395.021790       3.61353
  28     23.16      270.5758        2.2437      661.7461      663.9897     393.413969       3.10901
  27     28.12      270.8761        2.7110      659.9909      662.7019     391.825734       2.69989
  26     33.73      271.1377        3.2321      658.2492      661.4813     390.343550       2.22850
  25     40.54      271.3668        3.8596      656.3755      660.2351     388.868333       1.83017
  24     48.69      271.5585        4.6124      654.3334      658.9458     387.387328       1.53261
  23     57.69      271.6870        5.4352      652.2888      657.7239     386.036914       1.26581
  22     68.43      271.7508        6.4102      650.0558      656.4660     384.715244       1.03901
  21     81.20      271.7022        7.5661      647.6465      655.2127     383.510458       0.79610
  20     96.49      271.5285        8.9348      645.0084      653.9432     382.414661       0.60480
  19     114.6      271.2726       10.5446      642.0012      652.5458     381.273196       0.53298
  18     136.5      270.9305       12.4291      638.5422      650.9713     380.040726       0.47391
  17     162.9      270.4895       14.6400      634.4394      649.0794     378.589890       0.46375
  16     196.4      269.8408       17.4584      629.0226      646.4809     376.640084       0.49079
  15     218.7      269.3883       19.2792      625.2984      644.5777     375.189388       0.55078
  14     243.0      268.8861       21.2317      620.8007      642.0324     373.146260       0.70862
  13     269.0      268.3327       23.3174      614.8698      638.1872     369.854454       1.06785
  12     297.5      267.7277       25.5347      607.7664      633.3011     365.573456       1.26970
  11     328.5      267.0769       27.8894      599.6553      627.5446     360.467705       1.38824
  10     361.9      266.3830       30.3777      590.5068      620.8845     354.501455       1.50952
   9     398.1      265.6477       33.0031      580.4058      613.4090     347.761220       1.57032
   8     437.6      264.8786       35.7647      569.3974      605.1622     340.283582       1.59877
   7     480.5      264.0888       38.6585      557.3107      595.9692     331.880389       1.65036
   6     533.0      263.1747       42.1284      542.7692      584.8976     321.722927       1.63401
   5     589.8      262.2719       45.7644      527.8219      573.5863     311.314454       1.54496
   4     651.6      261.4200       49.5475      512.5138      562.0613     300.641295       1.45958
   3     718.7      260.6425       53.4713      497.3453      550.8166     290.174036       1.31544
   2     792.3      259.9683       57.5227      482.5018      540.0245     280.056237       1.16040
   1     891.5      259.3999       62.7487      463.9074      526.6561     267.256192       1.08922
   0    1013.0      259.6037       68.6770      442.5799      511.2569     251.653125       1.08340



 Wavenumbers:  2600. -  3250. cm-1, ATM      1
 LEVEL PRESSURE   UPWARD FLUX   DIFDOWN FLUX  DIRDOWN FLUX  DOWNWARD FLUX   NET FLUX    HEATING RATE
          mb          W/m2          W/m2          W/m2        W/m2          W/m2       degree/day
  51    .06700        0.3570        0.0000        5.9969        5.9969       5.639843       0.00000
  50    .07753        0.3570        0.0000        5.9969        5.9969       5.639835       0.00640
  49    .09103        0.3570        0.0000        5.9968        5.9968       5.639825       0.00627
  48    0.1069        0.3570        0.0000        5.9968        5.9968       5.639814       0.00613
  47    0.1255        0.3570        0.0000        5.9968        5.9968       5.639801       0.00600
  46    0.1487        0.3570        0.0000        5.9968        5.9968       5.639784       0.00608
  45    0.1794        0.3570        0.0000        5.9968        5.9968       5.639761       0.00625
  44    0.2165        0.3570        0.0000        5.9967        5.9967       5.639734       0.00612
  43    0.2613        0.3570        0.0000        5.9967        5.9967       5.639702       0.00600
  42    0.3336        0.3570        0.0000        5.9967        5.9967       5.639650       0.00617
  41    0.4307        0.3570        0.0000        5.9966        5.9966       5.639578       0.00620
  40    0.5894        0.3570        0.0000        5.9965        5.9965       5.639458       0.00637
  39     1.339        0.3570        0.0000        5.9958        5.9958       5.638749       0.00798
  38     1.782        0.3570        0.0000        5.9952        5.9952       5.638204       0.01038
  37     2.292        0.3570        0.0000        5.9945        5.9945       5.637484       0.01192
  36     2.964        0.3570        0.0000        5.9935        5.9935       5.636437       0.01314
  35     3.853        0.3570        0.0000        5.9920        5.9920       5.634943       0.01419
  34     5.035        0.3570        0.0000        5.9899        5.9899       5.632853       0.01493
  33     6.613        0.3570        0.0000        5.9870        5.9870       5.630002       0.01524
  32     8.786        0.3570        0.0000        5.9833        5.9833       5.626241       0.01461
  31     11.80        0.3570        0.0000        5.9782        5.9782       5.621220       0.01406
  30     15.07        0.3570        0.0000        5.9734        5.9734       5.616396       0.01245
  29     18.79        0.3570        0.0000        5.9686        5.9687       5.611642       0.01078
  28     23.16        0.3570        0.0000        5.9638        5.9638       5.606791       0.00938
  27     28.12        0.3570        0.0000        5.9588        5.9588       5.601806       0.00847
  26     33.73        0.3570        0.0000        5.9533        5.9533       5.596278       0.00831
  25     40.54        0.3570        0.0000        5.9461        5.9461       5.589099       0.00891
  24     48.69        0.3570        0.0000        5.9364        5.9364       5.579437       0.01000
  23     57.69        0.3570        0.0000        5.9245        5.9245       5.567489       0.01120
  22     68.43        0.3570        0.0000        5.9088        5.9088       5.551773       0.01235
  21     81.20        0.3570        0.0000        5.8886        5.8886       5.531602       0.01333
  20     96.49        0.3570        0.0000        5.8634        5.8634       5.506381       0.01392
  19     114.6        0.3570        0.0000        5.8320        5.8320       5.474992       0.01466
  18     136.5        0.3571        0.0001        5.7951        5.7951       5.438070       0.01420
  17     162.9        0.3571        0.0001        5.7524        5.7524       5.395313       0.01367
  16     196.4        0.3572        0.0001        5.6991        5.6992       5.341968       0.01343
  15     218.7        0.3573        0.0001        5.6639        5.6640       5.306707       0.01339
  14     243.0        0.3574        0.0001        5.6226        5.6227       5.265302       0.01436
  13     269.0        0.3576        0.0001        5.5692        5.5693       5.211655       0.01740
  12     297.5        0.3579        0.0001        5.5027        5.5028       5.144871       0.01981
  11     328.5        0.3584        0.0001        5.4184        5.4185       5.060085       0.02305
  10     361.9        0.3592        0.0001        5.3088        5.3089       4.949746       0.02792
   9     398.1        0.3603        0.0001        5.1646        5.1647       4.804492       0.03384
   8     437.6        0.3618        0.0001        4.9782        4.9784       4.616578       0.04018
   7     480.5        0.3640        0.0001        4.7405        4.7407       4.376653       0.04712
   6     533.0        0.3678        0.0001        4.4369        4.4370       4.069250       0.04945
   5     589.8        0.3733        0.0002        4.1286        4.1287       3.755493       0.04657
   4     651.6        0.3812        0.0002        3.8185        3.8186       3.437420       0.04350
   3     718.7        0.3922        0.0002        3.5136        3.5137       3.121534       0.03970
   2     792.3        0.4068        0.0002        3.2205        3.2206       2.813770       0.03530
   1     891.5        0.4330        0.0002        2.8701        2.8702       2.437241       0.03204
   0    1013.0        0.4844        0.0001        2.4914        2.4916       2.007208       0.02986



 Wavenumbers:  3250. -  4000. cm-1, ATM      1
 LEVEL PRESSURE   UPWARD FLUX   DIFDOWN FLUX  DIRDOWN FLUX  DOWNWARD FLUX   NET FLUX    HEATING RATE
          mb          W/m2          W/m2          W/m2        W/m2          W/m2       degree/day
  51    .06700        0.0006        0.0000       10.1098       10.1098      10.109244       0.00000
  50    .07753        0.0006        0.0000       10.1049       10.1049      10.104301       3.96117
  49    .09103        0.0006        0.0000       10.1013       10.1013      10.100715       2.24192
  48    0.1069        0.0006        0.0000       10.0986       10.0986      10.098031       1.42869
  47    0.1255        0.0006        0.0000       10.0962       10.0962      10.095662       1.07394
  46    0.1487        0.0006        0.0000       10.0937       10.0937      10.093126       0.92425
  45    0.1794        0.0006        0.0000       10.0907       10.0907      10.090123       0.82433
  44    0.2165        0.0006        0.0000       10.0876       10.0876      10.087053       0.69838
  43    0.2613        0.0006        0.0000       10.0845       10.0845      10.083916       0.59138
  42    0.3336        0.0006        0.0000       10.0801       10.0801      10.079525       0.51189
  41    0.4307        0.0006        0.0000       10.0752       10.0752      10.074577       0.43022
  40    0.5894        0.0006        0.0000       10.0680       10.0680      10.067420       0.38061
  39     1.339        0.0006        0.0000       10.0405       10.0405      10.039916       0.30965
  38     1.782        0.0006        0.0000       10.0282       10.0282      10.027646       0.23359
  37     2.292        0.0006        0.0000       10.0164       10.0164      10.015837       0.19560
  36     2.964        0.0006        0.0000       10.0031       10.0031      10.002559       0.16667
  35     3.853        0.0006        0.0000        9.9874        9.9874       9.986867       0.14893
  34     5.035        0.0006        0.0000        9.9678        9.9678       9.967225       0.14031
  33     6.613        0.0006        0.0000        9.9418        9.9418       9.941254       0.13884
  32     8.786        0.0006        0.0000        9.9057        9.9058       9.905186       0.14007
  31     11.80        0.0006        0.0000        9.8521        9.8521       9.851546       0.15018
  30     15.07        0.0006        0.0000        9.7926        9.7927       9.792098       0.15348
  29     18.79        0.0006        0.0000        9.7241        9.7242       9.723617       0.15527
  28     23.16        0.0006        0.0000        9.6448        9.6448       9.644239       0.15349
  27     28.12        0.0005        0.0000        9.5573        9.5573       9.556769       0.14869
  26     33.73        0.0005        0.0000        9.4661        9.4661       9.465564       0.13713
  25     40.54        0.0005        0.0001        9.3662        9.3663       9.365743       0.12384
  24     48.69        0.0005        0.0001        9.2589        9.2590       9.258453       0.11103
  23     57.69        0.0005        0.0001        9.1520        9.1521       9.151553       0.10020
  22     68.43        0.0005        0.0001        9.0322        9.0323       9.031823       0.09412
  21     81.20        0.0005        0.0001        8.8934        8.8935       8.893005       0.09173
  20     96.49        0.0005        0.0001        8.7312        8.7313       8.730882       0.08948
  19     114.6        0.0004        0.0001        8.5354        8.5355       8.535051       0.09144
  18     136.5        0.0004        0.0002        8.3102        8.3103       8.309921       0.08657
  17     162.9        0.0004        0.0002        8.0243        8.0244       8.024064       0.09137
  16     196.4        0.0003        0.0002        7.5733        7.5735       7.573194       0.11349
  15     218.7        0.0003        0.0002        7.2407        7.2409       7.240603       0.12627
  14     243.0        0.0003        0.0002        6.8143        6.8146       6.814251       0.14787
  13     269.0        0.0003        0.0002        6.2281        6.2283       6.228059       0.19016
  12     297.5        0.0003        0.0002        5.5434        5.5436       5.543346       0.20308
  11     328.5        0.0002        0.0002        4.7959        4.7961       4.795895       0.20323
  10     361.9        0.0002        0.0002        4.0632        4.0634       4.063184       0.18538
   9     398.1        0.0002        0.0002        3.4246        3.4248       3.424602       0.14878
   8     437.6        0.0002        0.0002        2.8527        2.8529       2.852662       0.12228
   7     480.5        0.0002        0.0001        2.3146        2.3148       2.314568       0.10568
   6     533.0        0.0002        0.0001        1.7676        1.7677       1.767511       0.08800
   5     589.8        0.0002        0.0001        1.2847        1.2848       1.284518       0.07169
   4     651.6        0.0003        0.0001        0.8688        0.8688       0.868551       0.05688
   3     718.7        0.0004        0.0000        0.5555        0.5556       0.555146       0.03939
   2     792.3        0.0007        0.0000        0.3309        0.3309       0.330202       0.02580
   1     891.5        0.0016        0.0000        0.1419        0.1419       0.140374       0.01615
   0    1013.0        0.0066        0.0000        0.0337        0.0337       0.027150       0.00786



 Wavenumbers:  4000. -  4650. cm-1, ATM      1
 LEVEL PRESSURE   UPWARD FLUX   DIFDOWN FLUX  DIRDOWN FLUX  DOWNWARD FLUX   NET FLUX    HEATING RATE
          mb          W/m2          W/m2          W/m2        W/m2          W/m2       degree/day
  51    .06700        1.3928        0.0000       11.8720       11.8720      10.479224       0.00000
  50    .07753        1.3928        0.0000       11.8720       11.8720      10.479223       0.00079
  49    .09103        1.3928        0.0000       11.8720       11.8720      10.479222       0.00078
  48    0.1069        1.3928        0.0000       11.8720       11.8720      10.479220       0.00076
  47    0.1255        1.3928        0.0000       11.8720       11.8720      10.479219       0.00074
  46    0.1487        1.3928        0.0000       11.8720       11.8720      10.479217       0.00075
  45    0.1794        1.3928        0.0000       11.8720       11.8720      10.479214       0.00077
  44    0.2165        1.3928        0.0000       11.8720       11.8720      10.479210       0.00076
  43    0.2613        1.3928        0.0000       11.8720       11.8720      10.479206       0.00074
  42    0.3336        1.3928        0.0000       11.8720       11.8720      10.479200       0.00076
  41    0.4307        1.3928        0.0000       11.8720       11.8720      10.479191       0.00077
  40    0.5894        1.3928        0.0000       11.8719       11.8719      10.479176       0.00079
  39     1.339        1.3928        0.0000       11.8718       11.8718      10.479087       0.00100
  38     1.782        1.3928        0.0000       11.8718       11.8718      10.479018       0.00132
  37     2.292        1.3928        0.0000       11.8717       11.8717      10.478924       0.00155
  36     2.964        1.3928        0.0000       11.8715       11.8715      10.478785       0.00175
  35     3.853        1.3928        0.0000       11.8713       11.8713      10.478578       0.00196
  34     5.035        1.3927        0.0000       11.8710       11.8710      10.478273       0.00218
  33     6.613        1.3927        0.0000       11.8705       11.8706      10.477824       0.00240
  32     8.786        1.3927        0.0000       11.8699       11.8699      10.477160       0.00258
  31     11.80        1.3927        0.0000       11.8688       11.8688      10.476119       0.00292
  30     15.07        1.3927        0.0001       11.8676       11.8676      10.474896       0.00316
  29     18.79        1.3927        0.0001       11.8661       11.8661      10.473418       0.00335
  28     23.16        1.3927        0.0001       11.8642       11.8643      10.471582       0.00355
  27     28.12        1.3927        0.0001       11.8619       11.8620      10.469360       0.00378
  26     33.73        1.3927        0.0001       11.8592       11.8593      10.466620       0.00412
  25     40.54        1.3927        0.0002       11.8554       11.8556      10.462902       0.00461
  24     48.69        1.3926        0.0002       11.8504       11.8506      10.457949       0.00513
  23     57.69        1.3926        0.0002       11.8445       11.8447      10.452075       0.00551
  22     68.43        1.3926        0.0003       11.8371       11.8373      10.444719       0.00578
  21     81.20        1.3926        0.0003       11.8280       11.8283      10.435660       0.00599
  20     96.49        1.3926        0.0004       11.8169       11.8172      10.424635       0.00609
  19     114.6        1.3926        0.0004       11.8029       11.8033      10.410735       0.00649
  18     136.5        1.3926        0.0005       11.7860       11.7865      10.393864       0.00649
  17     162.9        1.3927        0.0006       11.7649       11.7655      10.372767       0.00674
  16     196.4        1.3929        0.0007       11.7350       11.7358      10.342860       0.00753
  15     218.7        1.3931        0.0008       11.7127       11.7135      10.320434       0.00851
  14     243.0        1.3933        0.0009       11.6837       11.6846      10.291216       0.01013
  13     269.0        1.3938        0.0010       11.6419       11.6429      10.249036       0.01368
  12     297.5        1.3946        0.0011       11.5851       11.5863      10.191662       0.01702
  11     328.5        1.3957        0.0012       11.5061       11.5074      10.111664       0.02175
  10     361.9        1.3972        0.0013       11.3956       11.3970       9.999787       0.02831
   9     398.1        1.3991        0.0014       11.2501       11.2516       9.852479       0.03432
   8     437.6        1.4017        0.0016       11.0711       11.0727       9.671000       0.03880
   7     480.5        1.4053        0.0017       10.8624       10.8640       9.458774       0.04168
   6     533.0        1.4110        0.0018       10.6052       10.6070       9.196011       0.04227
   5     589.8        1.4194        0.0019       10.3111       10.3130       8.893581       0.04489
   4     651.6        1.4317        0.0021        9.9503        9.9524       8.520657       0.05100
   3     718.7        1.4487        0.0022        9.5475        9.5497       8.100949       0.05275
   2     792.3        1.4709        0.0023        9.1478        9.1501       7.679162       0.04837
   1     891.5        1.5099        0.0025        8.6704        8.6730       7.163058       0.04392
   0    1013.0        1.5841        0.0027        8.1452        8.1479       6.563795       0.04161



 Wavenumbers:  4650. -  5150. cm-1, ATM      1
 LEVEL PRESSURE   UPWARD FLUX   DIFDOWN FLUX  DIRDOWN FLUX  DOWNWARD FLUX   NET FLUX    HEATING RATE
          mb          W/m2          W/m2          W/m2        W/m2          W/m2       degree/day
  51    .06700        0.9674        0.0000       11.2374       11.2374      10.269983       0.00000
  50    .07753        0.9674        0.0000       11.2372       11.2372      10.269747       0.18915
  49    .09103        0.9674        0.0000       11.2369       11.2369      10.269452       0.18451
  48    0.1069        0.9674        0.0000       11.2365       11.2365      10.269114       0.17963
  47    0.1255        0.9674        0.0000       11.2361       11.2361      10.268729       0.17468
  46    0.1487        0.9674        0.0000       11.2357       11.2357      10.268247       0.17592
  45    0.1794        0.9674        0.0000       11.2350       11.2350      10.267594       0.17925
  44    0.2165        0.9674        0.0000       11.2342       11.2342      10.266830       0.17371
  43    0.2613        0.9674        0.0000       11.2334       11.2334      10.265938       0.16805
  42    0.3336        0.9674        0.0000       11.2319       11.2319      10.264493       0.16851
  41    0.4307        0.9674        0.0000       11.2300       11.2300      10.262631       0.16192
  40    0.5894        0.9674        0.0000       11.2271       11.2271      10.259719       0.15486
  39     1.339        0.9674        0.0000       11.2152       11.2152      10.247774       0.13448
  38     1.782        0.9674        0.0000       11.2094       11.2094      10.241968       0.11053
  37     2.292        0.9674        0.0000       11.2036       11.2036      10.236173       0.09598
  36     2.964        0.9674        0.0000       11.1972       11.1972      10.229790       0.08013
  35     3.853        0.9674        0.0000       11.1904       11.1904      10.222992       0.06451
  34     5.035        0.9674        0.0000       11.1833       11.1834      10.215986       0.05005
  33     6.613        0.9674        0.0000       11.1762       11.1762      10.208844       0.03818
  32     8.786        0.9674        0.0001       11.1686       11.1686      10.201237       0.02954
  31     11.80        0.9674        0.0001       11.1591       11.1591      10.191758       0.02654
  30     15.07        0.9674        0.0001       11.1489       11.1490      10.181665       0.02606
  29     18.79        0.9673        0.0001       11.1368       11.1369      10.169522       0.02753
  28     23.16        0.9673        0.0001       11.1213       11.1214      10.154080       0.02986
  27     28.12        0.9673        0.0002       11.1019       11.1021      10.134792       0.03279
  26     33.73        0.9673        0.0002       11.0785       11.0787      10.111404       0.03516
  25     40.54        0.9673        0.0002       11.0481       11.0483      10.081015       0.03770
  24     48.69        0.9673        0.0003       11.0091       11.0094      10.042064       0.04031
  23     57.69        0.9673        0.0003       10.9644       10.9647       9.997442       0.04183
  22     68.43        0.9673        0.0004       10.9099       10.9103       9.942966       0.04283
  21     81.20        0.9673        0.0005       10.8447       10.8452       9.877858       0.04302
  20     96.49        0.9674        0.0005       10.7691       10.7697       9.802276       0.04172
  19     114.6        0.9675        0.0006       10.6839       10.6846       9.717093       0.03977
  18     136.5        0.9676        0.0007       10.5911       10.5918       9.624208       0.03572
  17     162.9        0.9678        0.0009       10.4913       10.4922       9.524358       0.03192
  16     196.4        0.9681        0.0011       10.3758       10.3769       9.408741       0.02910
  15     218.7        0.9684        0.0012       10.3049       10.3061       9.337675       0.02698
  14     243.0        0.9688        0.0013       10.2286       10.2299       9.261072       0.02657
  13     269.0        0.9695        0.0014       10.1410       10.1424       9.172950       0.02859
  12     297.5        0.9704        0.0016       10.0368       10.0384       9.067999       0.03113
  11     328.5        0.9717        0.0021        9.9114        9.9135       8.941841       0.03430
  10     361.9        0.9734        0.0022        9.7598        9.7619       8.788497       0.03880
   9     398.1        0.9758        0.0023        9.5765        9.5787       8.602939       0.04323
   8     437.6        0.9790        0.0024        9.3551        9.3574       8.378393       0.04801
   7     480.5        0.9835        0.0025        9.0865        9.0889       8.105456       0.05360
   6     533.0        0.9905        0.0031        8.7268        8.7299       7.739380       0.05889
   5     589.8        1.0003        0.0033        8.3271        8.3303       7.330004       0.06076
   4     651.6        1.0142        0.0032        7.8994        7.9026       6.888414       0.06039
   3     718.7        1.0331        0.0032        7.4776        7.4809       6.447829       0.05537
   2     792.3        1.0579        0.0032        7.0780        7.0812       6.023271       0.04869
   1     891.5        1.1016        0.0032        6.5994        6.6026       5.500993       0.04444
   0    1013.0        1.1804        0.0033        6.0678        6.0710       4.890624       0.04238



 Wavenumbers:  5150. -  6150. cm-1, ATM      1
 LEVEL PRESSURE   UPWARD FLUX   DIFDOWN FLUX  DIRDOWN FLUX  DOWNWARD FLUX   NET FLUX    HEATING RATE
          mb          W/m2          W/m2          W/m2        W/m2          W/m2       degree/day
  51    .06700        2.4599        0.0000       28.1722       28.1722      25.712318       0.00000
  50    .07753        2.4599        0.0000       28.1722       28.1722      25.712284       0.02761
  49    .09103        2.4599        0.0000       28.1721       28.1721      25.712239       0.02811
  48    0.1069        2.4599        0.0000       28.1721       28.1721      25.712185       0.02860
  47    0.1255        2.4599        0.0000       28.1720       28.1720      25.712121       0.02906
  46    0.1487        2.4599        0.0000       28.1719       28.1719      25.712037       0.03062
  45    0.1794        2.4599        0.0000       28.1718       28.1718      25.711918       0.03272
  44    0.2165        2.4599        0.0000       28.1716       28.1716      25.711771       0.03335
  43    0.2613        2.4599        0.0000       28.1715       28.1715      25.711592       0.03382
  42    0.3336        2.4599        0.0000       28.1712       28.1712      25.711286       0.03572
  41    0.4307        2.4599        0.0000       28.1707       28.1707      25.710865       0.03657
  40    0.5894        2.4599        0.0000       28.1700       28.1700      25.710161       0.03745
  39     1.339        2.4599        0.0000       28.1665       28.1666      25.706720       0.03874
  38     1.782        2.4598        0.0000       28.1645       28.1645      25.704688       0.03868
  37     2.292        2.4598        0.0001       28.1621       28.1622      25.702347       0.03877
  36     2.964        2.4598        0.0001       28.1590       28.1591      25.699294       0.03833
  35     3.853        2.4598        0.0001       28.1550       28.1551      25.695299       0.03792
  34     5.035        2.4598        0.0001       28.1497       28.1498      25.690059       0.03743
  33     6.613        2.4597        0.0002       28.1428       28.1429      25.683184       0.03675
  32     8.786        2.4597        0.0002       28.1336       28.1339      25.674164       0.03503
  31     11.80        2.4597        0.0003       28.1211       28.1214      25.661745       0.03477
  30     15.07        2.4596        0.0004       28.1082       28.1086      25.649023       0.03284
  29     18.79        2.4595        0.0005       28.0944       28.0949      25.635372       0.03095
  28     23.16        2.4595        0.0006       28.0791       28.0797      25.620279       0.02918
  27     28.12        2.4594        0.0007       28.0628       28.0635      25.604108       0.02749
  26     33.73        2.4593        0.0009       28.0457       28.0465      25.587242       0.02536
  25     40.54        2.4592        0.0011       28.0266       28.0277      25.568464       0.02330
  24     48.69        2.4591        0.0013       28.0056       28.0069      25.547797       0.02139
  23     57.69        2.4590        0.0015       27.9848       27.9863      25.527328       0.01919
  22     68.43        2.4589        0.0018       27.9628       27.9646      25.505767       0.01695
  21     81.20        2.4587        0.0022       27.9390       27.9412      25.482484       0.01539
  20     96.49        2.4586        0.0025       27.9127       27.9153      25.456718       0.01422
  19     114.6        2.4584        0.0030       27.8827       27.8857      25.427321       0.01373
  18     136.5        2.4582        0.0036       27.8434       27.8470      25.388845       0.01479
  17     162.9        2.4579        0.0042       27.7758       27.7801      25.322167       0.02131
  16     196.4        2.4576        0.0050       27.6280       27.6331      25.175453       0.03693
  15     218.7        2.4575        0.0056       27.4538       27.4594      25.001928       0.06588
  14     243.0        2.4573        0.0061       27.1119       27.1180      24.660661       0.11836
  13     269.0        2.4572        0.0066       26.4485       26.4552      23.997918       0.21499
  12     297.5        2.4573        0.0071       25.6262       25.6332      23.175940       0.24379
  11     328.5        2.4575        0.0075       24.6761       24.6836      22.226095       0.25826
  10     361.9        2.4580        0.0079       23.5263       23.5342      21.076236       0.29093
   9     398.1        2.4588        0.0081       22.2730       22.2811      19.822273       0.29215
   8     437.6        2.4602        0.0086       20.9730       20.9816      18.521415       0.27813
   7     480.5        2.4625        0.0088       19.6479       19.6567      17.194199       0.26066
   6     533.0        2.4666        0.0093       18.3072       18.3165      15.849886       0.21626
   5     589.8        2.4733        0.0096       17.2300       17.2396      14.766290       0.16084
   4     651.6        2.4839        0.0100       16.3854       16.3954      13.911492       0.11690
   3     718.7        2.4998        0.0106       15.7307       15.7413      13.241519       0.08420
   2     792.3        2.5224        0.0113       15.1739       15.1853      12.662881       0.06636
   1     891.5        2.5667        0.0123       14.4924       14.5047      11.937993       0.06168
   0    1013.0        2.6670        0.0137       13.7016       13.7154      11.048346       0.06177



 Wavenumbers:  6150. -  7700. cm-1, ATM      1
 LEVEL PRESSURE   UPWARD FLUX   DIFDOWN FLUX  DIRDOWN FLUX  DOWNWARD FLUX   NET FLUX    HEATING RATE
          mb          W/m2          W/m2          W/m2        W/m2          W/m2       degree/day
  51    .06700        3.7226        0.0000       52.1056       52.1056      48.382963       0.00000
  50    .07753        3.7226        0.0000       52.1055       52.1055      48.382911       0.04144
  49    .09103        3.7226        0.0000       52.1054       52.1054      48.382844       0.04174
  48    0.1069        3.7226        0.0000       52.1054       52.1054      48.382765       0.04203
  47    0.1255        3.7226        0.0000       52.1053       52.1053      48.382672       0.04228
  46    0.1487        3.7226        0.0000       52.1051       52.1051      48.382551       0.04413
  45    0.1794        3.7226        0.0000       52.1050       52.1050      48.382381       0.04672
  44    0.2165        3.7226        0.0000       52.1047       52.1048      48.382173       0.04719
  43    0.2613        3.7226        0.0000       52.1045       52.1045      48.381922       0.04749
  42    0.3336        3.7226        0.0000       52.1040       52.1041      48.381494       0.04981
  41    0.4307        3.7226        0.0000       52.1034       52.1035      48.380912       0.05062
  40    0.5894        3.7225        0.0001       52.1024       52.1025      48.379942       0.05160
  39     1.339        3.7225        0.0001       52.0976       52.0977      48.375231       0.05304
  38     1.782        3.7224        0.0002       52.0947       52.0949      48.372453       0.05287
  37     2.292        3.7224        0.0002       52.0914       52.0916      48.369253       0.05300
  36     2.964        3.7223        0.0003       52.0871       52.0874      48.365075       0.05245
  35     3.853        3.7222        0.0004       52.0814       52.0818      48.359595       0.05200
  34     5.035        3.7221        0.0006       52.0739       52.0745      48.352386       0.05150
  33     6.613        3.7220        0.0007       52.0641       52.0648      48.342877       0.05083
  32     8.786        3.7217        0.0010       52.0511       52.0520      48.330300       0.04885
  31     11.80        3.7214        0.0013       52.0329       52.0342      48.312769       0.04908
  30     15.07        3.7211        0.0017       52.0140       52.0157      48.294535       0.04708
  29     18.79        3.7208        0.0021       51.9933       51.9954      48.274627       0.04514
  28     23.16        3.7203        0.0026       51.9700       51.9726      48.252244       0.04328
  27     28.12        3.7198        0.0031       51.9444       51.9475      48.227683       0.04175
  26     33.73        3.7193        0.0037       51.9170       51.9207      48.201449       0.03944
  25     40.54        3.7186        0.0044       51.8856       51.8901      48.171470       0.03719
  24     48.69        3.7178        0.0053       51.8501       51.8554      48.137580       0.03507
  23     57.69        3.7169        0.0063       51.8138       51.8201      48.103150       0.03227
  22     68.43        3.7159        0.0075       51.7741       51.7816      48.065650       0.02948
  21     81.20        3.7147        0.0089       51.7298       51.7387      48.024064       0.02748
  20     96.49        3.7132        0.0105       51.6797       51.6902      47.977084       0.02593
  19     114.6        3.7114        0.0125       51.6215       51.6340      47.922597       0.02544
  18     136.5        3.7093        0.0149       51.5462       51.5610      47.851746       0.02724
  17     162.9        3.7068        0.0177       51.4216       51.4393      47.732527       0.03811
  16     196.4        3.7036        0.0212       51.1694       51.1906      47.486992       0.06180
  15     218.7        3.7015        0.0234       50.9125       50.9360      47.234441       0.09588
  14     243.0        3.6994        0.0258       50.4557       50.4815      46.782100       0.15689
  13     269.0        3.6972        0.0288       49.5048       49.5336      45.836429       0.30677
  12     297.5        3.6951        0.0310       48.1014       48.1323      44.437214       0.41499
  11     328.5        3.6933        0.0325       46.4256       46.4580      42.764689       0.45475
  10     361.9        3.6921        0.0337       44.5128       44.5465      40.854362       0.48333
   9     398.1        3.6917        0.0350       42.3092       42.3442      38.652470       0.51299
   8     437.6        3.6927        0.0369       39.8880       39.9249      36.232241       0.51746
   7     480.5        3.6961        0.0384       37.2900       37.3284      33.632335       0.51061
   6     533.0        3.7045        0.0389       34.4000       34.4389      30.734389       0.46619
   5     589.8        3.7199        0.0408       31.7492       31.7900      28.070095       0.39547
   4     651.6        3.7463        0.0413       29.3309       29.3721      25.625829       0.33426
   3     718.7        3.7869        0.0423       27.2356       27.2779      23.490911       0.26830
   2     792.3        3.8451        0.0438       25.4674       25.5113      21.666140       0.20928
   1     891.5        3.9581        0.0465       23.5511       23.5976      19.639574       0.17245
   0    1013.0        4.2062        0.0492       21.5733       21.6225      17.416338       0.15437



 Wavenumbers:  7700. -  8050. cm-1, ATM      1
 LEVEL PRESSURE   UPWARD FLUX   DIFDOWN FLUX  DIRDOWN FLUX  DOWNWARD FLUX   NET FLUX    HEATING RATE
          mb          W/m2          W/m2          W/m2        W/m2          W/m2       degree/day
  51    .06700        1.9355        0.0000       12.3141       12.3141      10.378633       0.00000
  50    .07753        1.9355        0.0000       12.3141       12.3141      10.378614       0.01525
  49    .09103        1.9355        0.0000       12.3141       12.3141      10.378590       0.01495
  48    0.1069        1.9355        0.0000       12.3140       12.3140      10.378562       0.01463
  47    0.1255        1.9355        0.0000       12.3140       12.3140      10.378531       0.01432
  46    0.1487        1.9355        0.0000       12.3140       12.3140      10.378491       0.01453
  45    0.1794        1.9355        0.0000       12.3139       12.3139      10.378436       0.01495
  44    0.2165        1.9355        0.0000       12.3138       12.3138      10.378372       0.01467
  43    0.2613        1.9355        0.0000       12.3138       12.3138      10.378296       0.01439
  42    0.3336        1.9355        0.0000       12.3136       12.3137      10.378169       0.01473
  41    0.4307        1.9355        0.0000       12.3135       12.3135      10.378002       0.01457
  40    0.5894        1.9355        0.0000       12.3132       12.3132      10.377728       0.01455
  39     1.339        1.9356        0.0001       12.3119       12.3120      10.376434       0.01457
  38     1.782        1.9356        0.0001       12.3112       12.3113      10.375674       0.01447
  37     2.292        1.9356        0.0001       12.3103       12.3104      10.374794       0.01457
  36     2.964        1.9357        0.0001       12.3092       12.3093      10.373638       0.01450
  35     3.853        1.9358        0.0002       12.3077       12.3079      10.372112       0.01448
  34     5.035        1.9359        0.0002       12.3057       12.3060      10.370085       0.01448
  33     6.613        1.9360        0.0003       12.3031       12.3034      10.367378       0.01447
  32     8.786        1.9362        0.0004       12.2995       12.2999      10.363732       0.01416
  31     11.80        1.9364        0.0005       12.2944       12.2950      10.358520       0.01459
  30     15.07        1.9367        0.0007       12.2890       12.2896      10.352931       0.01443
  29     18.79        1.9370        0.0008       12.2828       12.2836      10.346625       0.01430
  28     23.16        1.9374        0.0010       12.2756       12.2766      10.339271       0.01422
  27     28.12        1.9378        0.0013       12.2674       12.2687      10.330879       0.01427
  26     33.73        1.9383        0.0015       12.2582       12.2598      10.321509       0.01409
  25     40.54        1.9388        0.0018       12.2472       12.2490      10.310222       0.01400
  24     48.69        1.9395        0.0022       12.2340       12.2362      10.296662       0.01403
  23     57.69        1.9403        0.0026       12.2195       12.2221      10.281830       0.01390
  22     68.43        1.9412        0.0031       12.2024       12.2054      10.264251       0.01382
  21     81.20        1.9423        0.0036       12.1821       12.1857      10.243432       0.01376
  20     96.49        1.9436        0.0043       12.1581       12.1624      10.218799       0.01360
  19     114.6        1.9452        0.0051       12.1299       12.1350      10.189797       0.01354
  18     136.5        1.9471        0.0061       12.0968       12.1029      10.155758       0.01309
  17     162.9        1.9494        0.0072       12.0579       12.0651      10.115682       0.01281
  16     196.4        1.9525        0.0087       12.0083       12.0169      10.064412       0.01291
  15     218.7        1.9546        0.0096       11.9761       11.9857      10.031131       0.01264
  14     243.0        1.9569        0.0107       11.9415       11.9521       9.995254       0.01244
  13     269.0        1.9594        0.0118       11.9042       11.9160       9.956608       0.01254
  12     297.5        1.9623        0.0130       11.8642       11.8773       9.914999       0.01234
  11     328.5        1.9654        0.0143       11.8211       11.8355       9.870029       0.01223
  10     361.9        1.9690        0.0157       11.7747       11.7904       9.821364       0.01231
   9     398.1        1.9731        0.0172       11.7244       11.7416       9.768478       0.01232
   8     437.6        1.9778        0.0189       11.6696       11.6885       9.710702       0.01235
   7     480.5        1.9832        0.0206       11.6094       11.6300       9.646741       0.01256
   6     533.0        1.9906        0.0226       11.5328       11.5554       9.564746       0.01319
   5     589.8        1.9996        0.0249       11.4465       11.4714       9.471807       0.01380
   4     651.6        2.0105        0.0274       11.3488       11.3762       9.365710       0.01451
   3     718.7        2.0237        0.0300       11.2396       11.2696       9.245889       0.01506
   2     792.3        2.0393        0.0326       11.1197       11.1523       9.113037       0.01524
   1     891.5        2.0631        0.0362       10.9527       10.9890       8.925860       0.01593
   0    1013.0        2.0976        0.0404       10.7380       10.7785       8.680861       0.01701



 Wavenumbers:  8050. - 12850. cm-1, ATM      1
 LEVEL PRESSURE   UPWARD FLUX   DIFDOWN FLUX  DIRDOWN FLUX  DOWNWARD FLUX   NET FLUX    HEATING RATE
          mb          W/m2          W/m2          W/m2        W/m2          W/m2       degree/day
  51    .06700       24.8066        0.0000      172.4064      172.4064     147.599815       0.00000
  50    .07753       24.8066        0.0000      172.4064      172.4064     147.599815       0.00000
  49    .09103       24.8066        0.0001      172.4063      172.4064     147.599815      -0.00000
  48    0.1069       24.8065        0.0001      172.4063      172.4063     147.599815       0.00000
  47    0.1255       24.8065        0.0001      172.4062      172.4063     147.599815       0.00000
  46    0.1487       24.8065        0.0002      172.4061      172.4063     147.599815      -0.00000
  45    0.1794       24.8064        0.0002      172.4060      172.4062     147.599815       0.00000
  44    0.2165       24.8063        0.0003      172.4058      172.4062     147.599815      -0.00000
  43    0.2613       24.8063        0.0004      172.4056      172.4061     147.599815       0.00000
  42    0.3336       24.8061        0.0006      172.4054      172.4059     147.599815       0.00000
  41    0.4307       24.8060        0.0008      172.4050      172.4058     147.599815       0.00000
  40    0.5894       24.8057        0.0012      172.4044      172.4055     147.599815      -0.00000
  39     1.339       24.8044        0.0028      172.4014      172.4042     147.599815       0.00000
  38     1.782       24.8036        0.0038      172.3997      172.4034     147.599815       0.00000
  37     2.292       24.8027        0.0049      172.3976      172.4025     147.599815      -0.00000
  36     2.964       24.8016        0.0064      172.3950      172.4014     147.599815       0.00000
  35     3.853       24.8000        0.0083      172.3915      172.3998     147.599815       0.00000
  34     5.035       24.7980        0.0109      172.3869      172.3978     147.599815       0.00000
  33     6.613       24.7952        0.0144      172.3807      172.3950     147.599815      -0.00000
  32     8.786       24.7915        0.0190      172.3723      172.3913     147.599815       0.00000
  31     11.80       24.7862        0.0257      172.3603      172.3860     147.599815       0.00000
  30     15.07       24.7805        0.0329      172.3474      172.3803     147.599815       0.00000
  29     18.79       24.7741        0.0410      172.3329      172.3739     147.599815       0.00000
  28     23.16       24.7666        0.0505      172.3159      172.3664     147.599815       0.00000
  27     28.12       24.7579        0.0614      172.2964      172.3578     147.599815      -0.00000
  26     33.73       24.7483        0.0736      172.2745      172.3481     147.599815       0.00000
  25     40.54       24.7366        0.0883      172.2481      172.3364     147.599815       0.00000
  24     48.69       24.7225        0.1061      172.2162      172.3223     147.599815      -0.00000
  23     57.69       24.7069        0.1257      172.1811      172.3067     147.599815       0.00000
  22     68.43       24.6884        0.1490      172.1392      172.2882     147.599815       0.00000
  21     81.20       24.6663        0.1769      172.0892      172.2661     147.599815      -0.00000
  20     96.49       24.6399        0.2101      172.0296      172.2397     147.599815       0.00000
  19     114.6       24.6085        0.2497      171.9509      172.2006     147.592099       0.00360
  18     136.5       24.5712        0.2966      171.8556      172.1522     147.580944       0.00429
  17     162.9       24.5268        0.3526      171.7323      172.0849     147.558138       0.00729
  16     196.4       24.4690        0.4254      171.5398      171.9653     147.496221       0.01559
  15     218.7       24.4310        0.4732      171.3733      171.8465     147.415484       0.03065
  14     243.0       24.3898        0.5252      171.1148      171.6400     147.250200       0.05733
  13     269.0       24.3457        0.5814      170.6527      171.2340     146.888365       0.11738
  12     297.5       24.2989        0.6415      169.9823      170.6238     146.324885       0.16712
  11     328.5       24.2501        0.7059      169.0968      169.8027     145.552649       0.20997
  10     361.9       24.2002        0.7742      167.9394      168.7136     144.513447       0.26293
   9     398.1       24.1504        0.8465      166.4268      167.2732     143.122810       0.32399
   8     437.6       24.1034        0.9222      164.4776      165.3998     141.296394       0.39050
   7     480.5       24.0642        1.0017      161.9434      162.9451     138.880920       0.47439
   6     533.0       24.0347        1.0925      158.4335      159.5261     135.491346       0.54527
   5     589.8       24.0310        1.1905      154.4081      155.5987     131.567721       0.58239
   4     651.6       24.0688        1.2880      149.9682      151.2562     127.187399       0.59902
   3     718.7       24.1590        1.3875      145.4045      146.7919     122.632877       0.57238
   2     792.3       24.3124        1.4938      140.8819      142.3758     118.063401       0.52407
   1     891.5       24.6465        1.6308      135.1490      136.7798     112.133350       0.50462
   0    1013.0       25.4109        1.7841      128.4175      130.2016     104.790647       0.50984



 Wavenumbers: 12850. - 16000. cm-1, ATM      1
 LEVEL PRESSURE   UPWARD FLUX   DIFDOWN FLUX  DIRDOWN FLUX  DOWNWARD FLUX   NET FLUX    HEATING RATE
          mb          W/m2          W/m2          W/m2        W/m2          W/m2       degree/day
  51    .06700       48.6802        0.0000      108.0279      108.0279      59.347648       0.00000
  50    .07753       48.6802        0.0001      108.0270      108.0271      59.346863       0.62934
  49    .09103       48.6802        0.0001      108.0259      108.0260      59.345877       0.61611
  48    0.1069       48.6801        0.0002      108.0247      108.0249      59.344745       0.60256
  47    0.1255       48.6801        0.0003      108.0232      108.0236      59.343445       0.58923
  46    0.1487       48.6801        0.0005      108.0215      108.0219      59.341806       0.59741
  45    0.1794       48.6801        0.0006      108.0190      108.0197      59.339578       0.61173
  44    0.2165       48.6801        0.0008      108.0162      108.0170      59.336958       0.59592
  43    0.2613       48.6801        0.0011      108.0129      108.0139      59.333880       0.58022
  42    0.3336       48.6801        0.0015      108.0075      108.0090      59.328856       0.58571
  41    0.4307       48.6802        0.0020      108.0005      108.0026      59.322377       0.56333
  40    0.5894       48.6804        0.0029      107.9897      107.9926      59.312176       0.54249
  39     1.339       48.6833        0.0071      107.9429      107.9500      59.266669       0.51233
  38     1.782       48.6864        0.0095      107.9170      107.9265      59.240123       0.50538
  37     2.292       48.6911        0.0123      107.8866      107.8989      59.207795       0.53544
  36     2.964       48.6992        0.0161      107.8447      107.8607      59.161490       0.58127
  35     3.853       48.7127        0.0210      107.7854      107.8063      59.093675       0.64357
  34     5.035       48.7331        0.0275      107.7024      107.7299      58.996753       0.69237
  33     6.613       48.7618        0.0362      107.5902      107.6263      58.864535       0.70684
  32     8.786       48.7990        0.0479      107.4443      107.4921      58.693130       0.66568
  31     11.80       48.8470        0.0646      107.2509      107.3155      58.468487       0.62893
  30     15.07       48.8925        0.0825      107.0607      107.1432      58.250692       0.56230
  29     18.79       48.9384        0.1027      106.8615      106.9642      58.025805       0.50989
  28     23.16       48.9857        0.1262      106.6468      106.7730      57.787323       0.46115
  27     28.12       49.0325        0.1532      106.4221      106.5753      57.542824       0.41563
  26     33.73       49.0743        0.1834      106.1997      106.3831      57.308816       0.35184
  25     40.54       49.1126        0.2198      105.9647      106.1846      57.071948       0.29386
  24     48.69       49.1470        0.2638      105.7151      105.9788      56.831865       0.24845
  23     57.69       49.1732        0.3120      105.4739      105.7859      56.612660       0.20547
  22     68.43       49.1921        0.3695      105.2226      105.5921      56.399984       0.16719
  21     81.20       49.1975        0.4380      104.9711      105.4091      56.211614       0.12447
  20     96.49       49.1882        0.5197      104.7165      105.2362      56.048051       0.09028
  19     114.6       49.1773        0.6175      104.4369      105.0545      55.877134       0.07981
  18     136.5       49.1573        0.7334      104.1230      104.8564      55.699055       0.06848
  17     162.9       49.1269        0.8714      103.7615      104.6329      55.505975       0.06172
  16     196.4       49.0737        1.0503      103.3149      104.3653      55.291627       0.05395
  15     218.7       49.0336        1.1677      103.0276      104.1953      55.161633       0.04935
  14     243.0       48.9879        1.2951      102.7154      104.0105      55.022605       0.04822
  13     269.0       48.9365        1.4333      102.3752      103.8085      54.871982       0.04886
  12     297.5       48.8796        1.5824      102.0030      103.5855      54.705825       0.04928
  11     328.5       48.8188        1.7434      101.5911      103.3345      54.515637       0.05171
  10     361.9       48.7551        1.9166      101.1330      103.0496      54.294490       0.05595
   9     398.1       48.6898        2.1027      100.6216      102.7243      54.034467       0.06058
   8     437.6       48.6258        2.3022      100.0434      102.3456      53.719840       0.06727
   7     480.5       48.5683        2.5152       99.3756      101.8909      53.322588       0.07802
   6     533.0       48.5163        2.7767       98.4858      101.2625      52.746270       0.09271
   5     589.8       48.4837        3.0555       97.4632      100.5186      52.034925       0.10559
   4     651.6       48.4813        3.3511       96.2921       99.6432      51.161894       0.11939
   3     718.7       48.5154        3.6651       94.9934       98.6584      50.143038       0.12804
   2     792.3       48.5941        3.9967       93.5935       97.5902      48.996116       0.13154
   1     891.5       48.7890        4.4366       91.6868       96.1234      47.334393       0.14140
   0    1013.0       49.2173        4.9510       89.3455       94.2965      45.079206       0.15659



 Wavenumbers: 16000. - 22650. cm-1, ATM      1
 LEVEL PRESSURE   UPWARD FLUX   DIFDOWN FLUX  DIRDOWN FLUX  DOWNWARD FLUX   NET FLUX    HEATING RATE
          mb          W/m2          W/m2          W/m2        W/m2          W/m2       degree/day
  51    .06700      123.4746        0.0000      172.2385      172.2385      48.763824       0.00000
  50    .07753      123.4746        0.0004      172.2379      172.2383      48.763685       0.11179
  49    .09103      123.4745        0.0009      172.2372      172.2380      48.763482       0.12680
  48    0.1069      123.4745        0.0014      172.2363      172.2377      48.763210       0.14459
  47    0.1255      123.4744        0.0020      172.2353      172.2373      48.762847       0.16482
  46    0.1487      123.4744        0.0028      172.2339      172.2367      48.762311       0.19530
  45    0.1794      123.4745        0.0039      172.2320      172.2359      48.761473       0.22996
  44    0.2165      123.4745        0.0052      172.2297      172.2349      48.760337       0.25845
  43    0.2613      123.4747        0.0067      172.2268      172.2335      48.758796       0.29055
  42    0.3336      123.4752        0.0092      172.2219      172.2310      48.755865       0.34169
  41    0.4307      123.4760        0.0125      172.2149      172.2274      48.751447       0.38409
  40    0.5894      123.4778        0.0180      172.2029      172.2209      48.743022       0.44803
  39     1.339      123.4955        0.0437      172.1326      172.1763      48.680778       0.70076
  38     1.782      123.5126        0.0588      172.0816      172.1403      48.627753       1.00950
  37     2.292      123.5385        0.0762      172.0133      172.0895      48.551000       1.27124
  36     2.964      123.5822        0.0992      171.9097      172.0088      48.426659       1.56085
  35     3.853      123.6533        0.1294      171.7532      171.8826      48.229362       1.87239
  34     5.035      123.7610        0.1696      171.5264      171.6960      47.935014       2.10270
  33     6.613      123.9117        0.2232      171.2145      171.4376      47.525962       2.18679
  32     8.786      124.1078        0.2953      170.8061      171.1015      46.993706       2.06709
  31     11.80      124.3622        0.3984      170.2631      170.6615      46.299272       1.94420
  30     15.07      124.6049        0.5089      169.7274      170.2362      45.631276       1.72464
  29     18.79      124.8517        0.6335      169.1650      169.7984      44.946670       1.55221
  28     23.16      125.1084        0.7788      168.5570      169.3358      44.227358       1.39092
  27     28.12      125.3650        0.9447      167.9182      168.8629      43.497892       1.24004
  26     33.73      125.5991        1.1303      167.2816      168.4119      42.812742       1.03014
  25     40.54      125.8206        1.3542      166.6019      167.9562      42.135603       0.84007
  24     48.69      126.0279        1.6239      165.8692      167.4932      41.465265       0.69369
  23     57.69      126.1980        1.9199      165.1474      167.0673      40.869303       0.55862
  22     68.43      126.3383        2.2719      164.3763      166.6482      40.309886       0.43978
  21     81.20      126.4203        2.6911      163.5763      166.2674      39.847144       0.30577
  20     96.49      126.4388        3.1901      162.7327      165.9228      39.484030       0.20041
  19     114.6      126.4200        3.7808      161.7909      165.5717      39.151744       0.15515
  18     136.5      126.3699        4.4784      160.7164      165.1948      38.824873       0.12569
  17     162.9      126.2850        5.3052      159.4772      164.7825      38.497439       0.10466
  16     196.4      126.1205        6.3721      157.9513      164.3234      38.202882       0.07414
  15     218.7      125.9923        7.0692      156.9809      164.0501      38.057751       0.05510
  14     243.0      125.8436        7.8238      155.9428      163.7666      37.922928       0.04676
  13     269.0      125.6728        8.6378      154.8354      163.4732      37.800378       0.03975
  12     297.5      125.4788        9.5132      153.6560      163.1692      37.690333       0.03264
  11     328.5      125.2650       10.4542      152.3927      162.8469      37.581876       0.02949
  10     361.9      125.0310       11.4616      151.0436      162.5053      37.474321       0.02721
   9     398.1      124.7759       12.5394      149.6026      162.1420      37.366071       0.02522
   8     437.6      124.5007       13.6893      148.0641      161.7534      37.252755       0.02423
   7     480.5      124.2056       14.9136      146.4222      161.3357      37.130110       0.02409
   6     533.0      123.8443       16.4089      144.4089      160.8178      36.973463       0.02520
   5     589.8      123.4597       18.0063      142.2453      160.2517      36.791974       0.02694
   4     651.6      123.0546       19.7070      139.9243      159.6313      36.576672       0.02944
   3     718.7      122.6282       21.5118      137.4454      158.9572      36.329010       0.03112
   2     792.3      122.1821       23.4180      134.8118      158.2297      36.047667       0.03227
   1     891.5      121.6037       25.9466      131.2861      157.2327      35.628990       0.03563
   0    1013.0      120.9535       28.9159      127.0893      156.0052      35.051728       0.04008



 Wavenumbers: 22650. - 29000. cm-1, ATM      1
 LEVEL PRESSURE   UPWARD FLUX   DIFDOWN FLUX  DIRDOWN FLUX  DOWNWARD FLUX   NET FLUX    HEATING RATE
          mb          W/m2          W/m2          W/m2        W/m2          W/m2       degree/day
  51    .06700       52.3640        0.0000       64.9965       64.9965      12.632510       0.00000
  50    .07753       52.3639        0.0004       64.9960       64.9964      12.632510       0.00000
  49    .09103       52.3638        0.0010       64.9953       64.9963      12.632510       0.00000
  48    0.1069       52.3636        0.0016       64.9945       64.9961      12.632510       0.00000
  47    0.1255       52.3634        0.0024       64.9936       64.9959      12.632510       0.00000
  46    0.1487       52.3632        0.0033       64.9924       64.9957      12.632510      -0.00000
  45    0.1794       52.3629        0.0046       64.9908       64.9954      12.632510       0.00000
  44    0.2165       52.3625        0.0061       64.9890       64.9950      12.632510       0.00000
  43    0.2613       52.3621        0.0079       64.9867       64.9946      12.632510       0.00000
  42    0.3336       52.3614        0.0108       64.9831       64.9939      12.632510      -0.00000
  41    0.4307       52.3604        0.0147       64.9782       64.9929      12.632510       0.00000
  40    0.5894       52.3588        0.0211       64.9703       64.9913      12.632510      -0.00000
  39     1.339       52.3514        0.0512       64.9327       64.9839      12.632510       0.00000
  38     1.782       52.3471        0.0690       64.9106       64.9796      12.632510      -0.00000
  37     2.292       52.3420        0.0895       64.8851       64.9745      12.632510      -0.00000
  36     2.964       52.3354        0.1164       64.8515       64.9679      12.632510       0.00000
  35     3.853       52.3267        0.1519       64.8073       64.9592      12.632510       0.00000
  34     5.035       52.3151        0.1991       64.7484       64.9476      12.632510       0.00000
  33     6.613       52.2996        0.2622       64.6699       64.9321      12.632510       0.00000
  32     8.786       52.2787        0.3470       64.5642       64.9112      12.632510      -0.00000
  31     11.80       52.2488        0.4682       64.4131       64.8813      12.632510      -0.00000
  30     15.07       52.2167        0.5982       64.2511       64.8493      12.632510       0.00000
  29     18.79       52.1805        0.7446       64.0684       64.8131      12.632510       0.00000
  28     23.16       52.1383        0.9153       63.8555       64.7708      12.632510       0.00000
  27     28.12       52.0901        1.1099       63.6126       64.7226      12.632510      -0.00000
  26     33.73       52.0361        1.3270       63.3416       64.6686      12.632510       0.00000
  25     40.54       51.9711        1.5882       63.0154       64.6036      12.632510       0.00000
  24     48.69       51.8929        1.9014       62.6240       64.5254      12.632510      -0.00000
  23     57.69       51.8072        2.2434       62.1963       64.4397      12.632510       0.00000
  22     68.43       51.7054        2.6479       61.6901       64.3379      12.632510      -0.00000
  21     81.20       51.5847        3.1256       61.0917       64.2172      12.632510       0.00000
  20     96.49       51.4416        3.6888       60.3853       64.0741      12.632510      -0.00000
  19     114.6       51.2727        4.3490       59.5562       63.9052      12.632510       0.00000
  18     136.5       51.0740        5.1196       58.5869       63.7065      12.632510       0.00000
  17     162.9       50.8394        6.0205       57.4514       63.4719      12.632510      -0.00000
  16     196.4       50.5385        7.1619       56.0091       63.1710      12.632510       0.00000
  15     218.7       50.3429        7.8953       55.0801       62.9754      12.632510       0.00000
  14     243.0       50.1320        8.6782       54.0863       62.7645      12.632510      -0.00000
  13     269.0       49.9054        9.5102       53.0278       62.5380      12.632510       0.00000
  12     297.5       49.6629       10.3904       51.9051       62.2954      12.632510       0.00000
  11     328.5       49.4033       11.3200       50.7159       62.0359      12.632510      -0.00000
  10     361.9       49.1267       12.2965       49.4627       61.7592      12.632510       0.00000
   9     398.1       48.8322       13.3199       48.1448       61.4647      12.632510      -0.00000
   8     437.6       48.5194       14.3878       46.7641       61.1519      12.632510      -0.00000
   7     480.5       48.1879       15.4980       45.3224       60.8204      12.632510       0.00000
   6     533.0       47.7850       16.8171       43.6005       60.4175      12.632510       0.00000
   5     589.8       47.3567       18.1820       41.8072       59.9892      12.632510       0.00000
   4     651.6       46.9026       19.5865       39.9486       59.5351      12.632510       0.00000
   3     718.7       46.4228       21.0208       38.0345       59.0553      12.632510      -0.00000
   2     792.3       45.9179       22.4743       36.0762       58.5505      12.632510       0.00000
   1     891.5       45.2503       24.3054       33.5774       57.8828      12.632510      -0.00000
   0    1013.0       44.4668       26.3221       30.7772       57.0993      12.632510       0.00000



 Wavenumbers: 29000. - 38000. cm-1, ATM      1
 LEVEL PRESSURE   UPWARD FLUX   DIFDOWN FLUX  DIRDOWN FLUX  DOWNWARD FLUX   NET FLUX    HEATING RATE
          mb          W/m2          W/m2          W/m2        W/m2          W/m2       degree/day
  51    .06700        8.1773        0.0000       22.9205       22.9205      14.743206       0.00000
  50    .07753        8.1771        0.0003       22.9162       22.9165      14.739399       3.05169
  49    .09103        8.1769        0.0007       22.9100       22.9107      14.733861       3.46150
  48    0.1069        8.1766        0.0012       22.9019       22.9030      14.726448       3.94580
  47    0.1255        8.1763        0.0017       22.8911       22.8928      14.716537       4.49324
  46    0.1487        8.1759        0.0023       22.8756       22.8779      14.701959       5.31383
  45    0.1794        8.1755        0.0032       22.8515       22.8547      14.679258       6.23187
  44    0.2165        8.1749        0.0043       22.8193       22.8236      14.648663       6.95996
  43    0.2613        8.1743        0.0056       22.7763       22.7819      14.607526       7.75414
  42    0.3336        8.1734        0.0076       22.6964       22.7040      14.530561       8.97335
  41    0.4307        8.1723        0.0103       22.5797       22.5900      14.417683       9.81452
  40    0.5894        8.1707        0.0145       22.3687       22.3832      14.212533      10.90960
  39     1.339        8.1668        0.0327       21.1625       21.1952      13.028387      13.33133
  38     1.782        8.1670        0.0421       20.4615       20.5036      12.336622      13.17009
  37     2.292        8.1693        0.0524       19.7394       19.7918      11.622511      11.82754
  36     2.964        8.1753        0.0646       18.9466       19.0112      10.835932       9.87395
  35     3.853        8.1872        0.0802       18.1064       18.1866       9.999387       7.93896
  34     5.035        8.2072        0.0999       17.2527       17.3526       9.145359       6.10082
  33     6.613        8.2364        0.1251       16.4227       16.5478       8.311441       4.45812
  32     8.786        8.2750        0.1592       15.6383       15.7975       7.522568       3.06370
  31     11.80        8.3253        0.2059       14.8684       15.0743       6.749033       2.16565
  30     15.07        8.3737        0.2540       14.2779       14.5320       6.158294       1.52517
  29     18.79        8.4236        0.3074       13.7668       14.0742       5.650595       1.15111
  28     23.16        8.4765        0.3682       13.2956       13.6638       5.187242       0.89597
  27     28.12        8.5306        0.4362       12.8630       13.2992       4.768614       0.71164
  26     33.73        8.5801        0.5113       12.4784       12.9897       4.409566       0.53984
  25     40.54        8.6263        0.6013       12.1052       12.7065       4.080193       0.40862
  24     48.69        8.6689        0.7078       11.7350       12.4428       3.773921       0.31694
  23     57.69        8.7025        0.8231       11.3950       12.2181       3.515514       0.24222
  22     68.43        8.7276        0.9588       11.0521       12.0109       3.283272       0.18257
  21     81.20        8.7348        1.1190       10.7139       11.8329       3.098057       0.12239
  20     96.49        8.7217        1.3076       10.3711       11.6787       2.956963       0.07787
  19     114.6        8.6960        1.5256       10.0017       11.5273       2.831304       0.05867
  18     136.5        8.6602        1.7750        9.5959       11.3709       2.710703       0.04637
  17     162.9        8.6136        2.0593        9.1469       11.2062       2.592587       0.03775
  16     196.4        8.5412        2.4116        8.6182       11.0298       2.488649       0.02616
  15     218.7        8.4899        2.6329        8.2950       10.9280       2.438033       0.01922
  14     243.0        8.4334        2.8643        7.9604       10.8247       2.391328       0.01620
  13     269.0        8.3712        3.1048        7.6158       10.7206       2.349435       0.01359
  12     297.5        8.3032        3.3531        7.2626       10.6157       2.312564       0.01094
  11     328.5        8.2306        3.6079        6.9000       10.5079       2.277334       0.00958
  10     361.9        8.1534        3.8676        6.5297       10.3973       2.243894       0.00846
   9     398.1        8.0718        4.1303        6.1538       10.2841       2.212291       0.00736
   8     437.6        7.9859        4.3945        5.7733       10.1679       2.181927       0.00649
   7     480.5        7.8959        4.6577        5.3914       10.0491       2.153217       0.00564
   6     533.0        7.7875        4.9572        4.9524        9.9096       2.122069       0.00501
   5     589.8        7.6743        5.2493        4.5171        9.7664       2.092091       0.00445
   4     651.6        7.5567        5.5307        4.0889        9.6196       2.062966       0.00398
   3     718.7        7.4347        5.7976        3.6718        9.4694       2.034672       0.00356
   2     792.3        7.3089        6.0465        3.2697        9.3162       2.007237       0.00315
   1     891.5        7.1463        6.3284        2.7917        9.1200       1.973774       0.00285
   0    1013.0        6.9605        6.5943        2.3036        8.8979       1.937400       0.00253



 Wavenumbers: 38000. - 50000. cm-1, ATM      1
 LEVEL PRESSURE   UPWARD FLUX   DIFDOWN FLUX  DIRDOWN FLUX  DOWNWARD FLUX   NET FLUX    HEATING RATE
          mb          W/m2          W/m2          W/m2        W/m2          W/m2       degree/day
  51    .06700        0.0063        0.0000        1.4137        1.4137       1.407396       0.00000
  50    .07753        0.0063        0.0001        1.4113        1.4113       1.405061       1.87191
  49    .09103        0.0062        0.0002        1.4078        1.4079       1.401727       2.08342
  48    0.1069        0.0061        0.0002        1.4032        1.4035       1.397345       2.33245
  47    0.1255        0.0060        0.0004        1.3972        1.3976       1.391583       2.61233
  46    0.1487        0.0059        0.0005        1.3886        1.3891       1.383241       3.04069
  45    0.1794        0.0058        0.0007        1.3755        1.3762       1.370437       3.51516
  44    0.2165        0.0056        0.0009        1.3581        1.3590       1.353439       3.86663
  43    0.2613        0.0054        0.0011        1.3352        1.3363       1.330955       4.23826
  42    0.3336        0.0051        0.0015        1.2933        1.2948       1.289754       4.80356
  41    0.4307        0.0047        0.0020        1.2336        1.2357       1.230957       5.11229
  40    0.5894        0.0041        0.0026        1.1302        1.1327       1.128611       5.44262
  39     1.339        0.0024        0.0036        0.6413        0.6449       0.642484       5.47291
  38     1.782        0.0018        0.0033        0.4376        0.4409       0.439132       3.87151
  37     2.292        0.0013        0.0028        0.2872        0.2900       0.288657       2.49226
  36     2.964        0.0010        0.0023        0.1789        0.1812       0.180212       1.36131
  35     3.853        0.0007        0.0018        0.1070        0.1088       0.108161       0.68378
  34     5.035        0.0005        0.0014        0.0619        0.0632       0.062756       0.32436
  33     6.613        0.0003        0.0010        0.0353        0.0363       0.035977       0.14316
  32     8.786        0.0002        0.0008        0.0193        0.0201       0.019899       0.06244
  31     11.80        0.0001        0.0005        0.0093        0.0098       0.009717       0.02851
  30     15.07        0.0001        0.0003        0.0047        0.0050       0.004935       0.01234
  29     18.79        0.0000        0.0002        0.0023        0.0025       0.002471       0.00559
  28     23.16        0.0000        0.0001        0.0011        0.0012       0.001186       0.00248
  27     28.12        0.0000        0.0001        0.0005        0.0006       0.000552       0.00108
  26     33.73        0.0000        0.0000        0.0002        0.0003       0.000257       0.00044
  25     40.54        0.0000        0.0000        0.0001        0.0001       0.000112       0.00018
  24     48.69        0.0000        0.0000        0.0000        0.0000       0.000044       0.00007
  23     57.69        0.0000        0.0000        0.0000        0.0000       0.000017       0.00003
  22     68.43        0.0000        0.0000        0.0000        0.0000       0.000006       0.00001
  21     81.20        0.0000        0.0000        0.0000        0.0000       0.000002       0.00000
  20     96.49        0.0000        0.0000        0.0000        0.0000       0.000001       0.00000
  19     114.6        0.0000        0.0000        0.0000        0.0000       0.000000       0.00000
  18     136.5        0.0000        0.0000        0.0000        0.0000       0.000000       0.00000
  17     162.9        0.0000        0.0000        0.0000        0.0000       0.000000       0.00000
  16     196.4        0.0000        0.0000        0.0000        0.0000       0.000000       0.00000
  15     218.7        0.0000        0.0000        0.0000        0.0000       0.000000       0.00000
  14     243.0        0.0000        0.0000        0.0000        0.0000       0.000000       0.00000
  13     269.0        0.0000        0.0000        0.0000        0.0000       0.000000       0.00000
  12     297.5        0.0000        0.0000        0.0000        0.0000       0.000000       0.00000
  11     328.5        0.0000        0.0000        0.0000        0.0000       0.000000       0.00000
  10     361.9        0.0000        0.0000        0.0000        0.0000       0.000000       0.00000
   9     398.1        0.0000        0.0000        0.0000        0.0000       0.000000       0.00000
   8     437.6        0.0000        0.0000        0.0000        0.0000       0.000000       0.00000
   7     480.5        0.0000        0.0000        0.0000        0.0000       0.000000       0.00000
   6     533.0        0.0000        0.0000        0.0000        0.0000       0.000000       0.00000
   5     589.8        0.0000        0.0000        0.0000        0.0000       0.000000       0.00000
   4     651.6        0.0000        0.0000        0.0000        0.0000       0.000000       0.00000
   3     718.7        0.0000        0.0000        0.0000        0.0000       0.000000       0.00000
   2     792.3        0.0000        0.0000        0.0000        0.0000       0.000000       0.00000
   1     891.5        0.0000        0.0000        0.0000        0.0000       0.000000       0.00000
   0    1013.0        0.0000        0.0000        0.0000        0.0000       0.000000       0.00000



 Wavenumbers:   820. -  2600. cm-1, ATM      1
 LEVEL PRESSURE   UPWARD FLUX   DIFDOWN FLUX  DIRDOWN FLUX  DOWNWARD FLUX   NET FLUX    HEATING RATE
          mb          W/m2          W/m2          W/m2        W/m2          W/m2       degree/day
  51    .06700        0.2654        0.0000        6.6132        6.6132       6.347765       0.00000
  50    .07753        0.2654        0.0000        6.6090        6.6090       6.343612       3.32863
  49    .09103        0.2654        0.0000        6.6081        6.6081       6.342714       0.56148
  48    0.1069        0.2654        0.0000        6.6071        6.6071       6.341723       0.52783
  47    0.1255        0.2654        0.0000        6.6060        6.6060       6.340596       0.51072
  46    0.1487        0.2654        0.0000        6.6046        6.6046       6.339216       0.50309
  45    0.1794        0.2654        0.0000        6.6029        6.6029       6.337451       0.48446
  44    0.2165        0.2654        0.0000        6.6010        6.6010       6.335546       0.43343
  43    0.2613        0.2654        0.0000        6.5989        6.5989       6.333512       0.38337
  42    0.3336        0.2654        0.0000        6.5960        6.5960       6.330544       0.34607
  41    0.4307        0.2654        0.0000        6.5924        6.5924       6.327014       0.30687
  40    0.5894        0.2654        0.0000        6.5869        6.5869       6.321505       0.29301
  39     1.339        0.2654        0.0000        6.5613        6.5613       6.295897       0.28829
  38     1.782        0.2654        0.0000        6.5470        6.5470       6.281597       0.27226
  37     2.292        0.2654        0.0000        6.5310        6.5310       6.265570       0.26545
  36     2.964        0.2654        0.0000        6.5106        6.5106       6.245219       0.25547
  35     3.853        0.2654        0.0000        6.4849        6.4849       6.219519       0.24390
  34     5.035        0.2654        0.0000        6.4529        6.4529       6.187423       0.22928
  33     6.613        0.2654        0.0000        6.4128        6.4128       6.147346       0.21425
  32     8.786        0.2654        0.0000        6.3622        6.3622       6.096726       0.19659
  31     11.80        0.2654        0.0000        6.2979        6.2979       6.032426       0.18002
  30     15.07        0.2654        0.0000        6.2419        6.2419       5.976478       0.14445
  29     18.79        0.2654        0.0000        6.1945        6.1945       5.929103       0.10741
  28     23.16        0.2654        0.0000        6.1555        6.1555       5.890048       0.07552
  27     28.12        0.2654        0.0000        6.1236        6.1236       5.858131       0.05426
  26     33.73        0.2655        0.0000        6.0952        6.0952       5.829779       0.04263
  25     40.54        0.2655        0.0000        6.0647        6.0647       5.799238       0.03789
  24     48.69        0.2655        0.0000        6.0294        6.0294       5.763965       0.03650
  23     57.69        0.2655        0.0000        5.9917        5.9917       5.726229       0.03537
  22     68.43        0.2655        0.0000        5.9483        5.9483       5.682822       0.03412
  21     81.20        0.2655        0.0000        5.8987        5.8987       5.633210       0.03278
  20     96.49        0.2655        0.0000        5.8420        5.8420       5.576518       0.03129
  19     114.6        0.2655        0.0000        5.7763        5.7764       5.510821       0.03068
  18     136.5        0.2656        0.0000        5.6958        5.6958       5.430229       0.03099
  17     162.9        0.2656        0.0000        5.5820        5.5820       5.316362       0.03640
  16     196.4        0.2657        0.0000        5.4003        5.4003       5.134576       0.04576
  15     218.7        0.2658        0.0000        5.2768        5.2768       5.011057       0.04690
  14     243.0        0.2659        0.0000        5.1227        5.1227       4.856835       0.05349
  13     269.0        0.2661        0.0000        4.9252        4.9252       4.659130       0.06413
  12     297.5        0.2663        0.0000        4.6976        4.6977       4.431308       0.06757
  11     328.5        0.2668        0.0000        4.4042        4.4042       4.137400       0.07991
  10     361.9        0.2675        0.0000        4.0571        4.0571       3.789618       0.08799
   9     398.1        0.2686        0.0000        3.7339        3.7339       3.465338       0.07555
   8     437.6        0.2700        0.0000        3.4871        3.4872       3.217164       0.05306
   7     480.5        0.2721        0.0000        3.3044        3.3044       3.032319       0.03630
   6     533.0        0.2755        0.0000        3.1116        3.1116       2.836095       0.03157
   5     589.8        0.2805        0.0000        2.9039        2.9039       2.623445       0.03156
   4     651.6        0.2878        0.0000        2.6896        2.6896       2.401781       0.03031
   3     718.7        0.2976        0.0000        2.4957        2.4957       2.198154       0.02559
   2     792.3        0.3097        0.0000        2.3305        2.3305       2.020845       0.02034
   1     891.5        0.3302        0.0000        2.1382        2.1383       1.808081       0.01811
   0    1013.0        0.3686        0.0000        1.8958        1.8959       1.527312       0.01950

  Modules and versions used in this calculation:

       rrtmg_sw.1col.f90:  $Revision$                    rrtmg_sw_init.f90:  $Revision$        
     rrtmgsw_cldprop.f90:  $Revision$                  rrtmgsw_cldprmc.f90:  NOT USED          
     rrtmg_sw_reftra.f90:  $Revision$                  rrtmg_sw_spcvrt.f90:  NOT USED          
     rrtmg_sw_spcvmc.f90:  NOT USED                    rrtmgsw_setcoef.f90:  NOT USED          
     rrtmg_sw_taumol.f90:  $Revision$                  rrtmg_sw_vrtqdr.f90:  NOT USED          
                rrtatm.f:  NOT USED                             util_xxx.f:  NOT USED          
                 extra.f:  NOT USED                       rrtmg_sw_k_g.f90:  $Revision$        

