

 Wavenumbers:   820. - 50000. cm-1, ATM      1
 LEVEL PRESSURE   UPWARD FLUX   DIFDOWN FLUX  DIRDOWN FLUX  DOWNWARD FLUX   NET FLUX    HEATING RATE
          mb          W/m2          W/m2          W/m2        W/m2          W/m2       degree/day
  51    .06700      391.6418        0.0000     1042.4709     1042.4709     650.829108       0.00000
  50    .07753      391.6416        0.0015     1042.4506     1042.4521     650.810436      14.96608
  49    .09103      391.6414        0.0034     1042.4321     1042.4355     650.794089      10.21698
  48    0.1069      391.6412        0.0056     1042.4112     1042.4168     650.775526       9.88114
  47    0.1255      391.6411        0.0081     1042.3860     1042.3941     650.753019      10.20391
  46    0.1487      391.6410        0.0113     1042.3518     1042.3630     650.722058      11.28543
  45    0.1794      391.6409        0.0156     1042.3014     1042.3169     650.676022      12.63811
  44    0.2165      391.6410        0.0207     1042.2365     1042.2572     650.616205      13.60726
  43    0.2613      391.6413        0.0267     1042.1528     1042.1794     650.538157      14.71163
  42    0.3336      391.6422        0.0366     1042.0014     1042.0381     650.395870      16.58934
  41    0.4307      391.6439        0.0497     1041.7852     1041.8349     650.190947      17.81753
  40    0.5894      391.6481        0.0709     1041.3994     1041.4703     649.822224      19.60823
  39     1.339      391.6912        0.1677     1039.1793     1039.3469     647.655742      24.39065
  38     1.782      391.7330        0.2222     1037.8275     1038.0498     646.316816      25.49099
  37     2.292      391.7965        0.2844     1036.3864     1036.6708     644.874351      23.89098
  36     2.964      391.9027        0.3651     1034.7713     1035.1364     643.233718      20.59490
  35     3.853      392.0751        0.4711     1033.0527     1033.5238     641.448706      16.94009
  34     5.035      392.3356        0.6112     1031.2555     1031.8667     639.531095      13.69862
  33     6.613      392.7005        0.7977     1029.3716     1030.1693     637.468847      11.02479
  32     8.786      393.1774        1.0482     1027.3871     1028.4353     635.257916       8.58645
  31     11.80      393.8019        1.4051     1025.1506     1026.5558     632.753838       7.01063
  30     15.07      394.4056        1.7873     1023.1776     1024.9648     630.559273       5.66594
  29     18.79      395.0278        2.2176     1021.2523     1023.4699     628.442159       4.80015
  28     23.16      395.6859        2.7189     1019.2777     1021.9966     626.310700       4.12155
  27     28.12      396.3577        3.2907     1017.2777     1020.5684     624.210681       3.56989
  26     33.73      396.9899        3.9300     1015.3173     1019.2473     622.257384       2.93683
  25     40.54      397.6131        4.7014     1013.2288     1017.9302     620.317124       2.40711
  24     48.69      398.2274        5.6300     1010.9686     1016.5985     618.371101       2.01383
  23     57.69      398.7680        6.6481     1008.7183     1015.3664     616.598307       1.66173
  22     68.43      399.2645        7.8583     1006.2730     1014.1313     614.866752       1.36123
  21     81.20      399.6482        9.2987     1003.6464     1012.9451     613.296891       1.03734
  20     96.49      399.9095       11.0118     1000.7732     1011.7850     611.875551       0.78448
  19     114.6      400.1291       13.0357      997.4867     1010.5224     610.393230       0.69214
  18     136.5      400.3188       15.4166      993.6817     1009.0983     608.779452       0.62054
  17     162.9      400.4808       18.2346      989.1215     1007.3560     606.875272       0.60865
  16     196.4      400.5451       21.8424      983.0074     1004.8498     604.304722       0.64704
  15     218.7      400.5334       24.1895      978.7540     1002.9435     602.410124       0.71931
  14     243.0      400.4952       26.7195      973.5710     1000.2906     599.795380       0.90688
  13     269.0      400.4279       29.4368      966.5965      996.0333     595.605418       1.35920
  12     297.5      400.3310       32.3449      957.9813      990.3262     589.995239       1.66392
  11     328.5      400.2172       35.4541      948.0321      983.4862     583.268966       1.82885
  10     361.9      400.0893       38.7636      936.8427      975.6063     575.516967       1.96133
   9     398.1      399.9510       42.2822      924.3522      966.6344     566.683412       2.05802
   8     437.6      399.8128       46.0113      910.4199      956.4312     556.618368       2.15197
   7     480.5      399.6918       49.9525      894.8672      944.8196     545.127811       2.25670
   6     533.0      399.5945       54.7264      875.9841      930.7105     531.116083       2.25404
   5     589.8      399.5670       59.7805      856.3640      916.1444     516.577484       2.15800
   4     651.6      399.6572       65.1081      836.0783      901.1864     501.529187       2.05790
   3     718.7      399.8935       70.7078      815.9749      886.6828     486.789246       1.85240
   2     792.3      400.3123       76.5622      796.4316      872.9938     472.681526       1.61800
   1     891.5      401.2641       84.2374      771.9005      856.1379     454.873751       1.51536
   0    1013.0      403.4767       93.1204      743.3067      836.4272     432.950484       1.52224



 Wavenumbers:  2600. -  3250. cm-1, ATM      1
 LEVEL PRESSURE   UPWARD FLUX   DIFDOWN FLUX  DIRDOWN FLUX  DOWNWARD FLUX   NET FLUX    HEATING RATE
          mb          W/m2          W/m2          W/m2        W/m2          W/m2       degree/day
  51    .06700        0.1271        0.0000        9.1877        9.1877       9.060659       0.00000
  50    .07753        0.1271        0.0000        9.1877        9.1877       9.060651       0.00640
  49    .09103        0.1271        0.0000        9.1877        9.1877       9.060641       0.00627
  48    0.1069        0.1271        0.0000        9.1877        9.1877       9.060630       0.00613
  47    0.1255        0.1271        0.0000        9.1877        9.1877       9.060617       0.00600
  46    0.1487        0.1271        0.0000        9.1877        9.1877       9.060600       0.00608
  45    0.1794        0.1271        0.0000        9.1876        9.1876       9.060577       0.00625
  44    0.2165        0.1271        0.0000        9.1876        9.1876       9.060550       0.00613
  43    0.2613        0.1271        0.0000        9.1876        9.1876       9.060518       0.00601
  42    0.3336        0.1271        0.0000        9.1875        9.1875       9.060465       0.00618
  41    0.4307        0.1271        0.0000        9.1875        9.1875       9.060394       0.00622
  40    0.5894        0.1271        0.0000        9.1873        9.1873       9.060274       0.00639
  39     1.339        0.1271        0.0000        9.1866        9.1866       9.059560       0.00804
  38     1.782        0.1271        0.0000        9.1861        9.1861       9.059007       0.01051
  37     2.292        0.1271        0.0000        9.1853        9.1853       9.058274       0.01215
  36     2.964        0.1271        0.0000        9.1843        9.1843       9.057197       0.01351
  35     3.853        0.1271        0.0000        9.1827        9.1827       9.055641       0.01477
  34     5.035        0.1271        0.0000        9.1805        9.1805       9.053425       0.01582
  33     6.613        0.1271        0.0000        9.1774        9.1774       9.050326       0.01657
  32     8.786        0.1271        0.0000        9.1731        9.1731       9.046079       0.01649
  31     11.80        0.1271        0.0000        9.1672        9.1672       9.040108       0.01672
  30     15.07        0.1271        0.0000        9.1611        9.1611       9.034015       0.01573
  29     18.79        0.1271        0.0000        9.1547        9.1547       9.027674       0.01438
  28     23.16        0.1271        0.0000        9.1480        9.1480       9.020976       0.01295
  27     28.12        0.1271        0.0000        9.1411        9.1411       9.014069       0.01174
  26     33.73        0.1271        0.0000        9.1337        9.1337       9.006684       0.01110
  25     40.54        0.1270        0.0000        9.1248        9.1248       8.997735       0.01110
  24     48.69        0.1270        0.0000        9.1136        9.1136       8.986596       0.01153
  23     57.69        0.1270        0.0000        9.1006        9.1006       8.973547       0.01223
  22     68.43        0.1270        0.0000        9.0838        9.0838       8.956745       0.01321
  21     81.20        0.1270        0.0000        9.0621        9.0622       8.935107       0.01430
  20     96.49        0.1270        0.0000        9.0346        9.0347       8.907629       0.01517
  19     114.6        0.1270        0.0000        8.9993        8.9993       8.872274       0.01651
  18     136.5        0.1271        0.0001        8.9562        8.9563       8.829214       0.01656
  17     162.9        0.1271        0.0001        8.9039        8.9040       8.776893       0.01672
  16     196.4        0.1271        0.0001        8.8348        8.8349       8.707801       0.01739
  15     218.7        0.1271        0.0001        8.7873        8.7873       8.660234       0.01806
  14     243.0        0.1272        0.0001        8.7301        8.7302       8.603026       0.01984
  13     269.0        0.1272        0.0001        8.6547        8.6548       8.527585       0.02447
  12     297.5        0.1274        0.0001        8.5613        8.5614       8.434035       0.02775
  11     328.5        0.1275        0.0001        8.4479        8.4480       8.320462       0.03088
  10     361.9        0.1278        0.0001        8.3109        8.3110       8.183173       0.03474
   9     398.1        0.1282        0.0001        8.1413        8.1414       8.013179       0.03960
   8     437.6        0.1288        0.0001        7.9234        7.9236       7.794767       0.04670
   7     480.5        0.1297        0.0001        7.6332        7.6334       7.503668       0.05717
   6     533.0        0.1312        0.0002        7.2354        7.2356       7.104371       0.06423
   5     589.8        0.1334        0.0002        6.8026        6.8028       6.669404       0.06456
   4     651.6        0.1366        0.0002        6.3576        6.3577       6.221179       0.06130
   3     718.7        0.1410        0.0002        5.9291        5.9293       5.788232       0.05441
   2     792.3        0.1472        0.0002        5.5242        5.5243       5.377160       0.04715
   1     891.5        0.1586        0.0002        5.0254        5.0256       4.867040       0.04341
   0    1013.0        0.1830        0.0002        4.4514        4.4516       4.268629       0.04155



 Wavenumbers:  3250. -  4000. cm-1, ATM      1
 LEVEL PRESSURE   UPWARD FLUX   DIFDOWN FLUX  DIRDOWN FLUX  DOWNWARD FLUX   NET FLUX    HEATING RATE
          mb          W/m2          W/m2          W/m2        W/m2          W/m2       degree/day
  51    .06700        0.0005        0.0000       15.4892       15.4892      15.488678       0.00000
  50    .07753        0.0005        0.0000       15.4837       15.4837      15.483266       4.33808
  49    .09103        0.0005        0.0000       15.4791       15.4791      15.478663       2.87674
  48    0.1069        0.0005        0.0000       15.4755       15.4755      15.474989       1.95607
  47    0.1255        0.0005        0.0000       15.4723       15.4723      15.471824       1.43480
  46    0.1487        0.0005        0.0000       15.4691       15.4691      15.468579       1.18257
  45    0.1794        0.0005        0.0000       15.4653       15.4653      15.464810       1.03486
  44    0.2165        0.0005        0.0000       15.4614       15.4614      15.460888       0.89222
  43    0.2613        0.0005        0.0000       15.4572       15.4572      15.456765       0.77713
  42    0.3336        0.0005        0.0000       15.4514       15.4514      15.450890       0.68499
  41    0.4307        0.0005        0.0000       15.4448       15.4448      15.444372       0.56669
  40    0.5894        0.0005        0.0000       15.4359       15.4359      15.435450       0.47445
  39     1.339        0.0005        0.0000       15.4029       15.4029      15.402467       0.37133
  38     1.782        0.0005        0.0000       15.3873       15.3873      15.386840       0.29752
  37     2.292        0.0005        0.0000       15.3718       15.3718      15.371299       0.25738
  36     2.964        0.0005        0.0000       15.3541       15.3541      15.353639       0.22170
  35     3.853        0.0005        0.0000       15.3336       15.3336      15.333117       0.19475
  34     5.035        0.0005        0.0000       15.3089       15.3089      15.308474       0.17604
  33     6.613        0.0005        0.0000       15.2779       15.2779      15.277434       0.16594
  32     8.786        0.0005        0.0000       15.2362       15.2362      15.235711       0.16204
  31     11.80        0.0005        0.0000       15.1744       15.1744      15.173975       0.17284
  30     15.07        0.0005        0.0000       15.1053       15.1053      15.104842       0.17849
  29     18.79        0.0004        0.0000       15.0244       15.0244      15.023965       0.18337
  28     23.16        0.0004        0.0000       14.9278       14.9278      14.927390       0.18674
  27     28.12        0.0004        0.0000       14.8170       14.8170      14.816574       0.18838
  26     33.73        0.0004        0.0000       14.6958       14.6959      14.695463       0.18209
  25     40.54        0.0004        0.0001       14.5572       14.5573      14.556872       0.17194
  24     48.69        0.0004        0.0001       14.4046       14.4046      14.404229       0.15796
  23     57.69        0.0004        0.0001       14.2541       14.2541      14.253739       0.14106
  22     68.43        0.0004        0.0001       14.0926       14.0927      14.092307       0.12691
  21     81.20        0.0004        0.0001       13.9139       13.9141      13.913684       0.11803
  20     96.49        0.0004        0.0001       13.7096       13.7097      13.709351       0.11278
  19     114.6        0.0003        0.0001       13.4594       13.4596      13.459260       0.11677
  18     136.5        0.0003        0.0002       13.1619       13.1621      13.161806       0.11438
  17     162.9        0.0003        0.0002       12.7743       12.7745      12.774255       0.12388
  16     196.4        0.0002        0.0002       12.1563       12.1565      12.156277       0.15555
  15     218.7        0.0002        0.0002       11.6889       11.6892      11.688943       0.17743
  14     243.0        0.0002        0.0002       11.0707       11.0709      11.070707       0.21442
  13     269.0        0.0002        0.0002       10.1988       10.1991      10.198920       0.28280
  12     297.5        0.0001        0.0002        9.1879        9.1881       9.187983       0.29983
  11     328.5        0.0001        0.0002        8.1065        8.1068       8.106634       0.29402
  10     361.9        0.0001        0.0002        6.9973        6.9975       6.997435       0.28064
   9     398.1        0.0001        0.0002        5.9801        5.9803       5.980230       0.23699
   8     437.6        0.0001        0.0002        5.0582        5.0584       5.058297       0.19711
   7     480.5        0.0001        0.0002        4.1934        4.1936       4.193509       0.16984
   6     533.0        0.0001        0.0001        3.3154        3.3155       3.315451       0.14125
   5     589.8        0.0001        0.0001        2.5502        2.5503       2.550214       0.11359
   4     651.6        0.0001        0.0001        1.8628        1.8629       1.862847       0.09400
   3     718.7        0.0001        0.0001        1.3022        1.3023       1.302235       0.07045
   2     792.3        0.0001        0.0000        0.8832        0.8832       0.883119       0.04807
   1     891.5        0.0002        0.0000        0.4945        0.4946       0.494315       0.03309
   0    1013.0        0.0010        0.0000        0.1924        0.1924       0.191375       0.02103



 Wavenumbers:  4000. -  4650. cm-1, ATM      1
 LEVEL PRESSURE   UPWARD FLUX   DIFDOWN FLUX  DIRDOWN FLUX  DOWNWARD FLUX   NET FLUX    HEATING RATE
          mb          W/m2          W/m2          W/m2        W/m2          W/m2       degree/day
  51    .06700        0.1889        0.0000       18.1889       18.1889      18.000043       0.00000
  50    .07753        0.1889        0.0000       18.1889       18.1889      18.000043       0.00079
  49    .09103        0.1889        0.0000       18.1889       18.1889      18.000041       0.00078
  48    0.1069        0.1889        0.0000       18.1889       18.1889      18.000040       0.00076
  47    0.1255        0.1889        0.0000       18.1889       18.1889      18.000038       0.00074
  46    0.1487        0.1889        0.0000       18.1889       18.1889      18.000036       0.00075
  45    0.1794        0.1889        0.0000       18.1889       18.1889      18.000033       0.00077
  44    0.2165        0.1889        0.0000       18.1889       18.1889      18.000030       0.00076
  43    0.2613        0.1889        0.0000       18.1889       18.1889      18.000026       0.00074
  42    0.3336        0.1889        0.0000       18.1889       18.1889      18.000019       0.00076
  41    0.4307        0.1889        0.0000       18.1889       18.1889      18.000011       0.00077
  40    0.5894        0.1889        0.0000       18.1889       18.1889      17.999996       0.00079
  39     1.339        0.1889        0.0000       18.1888       18.1888      17.999907       0.00100
  38     1.782        0.1889        0.0000       18.1887       18.1887      17.999837       0.00132
  37     2.292        0.1889        0.0000       18.1886       18.1886      17.999744       0.00155
  36     2.964        0.1889        0.0000       18.1885       18.1885      17.999604       0.00175
  35     3.853        0.1889        0.0000       18.1883       18.1883      17.999397       0.00196
  34     5.035        0.1889        0.0000       18.1880       18.1880      17.999092       0.00218
  33     6.613        0.1889        0.0000       18.1875       18.1875      17.998642       0.00240
  32     8.786        0.1889        0.0000       18.1868       18.1868      17.997978       0.00258
  31     11.80        0.1889        0.0000       18.1857       18.1858      17.996932       0.00293
  30     15.07        0.1888        0.0001       18.1845       18.1846      17.995705       0.00317
  29     18.79        0.1888        0.0001       18.1830       18.1831      17.994217       0.00337
  28     23.16        0.1888        0.0001       18.1811       18.1812      17.992367       0.00358
  27     28.12        0.1888        0.0001       18.1788       18.1789      17.990122       0.00382
  26     33.73        0.1888        0.0001       18.1760       18.1761      17.987348       0.00417
  25     40.54        0.1888        0.0001       18.1722       18.1723      17.983572       0.00468
  24     48.69        0.1887        0.0002       18.1671       18.1673      17.978524       0.00522
  23     57.69        0.1887        0.0002       18.1610       18.1612      17.972514       0.00563
  22     68.43        0.1887        0.0002       18.1534       18.1536      17.964957       0.00594
  21     81.20        0.1886        0.0003       18.1440       18.1442      17.955609       0.00618
  20     96.49        0.1886        0.0003       18.1324       18.1328      17.944194       0.00630
  19     114.6        0.1885        0.0004       18.1179       18.1183      17.929741       0.00675
  18     136.5        0.1885        0.0005       18.1001       18.1006      17.912140       0.00677
  17     162.9        0.1884        0.0006       18.0779       18.0785      17.890064       0.00706
  16     196.4        0.1883        0.0007       18.0462       18.0469      17.858557       0.00793
  15     218.7        0.1883        0.0008       18.0222       18.0229      17.834635       0.00908
  14     243.0        0.1883        0.0009       17.9902       17.9910      17.802741       0.01106
  13     269.0        0.1883        0.0009       17.9421       17.9431      17.754799       0.01555
  12     297.5        0.1883        0.0010       17.8762       17.8773      17.688966       0.01953
  11     328.5        0.1884        0.0011       17.7870       17.7881      17.599768       0.02425
  10     361.9        0.1885        0.0012       17.6627       17.6639      17.475411       0.03146
   9     398.1        0.1887        0.0013       17.4918       17.4931      17.304479       0.03982
   8     437.6        0.1889        0.0015       17.2668       17.2683      17.079312       0.04814
   7     480.5        0.1894        0.0016       16.9854       16.9870      16.797619       0.05532
   6     533.0        0.1901        0.0017       16.6327       16.6344      16.444357       0.05683
   5     589.8        0.1912        0.0018       16.2581       16.2599      16.068761       0.05575
   4     651.6        0.1929        0.0020       15.8223       15.8243      15.631406       0.05981
   3     718.7        0.1953        0.0021       15.3202       15.3223      15.126985       0.06339
   2     792.3        0.1986        0.0022       14.7872       14.7894      14.590876       0.06149
   1     891.5        0.2046        0.0024       14.1044       14.1068      13.902215       0.05860
   0    1013.0        0.2173        0.0025       13.3223       13.3248      13.107485       0.05518



 Wavenumbers:  4650. -  5150. cm-1, ATM      1
 LEVEL PRESSURE   UPWARD FLUX   DIFDOWN FLUX  DIRDOWN FLUX  DOWNWARD FLUX   NET FLUX    HEATING RATE
          mb          W/m2          W/m2          W/m2        W/m2          W/m2       degree/day
  51    .06700        0.1467        0.0000       17.2167       17.2167      17.070019       0.00000
  50    .07753        0.1467        0.0000       17.2165       17.2165      17.069783       0.18929
  49    .09103        0.1467        0.0000       17.2162       17.2162      17.069487       0.18494
  48    0.1069        0.1467        0.0000       17.2158       17.2158      17.069148       0.18040
  47    0.1255        0.1467        0.0000       17.2154       17.2154      17.068760       0.17581
  46    0.1487        0.1467        0.0000       17.2149       17.2149      17.068273       0.17752
  45    0.1794        0.1467        0.0000       17.2143       17.2143      17.067612       0.18151
  44    0.2165        0.1467        0.0000       17.2135       17.2135      17.066836       0.17664
  43    0.2613        0.1467        0.0000       17.2126       17.2126      17.065925       0.17173
  42    0.3336        0.1467        0.0000       17.2111       17.2111      17.064437       0.17342
  41    0.4307        0.1467        0.0000       17.2092       17.2092      17.062501       0.16832
  40    0.5894        0.1467        0.0000       17.2061       17.2061      17.059427       0.16350
  39     1.339        0.1467        0.0000       17.1929       17.1929      17.046202       0.14888
  38     1.782        0.1467        0.0000       17.1860       17.1860      17.039355       0.13037
  37     2.292        0.1467        0.0000       17.1788       17.1789      17.032190       0.11866
  36     2.964        0.1467        0.0000       17.1705       17.1705      17.023856       0.10462
  35     3.853        0.1467        0.0000       17.1611       17.1611      17.014419       0.08956
  34     5.035        0.1466        0.0000       17.1507       17.1507      17.004056       0.07403
  33     6.613        0.1466        0.0000       17.1396       17.1397      16.993045       0.05886
  32     8.786        0.1466        0.0000       17.1281       17.1281      16.981490       0.04488
  31     11.80        0.1466        0.0001       17.1150       17.1151      16.968439       0.03654
  30     15.07        0.1466        0.0001       17.1028       17.1028      16.956246       0.03148
  29     18.79        0.1466        0.0001       17.0893       17.0894      16.942822       0.03043
  28     23.16        0.1466        0.0001       17.0729       17.0730      16.926471       0.03162
  27     28.12        0.1465        0.0002       17.0527       17.0528      16.906311       0.03427
  26     33.73        0.1465        0.0002       17.0281       17.0283      16.881807       0.03684
  25     40.54        0.1465        0.0002       16.9959       16.9961      16.849639       0.03991
  24     48.69        0.1464        0.0003       16.9540       16.9542      16.807799       0.04330
  23     57.69        0.1464        0.0003       16.9049       16.9052      16.758814       0.04592
  22     68.43        0.1464        0.0004       16.8435       16.8439      16.697536       0.04817
  21     81.20        0.1463        0.0004       16.7680       16.7684      16.622135       0.04982
  20     96.49        0.1463        0.0005       16.6768       16.6774      16.531101       0.05024
  19     114.6        0.1462        0.0006       16.5699       16.5705      16.424305       0.04987
  18     136.5        0.1461        0.0007       16.4477       16.4485      16.302325       0.04690
  17     162.9        0.1461        0.0008       16.3110       16.3119      16.165826       0.04363
  16     196.4        0.1460        0.0010       16.1485       16.1495      16.003470       0.04087
  15     218.7        0.1460        0.0011       16.0490       16.0501      15.904135       0.03771
  14     243.0        0.1459        0.0012       15.9442       15.9454      15.799451       0.03631
  13     269.0        0.1459        0.0014       15.8284       15.8297      15.683800       0.03752
  12     297.5        0.1460        0.0015       15.6965       15.6980      15.551978       0.03910
  11     328.5        0.1461        0.0016       15.5435       15.5451      15.398982       0.04160
  10     361.9        0.1463        0.0018       15.3628       15.3645      15.218224       0.04573
   9     398.1        0.1466        0.0019       15.1469       15.1488      15.002183       0.05033
   8     437.6        0.1470        0.0020       14.8861       14.8881      14.741123       0.05582
   7     480.5        0.1477        0.0022       14.5649       14.5671      14.419437       0.06318
   6     533.0        0.1487        0.0023       14.1200       14.1224      13.973633       0.07172
   5     589.8        0.1503        0.0025       13.6012       13.6037      13.453389       0.07722
   4     651.6        0.1526        0.0026       13.0155       13.0181      12.865497       0.08040
   3     718.7        0.1558        0.0027       12.4111       12.4138      12.257963       0.07635
   2     792.3        0.1602        0.0028       11.8248       11.8276      11.667418       0.06773
   1     891.5        0.1681        0.0030       11.1194       11.1224      10.954356       0.06068
   0    1013.0        0.1832        0.0031       10.3404       10.3435      10.160323       0.05513



 Wavenumbers:  5150. -  6150. cm-1, ATM      1
 LEVEL PRESSURE   UPWARD FLUX   DIFDOWN FLUX  DIRDOWN FLUX  DOWNWARD FLUX   NET FLUX    HEATING RATE
          mb          W/m2          W/m2          W/m2        W/m2          W/m2       degree/day
  51    .06700        0.4061        0.0000       43.1623       43.1623      42.756178       0.00000
  50    .07753        0.4061        0.0000       43.1623       43.1623      42.756143       0.02761
  49    .09103        0.4061        0.0000       43.1622       43.1622      42.756098       0.02811
  48    0.1069        0.4061        0.0000       43.1622       43.1622      42.756045       0.02860
  47    0.1255        0.4061        0.0000       43.1621       43.1621      42.755980       0.02905
  46    0.1487        0.4061        0.0000       43.1620       43.1620      42.755896       0.03062
  45    0.1794        0.4061        0.0000       43.1619       43.1619      42.755777       0.03272
  44    0.2165        0.4061        0.0000       43.1618       43.1618      42.755631       0.03336
  43    0.2613        0.4061        0.0000       43.1616       43.1616      42.755451       0.03383
  42    0.3336        0.4061        0.0000       43.1613       43.1613      42.755145       0.03575
  41    0.4307        0.4061        0.0000       43.1608       43.1608      42.754723       0.03661
  40    0.5894        0.4061        0.0000       43.1601       43.1601      42.754018       0.03752
  39     1.339        0.4061        0.0000       43.1566       43.1567      42.750562       0.03890
  38     1.782        0.4061        0.0000       43.1546       43.1546      42.748516       0.03897
  37     2.292        0.4061        0.0001       43.1522       43.1522      42.746152       0.03915
  36     2.964        0.4061        0.0001       43.1491       43.1491      42.743059       0.03882
  35     3.853        0.4060        0.0001       43.1449       43.1450      42.738995       0.03857
  34     5.035        0.4060        0.0001       43.1395       43.1397      42.733637       0.03828
  33     6.613        0.4060        0.0002       43.1324       43.1325      42.726557       0.03785
  32     8.786        0.4059        0.0002       43.1229       43.1231      42.717179       0.03642
  31     11.80        0.4059        0.0003       43.1097       43.1100      42.704098       0.03662
  30     15.07        0.4058        0.0004       43.0959       43.0963      42.690493       0.03512
  29     18.79        0.4057        0.0005       43.0809       43.0813      42.675654       0.03365
  28     23.16        0.4056        0.0006       43.0640       43.0646      42.658999       0.03220
  27     28.12        0.4055        0.0007       43.0455       43.0462      42.640770       0.03099
  26     33.73        0.4053        0.0008       43.0258       43.0267      42.621343       0.02921
  25     40.54        0.4052        0.0010       43.0035       43.0045      42.599292       0.02736
  24     48.69        0.4050        0.0012       42.9782       42.9794      42.574396       0.02576
  23     57.69        0.4048        0.0014       42.9526       42.9541      42.549242       0.02358
  22     68.43        0.4046        0.0017       42.9251       42.9268      42.522247       0.02122
  21     81.20        0.4043        0.0020       42.8948       42.8969      42.492581       0.01960
  20     96.49        0.4039        0.0024       42.8608       42.8632      42.459232       0.01841
  19     114.6        0.4035        0.0028       42.8214       42.8243      42.420705       0.01799
  18     136.5        0.4031        0.0034       42.7693       42.7727      42.369640       0.01964
  17     162.9        0.4025        0.0040       42.6785       42.6825      42.280000       0.02865
  16     196.4        0.4018        0.0048       42.4879       42.4927      42.090937       0.04759
  15     218.7        0.4013        0.0053       42.2848       42.2902      41.888828       0.07673
  14     243.0        0.4008        0.0059       41.9007       41.9065      41.505704       0.13288
  13     269.0        0.4003        0.0063       41.0944       41.1007      40.700388       0.26124
  12     297.5        0.3998        0.0068       39.9821       39.9889      39.589096       0.32960
  11     328.5        0.3993        0.0072       38.7276       38.7349      38.335535       0.34084
  10     361.9        0.3989        0.0076       37.2582       37.2658      36.866913       0.37158
   9     398.1        0.3985        0.0079       35.5507       35.5586      35.160155       0.39764
   8     437.6        0.3982        0.0082       33.6951       33.7033      33.305120       0.39662
   7     480.5        0.3980        0.0085       31.7187       31.7272      31.329160       0.38807
   6     533.0        0.3982        0.0088       29.5798       29.5885      29.190366       0.34406
   5     589.8        0.3988        0.0091       27.7514       27.7605      27.361702       0.27143
   4     651.6        0.4003        0.0096       26.2575       26.2671      25.866876       0.20442
   3     718.7        0.4028        0.0102       25.1212       25.1314      24.728578       0.14305
   2     792.3        0.4068        0.0108       24.2448       24.2556      23.848808       0.10090
   1     891.5        0.4155        0.0117       23.2825       23.2942      22.878662       0.08255
   0    1013.0        0.4372        0.0126       22.1543       22.1669      21.729699       0.07978



 Wavenumbers:  6150. -  7700. cm-1, ATM      1
 LEVEL PRESSURE   UPWARD FLUX   DIFDOWN FLUX  DIRDOWN FLUX  DOWNWARD FLUX   NET FLUX    HEATING RATE
          mb          W/m2          W/m2          W/m2        W/m2          W/m2       degree/day
  51    .06700        0.7138        0.0000       79.8304       79.8304      79.116534       0.00000
  50    .07753        0.7138        0.0000       79.8303       79.8303      79.116482       0.04144
  49    .09103        0.7138        0.0000       79.8302       79.8302      79.116416       0.04174
  48    0.1069        0.7138        0.0000       79.8301       79.8302      79.116337       0.04203
  47    0.1255        0.7138        0.0000       79.8300       79.8301      79.116243       0.04229
  46    0.1487        0.7138        0.0000       79.8299       79.8299      79.116122       0.04413
  45    0.1794        0.7138        0.0000       79.8297       79.8298      79.115952       0.04673
  44    0.2165        0.7138        0.0000       79.8295       79.8295      79.115745       0.04720
  43    0.2613        0.7138        0.0000       79.8293       79.8293      79.115493       0.04751
  42    0.3336        0.7138        0.0000       79.8288       79.8289      79.115065       0.04985
  41    0.4307        0.7138        0.0000       79.8282       79.8283      79.114482       0.05067
  40    0.5894        0.7138        0.0001       79.8272       79.8273      79.113511       0.05167
  39     1.339        0.7137        0.0001       79.8223       79.8225      79.108786       0.05319
  38     1.782        0.7136        0.0002       79.8195       79.8196      79.105995       0.05313
  37     2.292        0.7136        0.0002       79.8161       79.8164      79.102774       0.05335
  36     2.964        0.7135        0.0003       79.8118       79.8121      79.098560       0.05290
  35     3.853        0.7134        0.0004       79.8060       79.8064      79.093021       0.05257
  34     5.035        0.7133        0.0005       79.7985       79.7990      79.085706       0.05225
  33     6.613        0.7131        0.0007       79.7885       79.7892      79.076015       0.05181
  32     8.786        0.7129        0.0009       79.7751       79.7760      79.063120       0.05008
  31     11.80        0.7126        0.0012       79.7564       79.7576      79.044998       0.05074
  30     15.07        0.7123        0.0016       79.7366       79.7382      79.025966       0.04914
  29     18.79        0.7119        0.0020       79.7149       79.7169      79.004974       0.04760
  28     23.16        0.7114        0.0024       79.6901       79.6925      78.981102       0.04616
  27     28.12        0.7109        0.0030       79.6625       79.6655      78.954582       0.04508
  26     33.73        0.7104        0.0036       79.6327       79.6362      78.925881       0.04315
  25     40.54        0.7097        0.0043       79.5981       79.6024      78.892689       0.04118
  24     48.69        0.7088        0.0051       79.5583       79.5634      78.854576       0.03944
  23     57.69        0.7079        0.0061       79.5170       79.5231      78.815155       0.03695
  22     68.43        0.7068        0.0072       79.4712       79.4784      78.771566       0.03427
  21     81.20        0.7055        0.0085       79.4194       79.4279      78.722443       0.03246
  20     96.49        0.7039        0.0101       79.3601       79.3702      78.666300       0.03099
  19     114.6        0.7021        0.0120       79.2904       79.3024      78.600328       0.03080
  18     136.5        0.6999        0.0143       79.1990       79.2133      78.513409       0.03342
  17     162.9        0.6972        0.0170       79.0442       79.0612      78.363960       0.04777
  16     196.4        0.6938        0.0204       78.7197       78.7401      78.046275       0.07997
  15     218.7        0.6916        0.0226       78.3916       78.4141      77.722526       0.12292
  14     243.0        0.6893        0.0249       77.8462       77.8711      77.181841       0.18753
  13     269.0        0.6868        0.0271       76.7540       76.7810      76.094228       0.35282
  12     297.5        0.6842        0.0291       75.0115       75.0406      74.356336       0.51544
  11     328.5        0.6817        0.0310       72.7634       72.7944      72.112745       0.61003
  10     361.9        0.6792        0.0328       70.2365       70.2694      69.590224       0.63822
   9     398.1        0.6768        0.0344       67.3685       67.4030      66.726182       0.66726
   8     437.6        0.6746        0.0357       64.0488       64.0845      63.409830       0.70906
   7     480.5        0.6730        0.0367       60.3271       60.3638      59.690750       0.73041
   6     533.0        0.6721        0.0376       56.0526       56.0902      55.418056       0.68734
   5     589.8        0.6727        0.0385       51.9989       52.0375      51.364758       0.60164
   4     651.6        0.6757        0.0394       48.2396       48.2791      47.603339       0.51438
   3     718.7        0.6819        0.0405       44.9557       44.9962      44.314270       0.41334
   2     792.3        0.6921        0.0418       42.1701       42.2119      41.519811       0.32049
   1     891.5        0.7145        0.0436       39.1216       39.1653      38.450783       0.26116
   0    1013.0        0.7726        0.0455       35.9662       36.0118      35.239233       0.22299



 Wavenumbers:  7700. -  8050. cm-1, ATM      1
 LEVEL PRESSURE   UPWARD FLUX   DIFDOWN FLUX  DIRDOWN FLUX  DOWNWARD FLUX   NET FLUX    HEATING RATE
          mb          W/m2          W/m2          W/m2        W/m2          W/m2       degree/day
  51    .06700        0.4481        0.0000       18.8663       18.8663      18.418172       0.00000
  50    .07753        0.4481        0.0000       18.8663       18.8663      18.418154       0.01447
  49    .09103        0.4481        0.0000       18.8662       18.8662      18.418131       0.01418
  48    0.1069        0.4481        0.0000       18.8662       18.8662      18.418105       0.01388
  47    0.1255        0.4481        0.0000       18.8662       18.8662      18.418075       0.01358
  46    0.1487        0.4481        0.0000       18.8661       18.8662      18.418037       0.01378
  45    0.1794        0.4481        0.0000       18.8661       18.8661      18.417986       0.01418
  44    0.2165        0.4481        0.0000       18.8660       18.8660      18.417924       0.01391
  43    0.2613        0.4481        0.0000       18.8660       18.8660      18.417852       0.01365
  42    0.3336        0.4481        0.0000       18.8658       18.8658      18.417732       0.01397
  41    0.4307        0.4481        0.0000       18.8657       18.8657      18.417573       0.01381
  40    0.5894        0.4481        0.0000       18.8654       18.8654      18.417314       0.01380
  39     1.339        0.4481        0.0001       18.8641       18.8642      18.416086       0.01382
  38     1.782        0.4481        0.0001       18.8634       18.8635      18.415365       0.01373
  37     2.292        0.4481        0.0001       18.8625       18.8626      18.414530       0.01383
  36     2.964        0.4481        0.0001       18.8614       18.8615      18.413433       0.01376
  35     3.853        0.4481        0.0002       18.8599       18.8601      18.411985       0.01375
  34     5.035        0.4481        0.0002       18.8579       18.8581      18.410061       0.01375
  33     6.613        0.4480        0.0003       18.8553       18.8555      18.407490       0.01374
  32     8.786        0.4480        0.0004       18.8517       18.8521      18.404026       0.01345
  31     11.80        0.4480        0.0005       18.8466       18.8471      18.399073       0.01387
  30     15.07        0.4480        0.0006       18.8411       18.8417      18.393756       0.01373
  29     18.79        0.4479        0.0008       18.8349       18.8357      18.387754       0.01361
  28     23.16        0.4479        0.0010       18.8277       18.8286      18.380748       0.01355
  27     28.12        0.4478        0.0012       18.8194       18.8206      18.372745       0.01360
  26     33.73        0.4478        0.0014       18.8102       18.8116      18.363801       0.01345
  25     40.54        0.4477        0.0017       18.7990       18.8007      18.353012       0.01339
  24     48.69        0.4476        0.0020       18.7857       18.7877      18.340032       0.01343
  23     57.69        0.4476        0.0024       18.7710       18.7734      18.325810       0.01333
  22     68.43        0.4475        0.0028       18.7535       18.7564      18.308922       0.01328
  21     81.20        0.4473        0.0034       18.7329       18.7362      18.288876       0.01325
  20     96.49        0.4472        0.0040       18.7083       18.7123      18.265098       0.01312
  19     114.6        0.4470        0.0047       18.6793       18.6841      18.237019       0.01311
  18     136.5        0.4469        0.0056       18.6452       18.6508      18.203951       0.01272
  17     162.9        0.4466        0.0066       18.6049       18.6115      18.164869       0.01249
  16     196.4        0.4464        0.0080       18.5530       18.5610      18.114645       0.01264
  15     218.7        0.4462        0.0089       18.5193       18.5281      18.081919       0.01243
  14     243.0        0.4460        0.0098       18.4828       18.4926      18.046533       0.01227
  13     269.0        0.4459        0.0109       18.4433       18.4542      18.008305       0.01240
  12     297.5        0.4457        0.0120       18.4007       18.4127      17.967031       0.01224
  11     328.5        0.4455        0.0132       18.3547       18.3679      17.922307       0.01216
  10     361.9        0.4454        0.0145       18.3047       18.3192      17.873805       0.01227
   9     398.1        0.4453        0.0159       18.2504       18.2663      17.820990       0.01230
   8     437.6        0.4453        0.0174       18.1910       18.2084      17.763167       0.01236
   7     480.5        0.4453        0.0190       18.1254       18.1444      17.699042       0.01259
   6     533.0        0.4455        0.0209       18.0413       18.0622      17.616713       0.01324
   5     589.8        0.4460        0.0230       17.9461       17.9692      17.523203       0.01388
   4     651.6        0.4468        0.0253       17.8376       17.8629      17.416158       0.01464
   3     718.7        0.4479        0.0277       17.7154       17.7430      17.295106       0.01521
   2     792.3        0.4495        0.0302       17.5804       17.6106      17.161042       0.01538
   1     891.5        0.4523        0.0335       17.3915       17.4250      16.972682       0.01603
   0    1013.0        0.4571        0.0374       17.1469       17.1843      16.727248       0.01704



 Wavenumbers:  8050. - 12850. cm-1, ATM      1
 LEVEL PRESSURE   UPWARD FLUX   DIFDOWN FLUX  DIRDOWN FLUX  DOWNWARD FLUX   NET FLUX    HEATING RATE
          mb          W/m2          W/m2          W/m2        W/m2          W/m2       degree/day
  51    .06700       27.7154        0.0000      264.1420      264.1420     236.426518       0.00000
  50    .07753       27.7154        0.0000      264.1419      264.1419     236.426518      -0.00000
  49    .09103       27.7154        0.0001      264.1419      264.1419     236.426518       0.00000
  48    0.1069       27.7154        0.0001      264.1418      264.1419     236.426518      -0.00000
  47    0.1255       27.7153        0.0001      264.1417      264.1419     236.426518       0.00000
  46    0.1487       27.7153        0.0002      264.1416      264.1418     236.426518      -0.00000
  45    0.1794       27.7152        0.0003      264.1415      264.1418     236.426518       0.00000
  44    0.2165       27.7152        0.0003      264.1414      264.1417     236.426518       0.00000
  43    0.2613       27.7151        0.0004      264.1412      264.1416     236.426518      -0.00000
  42    0.3336       27.7150        0.0006      264.1409      264.1415     236.426518       0.00000
  41    0.4307       27.7148        0.0008      264.1405      264.1413     236.426518       0.00000
  40    0.5894       27.7145        0.0012      264.1399      264.1411     236.426518      -0.00000
  39     1.339       27.7132        0.0028      264.1369      264.1398     236.426518       0.00000
  38     1.782       27.7125        0.0038      264.1352      264.1390     236.426518      -0.00000
  37     2.292       27.7116        0.0050      264.1332      264.1381     236.426518       0.00000
  36     2.964       27.7105        0.0064      264.1305      264.1370     236.426518      -0.00000
  35     3.853       27.7089        0.0084      264.1271      264.1355     236.426518       0.00000
  34     5.035       27.7069        0.0110      264.1224      264.1334     236.426518       0.00000
  33     6.613       27.7042        0.0145      264.1162      264.1307     236.426518      -0.00000
  32     8.786       27.7006        0.0193      264.1078      264.1271     236.426518       0.00000
  31     11.80       27.6954        0.0260      264.0959      264.1219     236.426518      -0.00000
  30     15.07       27.6898        0.0333      264.0830      264.1163     236.426518       0.00000
  29     18.79       27.6834        0.0415      264.0684      264.1099     236.426518       0.00000
  28     23.16       27.6760        0.0511      264.0514      264.1025     236.426518      -0.00000
  27     28.12       27.6675        0.0621      264.0319      264.0940     236.426518       0.00000
  26     33.73       27.6580        0.0744      264.0100      264.0845     236.426518       0.00000
  25     40.54       27.6464        0.0894      263.9836      264.0730     236.426518      -0.00000
  24     48.69       27.6325        0.1074      263.9517      264.0591     236.426518       0.00000
  23     57.69       27.6172        0.1272      263.9166      264.0437     236.426518       0.00000
  22     68.43       27.5990        0.1508      263.8747      264.0255     236.426518      -0.00000
  21     81.20       27.5771        0.1790      263.8247      264.0037     236.426518       0.00000
  20     96.49       27.5511        0.2127      263.7649      263.9776     236.426518      -0.00000
  19     114.6       27.5202        0.2527      263.6863      263.9390     236.418780       0.00361
  18     136.5       27.4835        0.3003      263.5908      263.8910     236.407571       0.00431
  17     162.9       27.4396        0.3570      263.4672      263.8242     236.384575       0.00735
  16     196.4       27.3827        0.4308      263.2735      263.7043     236.321606       0.01585
  15     218.7       27.3452        0.4793      263.1043      263.5836     236.238363       0.03160
  14     243.0       27.3046        0.5319      262.8366      263.3685     236.063879       0.06052
  13     269.0       27.2613        0.5887      262.3363      262.9251     235.663772       0.12979
  12     297.5       27.2157        0.6497      261.5663      262.2160     235.000311       0.19678
  11     328.5       27.1685        0.7151      260.5165      261.2316     234.063101       0.25482
  10     361.9       27.1211        0.7847      259.1732      259.9580     232.836897       0.31024
   9     398.1       27.0751        0.8584      257.4426      258.3010     231.225890       0.37533
   8     437.6       27.0339        0.9358      255.1696      256.1054     229.071476       0.46063
   7     480.5       27.0041        1.0159      252.1482      253.1641     226.160028       0.57180
   6     533.0       26.9916        1.1108      247.8743      248.9851     221.993511       0.67026
   5     589.8       27.0148        1.2091      242.8088      244.0179     217.003120       0.74074
   4     651.6       27.0952        1.3103      237.0332      238.3435     211.248319       0.78698
   3     718.7       27.2489        1.4156      231.0152      232.4309     205.181971       0.76237
   2     792.3       27.4935        1.5258      225.0475      226.5732     199.079707       0.69986
   1     891.5       28.0117        1.6689      217.3921      219.0610     191.049290       0.68335
   0    1013.0       29.2168        1.8290      208.1268      209.9558     180.739026       0.71589



 Wavenumbers: 12850. - 16000. cm-1, ATM      1
 LEVEL PRESSURE   UPWARD FLUX   DIFDOWN FLUX  DIRDOWN FLUX  DOWNWARD FLUX   NET FLUX    HEATING RATE
          mb          W/m2          W/m2          W/m2        W/m2          W/m2       degree/day
  51    .06700       71.2611        0.0000      165.5083      165.5083      94.247198       0.00000
  50    .07753       71.2611        0.0001      165.5074      165.5075      94.246407       0.63463
  49    .09103       71.2611        0.0002      165.5063      165.5065      94.245408       0.62398
  48    0.1069       71.2611        0.0003      165.5051      165.5053      94.244256       0.61334
  47    0.1255       71.2611        0.0004      165.5036      165.5040      94.242926       0.60317
  46    0.1487       71.2611        0.0005      165.5018      165.5023      94.241237       0.61559
  45    0.1794       71.2611        0.0007      165.4993      165.5000      94.238922       0.63541
  44    0.2165       71.2612        0.0009      165.4964      165.4973      94.236175       0.62493
  43    0.2613       71.2613        0.0012      165.4930      165.4942      94.232912       0.61503
  42    0.3336       71.2615        0.0017      165.4873      165.4890      94.227516       0.62909
  41    0.4307       71.2618        0.0023      165.4799      165.4822      94.220420       0.61704
  40    0.5894       71.2624        0.0032      165.4681      165.4714      94.208957       0.60956
  39     1.339       71.2683        0.0079      165.4152      165.4231      94.154821       0.60947
  38     1.782       71.2737        0.0106      165.3851      165.3958      94.122101       0.62294
  37     2.292       71.2817        0.0138      165.3502      165.3640      94.082248       0.66008
  36     2.964       71.2952        0.0179      165.3031      165.3211      94.025890       0.70746
  35     3.853       71.3169        0.0234      165.2385      165.2619      93.945018       0.76748
  34     5.035       71.3496        0.0307      165.1507      165.1814      93.831771       0.80900
  33     6.613       71.3954        0.0404      165.0348      165.0752      93.679787       0.81251
  32     8.786       71.4549        0.0535      164.8862      164.9397      93.484770       0.75737
  31     11.80       71.5323        0.0722      164.6904      164.7626      93.230267       0.71253
  30     15.07       71.6064        0.0922      164.4977      164.5899      92.983477       0.63716
  29     18.79       71.6820        0.1149      164.2951      164.4100      92.728048       0.57914
  28     23.16       71.7608        0.1413      164.0759      164.2172      92.456354       0.52537
  27     28.12       71.8401        0.1716      163.8451      164.0167      92.176556       0.47564
  26     33.73       71.9132        0.2055      163.6149      163.8204      91.907219       0.40495
  25     40.54       71.9833        0.2464      163.3695      163.6159      91.632629       0.34066
  24     48.69       72.0502        0.2958      163.1058      163.4016      91.351372       0.29106
  23     57.69       72.1066        0.3501      162.8478      163.1979      91.091281       0.24380
  22     68.43       72.1553        0.4149      162.5754      162.9903      90.834948       0.20151
  21     81.20       72.1880        0.4921      162.2986      162.7908      90.602745       0.15344
  20     96.49       72.2035        0.5844      162.0150      162.5994      90.395811       0.11421
  19     114.6       72.2213        0.6950      161.7045      162.3995      90.178206       0.10161
  18     136.5       72.2319        0.8261      161.3597      162.1858      89.953844       0.08627
  17     162.9       72.2351        0.9824      160.9691      161.9514      89.716374       0.07590
  16     196.4       72.2190        1.1853      160.4933      161.6786      89.459550       0.06465
  15     218.7       72.2012        1.3186      160.1889      161.5075      89.306317       0.05818
  14     243.0       72.1788        1.4636      159.8582      161.3218      89.143027       0.05663
  13     269.0       72.1520        1.6208      159.4965      161.1173      88.965301       0.05765
  12     297.5       72.1214        1.7908      159.0980      160.8888      88.767442       0.05868
  11     328.5       72.0897        1.9746      158.6533      160.6279      88.538152       0.06234
  10     361.9       72.0591        2.1726      158.1550      160.3276      88.268512       0.06822
   9     398.1       72.0319        2.3856      157.5945      159.9801      87.948214       0.07462
   8     437.6       72.0132        2.6143      156.9568      159.5711      87.557880       0.08346
   7     480.5       72.0123        2.8590      156.2166      159.0756      87.063382       0.09712
   6     533.0       72.0431        3.1593      155.2262      158.3855      86.342444       0.11598
   5     589.8       72.1166        3.4811      154.0788      157.5599      85.443263       0.13347
   4     651.6       72.2525        3.8241      152.7536      156.5777      84.325229       0.15289
   3     718.7       72.4635        4.1893      151.2685      155.4578      82.994306       0.16726
   2     792.3       72.7663        4.5770      149.6454      154.2224      81.456063       0.17642
   1     891.5       73.3406        5.0941      147.3971      152.4912      79.150535       0.19619
   0    1013.0       74.4099        5.7035      144.5768      150.2803      75.870426       0.22775



 Wavenumbers: 16000. - 22650. cm-1, ATM      1
 LEVEL PRESSURE   UPWARD FLUX   DIFDOWN FLUX  DIRDOWN FLUX  DOWNWARD FLUX   NET FLUX    HEATING RATE
          mb          W/m2          W/m2          W/m2        W/m2          W/m2       degree/day
  51    .06700      191.6685        0.0000      263.8846      263.8846      72.216169       0.00000
  50    .07753      191.6685        0.0005      263.8841      263.8845      72.215998       0.13745
  49    .09103      191.6686        0.0010      263.8833      263.8843      72.215748       0.15590
  48    0.1069      191.6687        0.0017      263.8825      263.8841      72.215414       0.17778
  47    0.1255      191.6689        0.0024      263.8814      263.8839      72.214967       0.20265
  46    0.1487      191.6691        0.0034      263.8801      263.8835      72.214308       0.24013
  45    0.1794      191.6696        0.0046      263.8782      263.8829      72.213278       0.28274
  44    0.2165      191.6702        0.0062      263.8759      263.8821      72.211882       0.31777
  43    0.2613      191.6710        0.0080      263.8730      263.8810      72.209986       0.35725
  42    0.3336      191.6726        0.0110      263.8680      263.8790      72.206383       0.42013
  41    0.4307      191.6751        0.0149      263.8611      263.8760      72.200951       0.47227
  40    0.5894      191.6799        0.0214      263.8491      263.8705      72.190592       0.55090
  39     1.339      191.7169        0.0521      263.7788      263.8309      72.114047       0.86175
  38     1.782      191.7490        0.0701      263.7277      263.7978      72.048831       1.24162
  37     2.292      191.7960        0.0910      263.6594      263.7504      71.954413       1.56380
  36     2.964      191.8727        0.1184      263.5557      263.6741      71.801418       1.92055
  35     3.853      191.9951        0.1545      263.3991      263.5537      71.558561       2.30476
  34     5.035      192.1785        0.2026      263.1720      263.3745      71.196033       2.58975
  33     6.613      192.4342        0.2666      262.8594      263.1260      70.691822       2.69551
  32     8.786      192.7678        0.3530      262.4498      262.8028      70.035029       2.55075
  31     11.80      193.2040        0.4764      261.9045      262.3809      69.176883       2.40254
  30     15.07      193.6246        0.6088      261.3658      261.9747      68.350079       2.13465
  29     18.79      194.0567        0.7584      260.7996      261.5580      67.501346       1.92434
  28     23.16      194.5117        0.9330      260.1867      261.1198      66.608069       1.72731
  27     28.12      194.9739        1.1327      259.5418      260.6745      65.700562       1.54270
  26     33.73      195.4079        1.3562      258.8983      260.2545      64.846658       1.28387
  25     40.54      195.8356        1.6264      258.2104      259.8368      64.001223       1.04886
  24     48.69      196.2573        1.9523      257.4677      259.4200      63.162716       0.86772
  23     57.69      196.6297        2.3104      256.7352      259.0456      62.415859       0.70007
  22     68.43      196.9751        2.7372      255.9515      258.6887      61.713515       0.55214
  21     81.20      197.2522        3.2462      255.1376      258.3837      61.131486       0.38460
  20     96.49      197.4574        3.8532      254.2781      258.1314      60.673953       0.25253
  19     114.6      197.6357        4.5735      253.3171      257.8906      60.254874       0.19568
  18     136.5      197.8028        5.4261      252.2184      257.6446      59.841812       0.15883
  17     162.9      197.9607        6.4396      250.9482      257.3878      59.427117       0.13255
  16     196.4      198.0779        7.7518      249.3792      257.1310      59.053091       0.09415
  15     218.7      198.1221        8.6119      248.3786      256.9905      58.868383       0.07013
  14     243.0      198.1545        9.5454      247.3056      256.8510      58.696486       0.05962
  13     269.0      198.1733       10.5552      246.1580      256.7133      58.539953       0.05078
  12     297.5      198.1778       11.6445      244.9324      256.5769      58.399133       0.04177
  11     328.5      198.1748       12.8192      243.6157      256.4349      58.260085       0.03781
  10     361.9      198.1643       14.0813      242.2050      256.2863      58.121923       0.03496
   9     398.1      198.1467       15.4365      240.6927      256.1293      57.982578       0.03246
   8     437.6      198.1242       16.8885      239.0721      255.9606      57.836367       0.03126
   7     480.5      198.0988       18.4411      237.3353      255.7765      57.677678       0.03117
   6     533.0      198.0687       20.3473      235.1956      255.5429      57.474159       0.03274
   5     589.8      198.0422       22.3959      232.8832      255.2791      57.236949       0.03521
   4     651.6      198.0250       24.5911      230.3873      254.9783      56.953300       0.03879
   3     718.7      198.0171       26.9372      227.7037      254.6409      56.623811       0.04141
   2     792.3      198.0207       29.4343      224.8318      254.2662      56.245473       0.04339
   1     891.5      198.0560       32.7780      220.9530      253.7310      55.675028       0.04854
   0    1013.0      198.1607       36.7535      216.2817      253.0353      54.874596       0.05558



 Wavenumbers: 22650. - 29000. cm-1, ATM      1
 LEVEL PRESSURE   UPWARD FLUX   DIFDOWN FLUX  DIRDOWN FLUX  DOWNWARD FLUX   NET FLUX    HEATING RATE
          mb          W/m2          W/m2          W/m2        W/m2          W/m2       degree/day
  51    .06700       85.6828        0.0000       99.5805       99.5805      13.897649       0.00000
  50    .07753       85.6828        0.0005       99.5799       99.5804      13.897649      -0.00000
  49    .09103       85.6828        0.0012       99.5792       99.5804      13.897649       0.00000
  48    0.1069       85.6828        0.0020       99.5784       99.5804      13.897649       0.00000
  47    0.1255       85.6828        0.0029       99.5775       99.5804      13.897649       0.00000
  46    0.1487       85.6828        0.0041       99.5763       99.5804      13.897649       0.00000
  45    0.1794       85.6828        0.0057       99.5748       99.5804      13.897649      -0.00000
  44    0.2165       85.6828        0.0075       99.5729       99.5804      13.897649       0.00000
  43    0.2613       85.6828        0.0097       99.5707       99.5804      13.897649       0.00000
  42    0.3336       85.6827        0.0134       99.5670       99.5804      13.897649       0.00000
  41    0.4307       85.6827        0.0182       99.5621       99.5804      13.897649       0.00000
  40    0.5894       85.6827        0.0261       99.5542       99.5803      13.897649       0.00000
  39     1.339       85.6825        0.0635       99.5166       99.5801      13.897649      -0.00000
  38     1.782       85.6823        0.0855       99.4945       99.5800      13.897649       0.00000
  37     2.292       85.6822        0.1109       99.4690       99.5799      13.897649      -0.00000
  36     2.964       85.6820        0.1443       99.4354       99.5797      13.897649       0.00000
  35     3.853       85.6818        0.1884       99.3911       99.5794      13.897649      -0.00000
  34     5.035       85.6815        0.2469       99.3322       99.5791      13.897649       0.00000
  33     6.613       85.6810        0.3251       99.2535       99.5787      13.897649      -0.00000
  32     8.786       85.6804        0.4305       99.1476       99.5781      13.897649       0.00000
  31     11.80       85.6796        0.5812       98.9960       99.5772      13.897649      -0.00000
  30     15.07       85.6786        0.7429       98.8334       99.5763      13.897649       0.00000
  29     18.79       85.6775        0.9253       98.6498       99.5752      13.897649       0.00000
  28     23.16       85.6762        1.1382       98.4356       99.5738      13.897649      -0.00000
  27     28.12       85.6746        1.3813       98.1909       99.5723      13.897649       0.00000
  26     33.73       85.6728        1.6529       97.9175       99.5704      13.897649      -0.00000
  25     40.54       85.6705        1.9803       97.5878       99.5682      13.897649       0.00000
  24     48.69       85.6676        2.3740       97.1913       99.5653      13.897649      -0.00000
  23     57.69       85.6643        2.8050       96.7570       99.5620      13.897649       0.00000
  22     68.43       85.6602        3.3163       96.2415       99.5578      13.897649       0.00000
  21     81.20       85.6549        3.9225       95.6301       99.5526      13.897649       0.00000
  20     96.49       85.6482        4.6405       94.9054       99.5459      13.897649       0.00000
  19     114.6       85.6397        5.4866       94.0508       99.5373      13.897649      -0.00000
  18     136.5       85.6287        6.4805       93.0458       99.5264      13.897649       0.00000
  17     162.9       85.6145        7.6514       91.8607       99.5122      13.897649      -0.00000
  16     196.4       85.5942        9.1492       90.3426       99.4918      13.897649       0.00000
  15     218.7       85.5796       10.1203       89.3570       99.4773      13.897649       0.00000
  14     243.0       85.5628       11.1647       88.2958       99.4605      13.897649      -0.00000
  13     269.0       85.5434       12.2836       87.1574       99.4410      13.897649       0.00000
  12     297.5       85.5209       13.4779       85.9407       99.4186      13.897649       0.00000
  11     328.5       85.4950       14.7515       84.6412       99.3926      13.897649       0.00000
  10     361.9       85.4652       16.1034       83.2594       99.3628      13.897649       0.00000
   9     398.1       85.4309       17.5363       81.7922       99.3285      13.897649       0.00000
   8     437.6       85.3915       19.0502       80.2389       99.2891      13.897649      -0.00000
   7     480.5       85.3463       20.6451       78.5988       99.2439      13.897649       0.00000
   6     533.0       85.2864       22.5694       76.6147       99.1841      13.897649      -0.00000
   5     589.8       85.2167       24.5967       74.5176       99.1144      13.897649       0.00000
   4     651.6       85.1357       26.7230       72.3104       99.0334      13.897649       0.00000
   3     718.7       85.0420       28.9431       69.9965       98.9396      13.897649       0.00000
   2     792.3       84.9338       31.2469       67.5846       98.8315      13.897649      -0.00000
   1     891.5       84.7754       34.2388       64.4342       98.6730      13.897649       0.00000
   0    1013.0       84.5662       37.6611       60.8027       98.4638      13.897649       0.00000



 Wavenumbers: 29000. - 38000. cm-1, ATM      1
 LEVEL PRESSURE   UPWARD FLUX   DIFDOWN FLUX  DIRDOWN FLUX  DOWNWARD FLUX   NET FLUX    HEATING RATE
          mb          W/m2          W/m2          W/m2        W/m2          W/m2       degree/day
  51    .06700       13.2123        0.0000       35.1162       35.1162      21.903871       0.00000
  50    .07753       13.2122        0.0003       35.1119       35.1122      21.900052       3.06099
  49    .09103       13.2120        0.0008       35.1057       35.1065      21.894494       3.47386
  48    0.1069       13.2118        0.0013       35.0976       35.0989      21.887050       3.96271
  47    0.1255       13.2116        0.0019       35.0868       35.0887      21.877087       4.51674
  46    0.1487       13.2114        0.0026       35.0712       35.0738      21.862413       5.34865
  45    0.1794       13.2111        0.0036       35.0470       35.0506      21.839519       6.28515
  44    0.2165       13.2107        0.0048       35.0146       35.0193      21.808574       7.03931
  43    0.2613       13.2104        0.0061       34.9711       34.9772      21.766810       7.87236
  42    0.3336       13.2100        0.0084       34.8897       34.8981      21.688179       9.16761
  41    0.4307       13.2095        0.0114       34.7698       34.7812      21.571680      10.12933
  40    0.5894       13.2091        0.0162       34.5489       34.5651      21.356043      11.46729
  39     1.339       13.2128        0.0371       33.1853       33.2224      20.009644      15.15801
  38     1.782       13.2187        0.0481       32.3007       32.3488      19.130080      16.74549
  37     2.292       13.2287        0.0600       31.3187       31.3787      18.149996      16.23274
  36     2.964       13.2468        0.0748       30.1831       30.2579      17.011163      14.29579
  35     3.853       13.2773        0.0935       28.9695       29.0630      15.785697      11.62990
  34     5.035       13.3245        0.1174       27.7467       27.8641      14.539622       8.90144
  33     6.613       13.3915        0.1485       26.5565       26.7049      13.313445       6.55515
  32     8.786       13.4800        0.1893       25.4315       25.6208      12.140716       4.55446
  31     11.80       13.5976        0.2464       24.3279       24.5743      10.976661       3.25899
  30     15.07       13.7137        0.3067       23.4834       23.7902      10.076412       2.32427
  29     18.79       13.8364        0.3736       22.7549       23.1285       9.292139       1.77819
  28     23.16       13.9700        0.4506       22.0882       22.5388       8.568827       1.39865
  27     28.12       14.1111        0.5376       21.4824       22.0200       7.908894       1.12184
  26     33.73       14.2485        0.6346       20.9522       21.5868       7.338240       0.85799
  25     40.54       14.3887        0.7514       20.4458       21.1972       6.808537       0.65716
  24     48.69       14.5323        0.8915       19.9504       20.8419       6.309601       0.51632
  23     57.69       14.6640        1.0448       19.5016       20.5464       5.882425       0.40041
  22     68.43       14.7903        1.2267       19.0552       20.2819       5.491626       0.30722
  21     81.20       14.8931        1.4441       18.6237       20.0679       5.174789       0.20936
  20     96.49       14.9685        1.7035       18.1945       19.8981       4.929553       0.13535
  19     114.6       15.0341        2.0071       17.7341       19.7412       4.707087       0.10388
  18     136.5       15.0969        2.3589       17.2273       19.5862       4.489294       0.08375
  17     162.9       15.1593        2.7749       16.6629       19.4377       4.278385       0.06742
  16     196.4       15.2043        3.2902       15.9953       19.2855       4.081255       0.04962
  15     218.7       15.2210        3.6204       15.5842       19.2046       3.983601       0.03708
  14     243.0       15.2333        3.9709       15.1546       19.1255       3.892250       0.03168
  13     269.0       15.2399        4.3414       14.7076       19.0490       3.809163       0.02695
  12     297.5       15.2401        4.7312       14.2439       18.9751       3.734988       0.02200
  11     328.5       15.2368        5.1390       13.7609       18.8999       3.663071       0.01955
  10     361.9       15.2296        5.5633       13.2602       18.8234       3.593797       0.01753
   9     398.1       15.2181        6.0035       12.7421       18.7455       3.527393       0.01547
   8     437.6       15.2026        6.4574       12.2079       18.6652       3.462617       0.01385
   7     480.5       15.1822        6.9232       11.6595       18.5826       3.400381       0.01222
   6     533.0       15.1528        7.4679       11.0166       18.4845       3.331711       0.01105
   5     589.8       15.1170        8.0223       10.3591       18.3814       3.264407       0.00999
   4     651.6       15.0747        8.5805        9.6920       18.2725       3.197783       0.00911
   3     718.7       15.0255        9.1391        9.0182       18.1573       3.131852       0.00829
   2     792.3       14.9686        9.6902        8.3452       18.0353       3.066703       0.00747
   1     891.5       14.8864       10.3632        7.5088       17.8720       2.985545       0.00691
   0    1013.0       14.7810       11.0719        6.6041       17.6760       2.895039       0.00628



 Wavenumbers: 38000. - 50000. cm-1, ATM      1
 LEVEL PRESSURE   UPWARD FLUX   DIFDOWN FLUX  DIRDOWN FLUX  DOWNWARD FLUX   NET FLUX    HEATING RATE
          mb          W/m2          W/m2          W/m2        W/m2          W/m2       degree/day
  51    .06700        0.0072        0.0000        2.1659        2.1659       2.158735       0.00000
  50    .07753        0.0072        0.0001        2.1635        2.1635       2.156398       1.87347
  49    .09103        0.0071        0.0002        2.1600        2.1601       2.153059       2.08688
  48    0.1069        0.0070        0.0002        2.1554        2.1557       2.148665       2.33901
  47    0.1255        0.0069        0.0004        2.1494        2.1498       2.142878       2.62370
  46    0.1487        0.0068        0.0005        2.1408        2.1413       2.134481       3.06055
  45    0.1794        0.0067        0.0007        2.1275        2.1282       2.121551       3.54978
  44    0.2165        0.0065        0.0009        2.1099        2.1108       2.104305       3.92317
  43    0.2613        0.0063        0.0011        2.0865        2.0876       2.081345       4.32773
  42    0.3336        0.0060        0.0015        2.0433        2.0448       2.038825       4.95740
  41    0.4307        0.0056        0.0020        1.9807        1.9827       1.977108       5.36616
  40    0.5894        0.0051        0.0027        1.8688        1.8715       1.866443       5.88502
  39     1.339        0.0033        0.0040        1.2620        1.2660       1.262726       6.79676
  38     1.782        0.0026        0.0038        0.9454        0.9492       0.946622       6.01811
  37     2.292        0.0020        0.0033        0.6659        0.6692       0.667180       4.62829
  36     2.964        0.0015        0.0027        0.4331        0.4359       0.434336       2.92289
  35     3.853        0.0011        0.0022        0.2712        0.2734       0.272217       1.53854
  34     5.035        0.0009        0.0017        0.1671        0.1689       0.168005       0.74445
  33     6.613        0.0006        0.0013        0.1018        0.1032       0.102517       0.35010
  32     8.786        0.0005        0.0011        0.0621        0.0631       0.062658       0.15480
  31     11.80        0.0003        0.0008        0.0361        0.0369       0.036601       0.07295
  30     15.07        0.0002        0.0006        0.0222        0.0227       0.022535       0.03632
  29     18.79        0.0001        0.0004        0.0135        0.0139       0.013785       0.01984
  28     23.16        0.0001        0.0003        0.0080        0.0083       0.008179       0.01084
  27     28.12        0.0001        0.0002        0.0046        0.0048       0.004749       0.00583
  26     33.73        0.0000        0.0001        0.0027        0.0028       0.002762       0.00299
  25     40.54        0.0000        0.0001        0.0015        0.0016       0.001538       0.00152
  24     48.69        0.0000        0.0000        0.0008        0.0008       0.000809       0.00075
  23     57.69        0.0000        0.0000        0.0004        0.0004       0.000422       0.00036
  22     68.43        0.0000        0.0000        0.0002        0.0002       0.000206       0.00017
  21     81.20        0.0000        0.0000        0.0001        0.0001       0.000094       0.00007
  20     96.49        0.0000        0.0000        0.0000        0.0000       0.000039       0.00003
  19     114.6        0.0000        0.0000        0.0000        0.0000       0.000014       0.00001
  18     136.5        0.0000        0.0000        0.0000        0.0000       0.000004       0.00000
  17     162.9        0.0000        0.0000        0.0000        0.0000       0.000001       0.00000
  16     196.4        0.0000        0.0000        0.0000        0.0000       0.000000       0.00000
  15     218.7        0.0000        0.0000        0.0000        0.0000       0.000000       0.00000
  14     243.0        0.0000        0.0000        0.0000        0.0000       0.000000       0.00000
  13     269.0        0.0000        0.0000        0.0000        0.0000       0.000000       0.00000
  12     297.5        0.0000        0.0000        0.0000        0.0000       0.000000       0.00000
  11     328.5        0.0000        0.0000        0.0000        0.0000       0.000000       0.00000
  10     361.9        0.0000        0.0000        0.0000        0.0000       0.000000       0.00000
   9     398.1        0.0000        0.0000        0.0000        0.0000       0.000000       0.00000
   8     437.6        0.0000        0.0000        0.0000        0.0000       0.000000       0.00000
   7     480.5        0.0000        0.0000        0.0000        0.0000       0.000000       0.00000
   6     533.0        0.0000        0.0000        0.0000        0.0000       0.000000       0.00000
   5     589.8        0.0000        0.0000        0.0000        0.0000       0.000000       0.00000
   4     651.6        0.0000        0.0000        0.0000        0.0000       0.000000       0.00000
   3     718.7        0.0000        0.0000        0.0000        0.0000       0.000000       0.00000
   2     792.3        0.0000        0.0000        0.0000        0.0000       0.000000       0.00000
   1     891.5        0.0000        0.0000        0.0000        0.0000       0.000000       0.00000
   0    1013.0        0.0000        0.0000        0.0000        0.0000       0.000000       0.00000



 Wavenumbers:   820. -  2600. cm-1, ATM      1
 LEVEL PRESSURE   UPWARD FLUX   DIFDOWN FLUX  DIRDOWN FLUX  DOWNWARD FLUX   NET FLUX    HEATING RATE
          mb          W/m2          W/m2          W/m2        W/m2          W/m2       degree/day
  51    .06700        0.0633        0.0000       10.1320       10.1320      10.068683       0.00000
  50    .07753        0.0633        0.0000       10.1262       10.1262      10.062892       4.64146
  49    .09103        0.0633        0.0000       10.1250       10.1250      10.061735       0.72360
  48    0.1069        0.0633        0.0000       10.1240       10.1240      10.060682       0.56043
  47    0.1255        0.0633        0.0000       10.1228       10.1228      10.059457       0.55538
  46    0.1487        0.0633        0.0000       10.1212       10.1212      10.057907       0.56506
  45    0.1794        0.0633        0.0000       10.1191       10.1191      10.055838       0.56799
  44    0.2165        0.0633        0.0000       10.1168       10.1168      10.053500       0.53185
  43    0.2613        0.0633        0.0000       10.1142       10.1142      10.050907       0.48865
  42    0.3336        0.0633        0.0000       10.1104       10.1104      10.047046       0.45019
  41    0.4307        0.0633        0.0000       10.1059       10.1059      10.042565       0.38964
  40    0.5894        0.0633        0.0000       10.0993       10.0993      10.036033       0.34733
  39     1.339        0.0633        0.0000       10.0701       10.0701      10.006767       0.32949
  38     1.782        0.0633        0.0000       10.0534       10.0534       9.990101       0.31728
  37     2.292        0.0633        0.0000       10.0347       10.0347       9.971385       0.30999
  36     2.964        0.0633        0.0000       10.0107       10.0107       9.947395       0.30115
  35     3.853        0.0633        0.0000        9.9798        9.9798       9.916470       0.29348
  34     5.035        0.0633        0.0000        9.9404        9.9404       9.877045       0.28163
  33     6.613        0.0633        0.0000        9.8909        9.8909       9.827599       0.26434
  32     8.786        0.0633        0.0000        9.8283        9.8283       9.764995       0.24313
  31     11.80        0.0633        0.0000        9.7449        9.7449       9.681636       0.23338
  30     15.07        0.0633        0.0000        9.6649        9.6649       9.601580       0.20669
  29     18.79        0.0633        0.0000        9.5889        9.5889       9.525615       0.17224
  28     23.16        0.0633        0.0000        9.5204        9.5204       9.457050       0.13258
  27     28.12        0.0633        0.0000        9.4639        9.4639       9.400578       0.09600
  26     33.73        0.0633        0.0000        9.4193        9.4193       9.356011       0.06701
  25     40.54        0.0633        0.0000        9.3795        9.3795       9.316219       0.04937
  24     48.69        0.0633        0.0000        9.3396        9.3396       9.276284       0.04133
  23     57.69        0.0633        0.0000        9.2986        9.2987       9.235334       0.03838
  22     68.43        0.0633        0.0000        9.2513        9.2513       9.188012       0.03720
  21     81.20        0.0633        0.0000        9.1965        9.1965       9.133175       0.03624
  20     96.49        0.0633        0.0000        9.1324        9.1325       9.069123       0.03535
  19     114.6        0.0633        0.0000        9.0563        9.0563       8.992988       0.03555
  18     136.5        0.0633        0.0000        8.9601        8.9601       8.896794       0.03699
  17     162.9        0.0633        0.0000        8.8186        8.8187       8.755303       0.04523
  16     196.4        0.0634        0.0000        8.5770        8.5770       8.513610       0.06084
  15     218.7        0.0634        0.0000        8.3980        8.3980       8.334591       0.06797
  14     243.0        0.0634        0.0000        8.1555        8.1555       8.092086       0.08411
  13     269.0        0.0635        0.0000        7.8250        7.8250       7.761555       0.10722
  12     297.5        0.0635        0.0000        7.4838        7.4838       7.420292       0.10121
  11     328.5        0.0637        0.0000        7.1141        7.1141       7.050476       0.10055
  10     361.9        0.0639        0.0000        6.6568        6.6569       6.593004       0.11574
   9     398.1        0.0641        0.0000        6.1584        6.1584       6.094291       0.11619
   8     437.6        0.0645        0.0000        5.7053        5.7053       5.640763       0.09697
   7     480.5        0.0651        0.0000        5.3605        5.3606       5.295507       0.06781
   6     533.0        0.0660        0.0000        5.0796        5.0796       5.013661       0.04534
   5     589.8        0.0673        0.0000        4.8079        4.8079       4.740665       0.04052
   4     651.6        0.0692        0.0000        4.5087        4.5088       4.439606       0.04117
   3     718.7        0.0717        0.0000        4.2179        4.2180       4.146287       0.03686
   2     792.3        0.0749        0.0000        3.9625        3.9626       3.887697       0.02966
   1     891.5        0.0803        0.0000        3.6759        3.6759       3.595653       0.02485
   0    1013.0        0.0909        0.0000        3.3406        3.3406       3.249755       0.02402

  Modules and versions used in this calculation:

       rrtmg_sw.1col.f90:  $Revision$                    rrtmg_sw_init.f90:  $Revision$        
     rrtmgsw_cldprop.f90:  $Revision$                  rrtmgsw_cldprmc.f90:  NOT USED          
     rrtmg_sw_reftra.f90:  $Revision$                  rrtmg_sw_spcvrt.f90:  NOT USED          
     rrtmg_sw_spcvmc.f90:  NOT USED                    rrtmgsw_setcoef.f90:  NOT USED          
     rrtmg_sw_taumol.f90:  $Revision$                  rrtmg_sw_vrtqdr.f90:  NOT USED          
                rrtatm.f:  NOT USED                             util_xxx.f:  NOT USED          
                 extra.f:  NOT USED                       rrtmg_sw_k_g.f90:  $Revision$        

