

 Wavenumbers:   820. - 50000. cm-1, ATM      1
 LEVEL PRESSURE   UPWARD FLUX   DIFDOWN FLUX  DIRDOWN FLUX  DOWNWARD FLUX   NET FLUX    HEATING RATE
          mb          W/m2          W/m2          W/m2        W/m2          W/m2       degree/day
  51    .06700      334.6227        0.0000      874.7370      874.7370     540.114223       0.00000
  50    .07753      334.6225        0.0014      874.7175      874.7189     540.096479      14.22129
  49    .09103      334.6221        0.0032      874.6996      874.7028     540.080733       9.84207
  48    0.1069      334.6217        0.0053      874.6792      874.6844     540.062692       9.60337
  47    0.1255      334.6214        0.0076      874.6544      874.6620     540.040674       9.98173
  46    0.1487      334.6210        0.0106      874.6206      874.6312     540.010239      11.09392
  45    0.1794      334.6205        0.0146      874.5708      874.5854     539.964898      12.44733
  44    0.2165      334.6201        0.0194      874.5067      874.5261     539.906005      13.39699
  43    0.2613      334.6198        0.0251      874.4240      874.4491     539.829251      14.46777
  42    0.3336      334.6197        0.0344      874.2748      874.3092     539.689567      16.28577
  41    0.4307      334.6199        0.0467      874.0622      874.1089     539.488945      17.44366
  40    0.5894      334.6214        0.0665      873.6847      873.7512     539.129785      19.09966
  39     1.339      334.6486        0.1568      871.5782      871.7350     537.086347      23.00541
  38     1.782      334.6786        0.2076      870.3527      870.5603     535.881751      22.93356
  37     2.292      334.7260        0.2654      869.0851      869.3505     534.624426      20.82458
  36     2.964      334.8076        0.3405      867.6895      868.0301     533.222459      17.59893
  35     3.853      334.9423        0.4391      866.1965      866.6356     531.693384      14.51120
  34     5.035      335.1476        0.5693      864.6070      865.1763     530.028617      11.89240
  33     6.613      335.4361        0.7424      862.9167      863.6592     528.223045       9.65259
  32     8.786      335.8126        0.9748      861.1122      862.0870     526.274430       7.56772
  31     11.80      336.3028        1.3057      859.0519      860.3576     524.054855       6.21411
  30     15.07      336.7730        1.6599      857.2180      858.8779     522.104868       5.03449
  29     18.79      337.2542        2.0582      855.4174      857.4756     520.221388       4.27043
  28     23.16      337.7587        2.5219      853.5614      856.0833     518.324681       3.66762
  27     28.12      338.2679        3.0505      851.6720      854.7225     516.454607       3.17900
  26     33.73      338.7379        3.6409      849.8102      853.4510     514.713164       2.61831
  25     40.54      339.1886        4.3527      847.8174      852.1701     512.981441       2.14840
  24     48.69      339.6182        5.2087      845.6535      850.8622     511.243953       1.79803
  23     57.69      339.9788        6.1462      843.4929      849.6392     509.660330       1.48441
  22     68.43      340.2865        7.2593      841.1394      848.3987     508.112196       1.21704
  21     81.20      340.4822        8.5821      838.6052      847.1873     506.705064       0.92981
  20     96.49      340.5552       10.1554      835.8294      845.9848     505.429563       0.70399
  19     114.6      340.5691       12.0079      832.6576      844.6656     504.096479       0.62246
  18     136.5      340.5287       14.1837      828.9945      843.1782     502.649556       0.55638
  17     162.9      340.4288       16.7459      824.6238      841.3697     500.940892       0.54616
  16     196.4      340.1847       20.0280      818.8028      838.8308     498.646106       0.57762
  15     218.7      339.9821       22.1580      814.7748      836.9329     496.950719       0.64368
  14     243.0      339.7428       24.4498      809.8837      834.3335     494.590638       0.81855
  13     269.0      339.4644       26.9061      803.3528      830.2589     490.794535       1.23144
  12     297.5      339.1461       29.5293      795.3926      824.9218     485.775708       1.48853
  11     328.5      338.7976       32.3276      786.2530      818.5806     479.782980       1.62941
  10     361.9      338.4210       35.2988      775.9552      811.2540     472.832993       1.75842
   9     398.1      338.0187       38.4494      764.4888      802.9382     464.919449       1.84368
   8     437.6      337.5995       41.7792      751.8209      793.6002     456.000655       1.90689
   7     480.5      337.1773       45.2878      737.7868      783.0746     445.897248       1.98427
   6     533.0      336.7070       49.5248      720.8083      770.3331     433.626068       1.97404
   5     589.8      336.2720       53.9919      703.2387      757.2306     420.958602       1.88027
   4     651.6      335.9126       58.6823      685.1442      743.8265     407.913932       1.78389
   3     718.7      335.6514       63.5892      667.2311      730.8203     395.168948       1.60169
   2     792.3      335.5184       68.6971      649.7633      718.4604     382.942081       1.40228
   1     891.5      335.6691       75.3580      627.8220      703.1801     367.510922       1.31312
   0    1013.0      336.7251       83.0137      602.3879      685.4016     348.676496       1.30777



 Wavenumbers:  2600. -  3250. cm-1, ATM      1
 LEVEL PRESSURE   UPWARD FLUX   DIFDOWN FLUX  DIRDOWN FLUX  DOWNWARD FLUX   NET FLUX    HEATING RATE
          mb          W/m2          W/m2          W/m2        W/m2          W/m2       degree/day
  51    .06700        0.1311        0.0000        7.7094        7.7094       7.578360       0.00000
  50    .07753        0.1311        0.0000        7.7094        7.7094       7.578352       0.00640
  49    .09103        0.1311        0.0000        7.7094        7.7094       7.578342       0.00627
  48    0.1069        0.1311        0.0000        7.7094        7.7094       7.578331       0.00613
  47    0.1255        0.1311        0.0000        7.7094        7.7094       7.578317       0.00600
  46    0.1487        0.1311        0.0000        7.7094        7.7094       7.578301       0.00608
  45    0.1794        0.1311        0.0000        7.7093        7.7093       7.578278       0.00625
  44    0.2165        0.1311        0.0000        7.7093        7.7093       7.578251       0.00613
  43    0.2613        0.1311        0.0000        7.7093        7.7093       7.578219       0.00600
  42    0.3336        0.1311        0.0000        7.7092        7.7092       7.578166       0.00618
  41    0.4307        0.1311        0.0000        7.7091        7.7091       7.578095       0.00621
  40    0.5894        0.1311        0.0000        7.7090        7.7090       7.577975       0.00638
  39     1.339        0.1311        0.0000        7.7083        7.7083       7.577263       0.00802
  38     1.782        0.1311        0.0000        7.7078        7.7078       7.576713       0.01046
  37     2.292        0.1311        0.0000        7.7070        7.7070       7.575984       0.01207
  36     2.964        0.1311        0.0000        7.7060        7.7060       7.574918       0.01338
  35     3.853        0.1311        0.0000        7.7044        7.7044       7.573384       0.01456
  34     5.035        0.1311        0.0000        7.7023        7.7023       7.571214       0.01550
  33     6.613        0.1311        0.0000        7.6993        7.6993       7.568208       0.01607
  32     8.786        0.1311        0.0000        7.6952        7.6952       7.564145       0.01578
  31     11.80        0.1310        0.0000        7.6896        7.6896       7.558537       0.01570
  30     15.07        0.1310        0.0000        7.6840        7.6840       7.552952       0.01442
  29     18.79        0.1310        0.0000        7.6783        7.6783       7.547265       0.01289
  28     23.16        0.1310        0.0000        7.6724        7.6724       7.541364       0.01141
  27     28.12        0.1310        0.0000        7.6664        7.6664       7.535321       0.01027
  26     33.73        0.1310        0.0000        7.6598        7.6599       7.528814       0.00978
  25     40.54        0.1310        0.0000        7.6518        7.6518       7.520747       0.01001
  24     48.69        0.1310        0.0000        7.6414        7.6414       7.510376       0.01073
  23     57.69        0.1310        0.0000        7.6289        7.6289       7.497890       0.01170
  22     68.43        0.1310        0.0000        7.6126        7.6126       7.481584       0.01282
  21     81.20        0.1310        0.0000        7.5915        7.5916       7.460531       0.01391
  20     96.49        0.1310        0.0000        7.5649        7.5650       7.433943       0.01467
  19     114.6        0.1310        0.0000        7.5311        7.5312       7.400115       0.01580
  18     136.5        0.1310        0.0001        7.4903        7.4904       7.359316       0.01569
  17     162.9        0.1311        0.0001        7.4417        7.4418       7.310704       0.01554
  16     196.4        0.1311        0.0001        7.3789        7.3790       7.247933       0.01580
  15     218.7        0.1311        0.0001        7.3364        7.3365       7.205389       0.01615
  14     243.0        0.1311        0.0001        7.2859        7.2860       7.154879       0.01752
  13     269.0        0.1312        0.0001        7.2201        7.2202       7.089010       0.02137
  12     297.5        0.1313        0.0001        7.1390        7.1391       7.007746       0.02410
  11     328.5        0.1315        0.0001        7.0396        7.0397       6.908151       0.02708
  10     361.9        0.1318        0.0001        6.9164        6.9165       6.784684       0.03124
   9     398.1        0.1322        0.0001        6.7587        6.7588       6.626594       0.03683
   8     437.6        0.1328        0.0001        6.5540        6.5542       6.421361       0.04388
   7     480.5        0.1337        0.0001        6.2848        6.2849       6.151266       0.05305
   6     533.0        0.1351        0.0002        5.9258        5.9260       5.790827       0.05798
   5     589.8        0.1373        0.0002        5.5471        5.5473       5.410004       0.05653
   4     651.6        0.1404        0.0002        5.1636        5.1637       5.023317       0.05288
   3     718.7        0.1448        0.0002        4.7928        4.7930       4.648171       0.04715
   2     792.3        0.1507        0.0002        4.4382        4.4384       4.287675       0.04134
   1     891.5        0.1615        0.0002        4.0038        4.0040       3.842441       0.03789
   0    1013.0        0.1839        0.0002        3.5163        3.5164       3.332515       0.03541



 Wavenumbers:  3250. -  4000. cm-1, ATM      1
 LEVEL PRESSURE   UPWARD FLUX   DIFDOWN FLUX  DIRDOWN FLUX  DOWNWARD FLUX   NET FLUX    HEATING RATE
          mb          W/m2          W/m2          W/m2        W/m2          W/m2       degree/day
  51    .06700        0.0005        0.0000       12.9969       12.9969      12.996477       0.00000
  50    .07753        0.0005        0.0000       12.9917       12.9917      12.991244       4.19372
  49    .09103        0.0005        0.0000       12.9875       12.9875      12.987059       2.61610
  48    0.1069        0.0005        0.0000       12.9843       12.9843      12.983826       1.72104
  47    0.1255        0.0005        0.0000       12.9815       12.9815      12.981033       1.26616
  46    0.1487        0.0005        0.0000       12.9786       12.9786      12.978117       1.06285
  45    0.1794        0.0005        0.0000       12.9751       12.9751      12.974681       0.94318
  44    0.2165        0.0005        0.0000       12.9716       12.9716      12.971116       0.81092
  43    0.2613        0.0005        0.0000       12.9679       12.9679      12.967410       0.69875
  42    0.3336        0.0005        0.0000       12.9627       12.9627      12.962185       0.60917
  41    0.4307        0.0005        0.0000       12.9569       12.9569      12.956393       0.50357
  40    0.5894        0.0005        0.0000       12.9488       12.9488      12.948309       0.42988
  39     1.339        0.0005        0.0000       12.9181       12.9181      12.917625       0.34545
  38     1.782        0.0005        0.0000       12.9038       12.9038      12.903376       0.27128
  37     2.292        0.0005        0.0000       12.8899       12.8899      12.889413       0.23126
  36     2.964        0.0005        0.0000       12.8741       12.8741      12.873668       0.19765
  35     3.853        0.0005        0.0000       12.8558       12.8558      12.855355       0.17379
  34     5.035        0.0005        0.0000       12.8335       12.8335      12.833076       0.15915
  33     6.613        0.0005        0.0000       12.8049       12.8049      12.804442       0.15308
  32     8.786        0.0005        0.0000       12.7657       12.7657      12.765273       0.15212
  31     11.80        0.0004        0.0000       12.7074       12.7074      12.706998       0.16315
  30     15.07        0.0004        0.0000       12.6422       12.6422      12.641799       0.16833
  29     18.79        0.0004        0.0000       12.5665       12.5665      12.566062       0.17172
  28     23.16        0.0004        0.0000       12.4768       12.4768      12.476396       0.17339
  27     28.12        0.0004        0.0000       12.3755       12.3755      12.375104       0.17219
  26     33.73        0.0004        0.0000       12.2668       12.2668      12.266425       0.16340
  25     40.54        0.0004        0.0001       12.1448       12.1448      12.144431       0.15135
  24     48.69        0.0004        0.0001       12.0122       12.0123      12.011904       0.13714
  23     57.69        0.0004        0.0001       11.8821       11.8822      11.881831       0.12192
  22     68.43        0.0004        0.0001       11.7406       11.7407      11.740310       0.11125
  21     81.20        0.0004        0.0001       11.5809       11.5810      11.580679       0.10548
  20     96.49        0.0003        0.0001       11.3953       11.3954      11.395107       0.10242
  19     114.6        0.0003        0.0001       11.1681       11.1682      11.167930       0.10608
  18     136.5        0.0003        0.0002       10.9009       10.9011      10.900765       0.10273
  17     162.9        0.0003        0.0002       10.5573       10.5575      10.557273       0.10979
  16     196.4        0.0002        0.0002       10.0125       10.0127      10.012517       0.13712
  15     218.7        0.0002        0.0002        9.6041        9.6044       9.604150       0.15504
  14     243.0        0.0002        0.0002        9.0698        9.0700       9.069852       0.18531
  13     269.0        0.0002        0.0002        8.3269        8.3271       8.326977       0.24099
  12     297.5        0.0001        0.0002        7.4699        7.4701       7.469961       0.25418
  11     328.5        0.0001        0.0002        6.5428        6.5430       6.542914       0.25206
  10     361.9        0.0001        0.0002        5.6022        5.6024       5.602320       0.23798
   9     398.1        0.0001        0.0002        4.7598        4.7600       4.759896       0.19627
   8     437.6        0.0001        0.0002        4.0023        4.0025       4.002442       0.16195
   7     480.5        0.0001        0.0002        3.2912        3.2914       3.291338       0.13966
   6     533.0        0.0001        0.0001        2.5693        2.5694       2.569348       0.11615
   5     589.8        0.0000        0.0001        1.9368        1.9369       1.936829       0.09389
   4     651.6        0.0001        0.0001        1.3733        1.3734       1.373373       0.07705
   3     718.7        0.0001        0.0001        0.9292        0.9292       0.929145       0.05583
   2     792.3        0.0001        0.0000        0.6034        0.6034       0.603340       0.03737
   1     891.5        0.0002        0.0000        0.3083        0.3083       0.308076       0.02513
   0    1013.0        0.0009        0.0000        0.1006        0.1006       0.099621       0.01447



 Wavenumbers:  4000. -  4650. cm-1, ATM      1
 LEVEL PRESSURE   UPWARD FLUX   DIFDOWN FLUX  DIRDOWN FLUX  DOWNWARD FLUX   NET FLUX    HEATING RATE
          mb          W/m2          W/m2          W/m2        W/m2          W/m2       degree/day
  51    .06700        0.2255        0.0000       15.2623       15.2623      15.036875       0.00000
  50    .07753        0.2255        0.0000       15.2623       15.2623      15.036874       0.00079
  49    .09103        0.2255        0.0000       15.2623       15.2623      15.036873       0.00078
  48    0.1069        0.2255        0.0000       15.2623       15.2623      15.036872       0.00076
  47    0.1255        0.2255        0.0000       15.2623       15.2623      15.036870       0.00074
  46    0.1487        0.2255        0.0000       15.2623       15.2623      15.036868       0.00075
  45    0.1794        0.2255        0.0000       15.2623       15.2623      15.036865       0.00077
  44    0.2165        0.2255        0.0000       15.2623       15.2623      15.036862       0.00076
  43    0.2613        0.2255        0.0000       15.2623       15.2623      15.036858       0.00074
  42    0.3336        0.2255        0.0000       15.2623       15.2623      15.036851       0.00076
  41    0.4307        0.2255        0.0000       15.2623       15.2623      15.036842       0.00077
  40    0.5894        0.2255        0.0000       15.2623       15.2623      15.036828       0.00079
  39     1.339        0.2255        0.0000       15.2622       15.2622      15.036739       0.00100
  38     1.782        0.2255        0.0000       15.2621       15.2621      15.036669       0.00132
  37     2.292        0.2255        0.0000       15.2620       15.2620      15.036576       0.00155
  36     2.964        0.2255        0.0000       15.2619       15.2619      15.036436       0.00175
  35     3.853        0.2254        0.0000       15.2617       15.2617      15.036229       0.00196
  34     5.035        0.2254        0.0000       15.2613       15.2614      15.035924       0.00218
  33     6.613        0.2254        0.0000       15.2609       15.2609      15.035474       0.00240
  32     8.786        0.2254        0.0000       15.2602       15.2602      15.034811       0.00258
  31     11.80        0.2254        0.0000       15.2591       15.2592      15.033767       0.00292
  30     15.07        0.2254        0.0001       15.2579       15.2579      15.032541       0.00316
  29     18.79        0.2254        0.0001       15.2564       15.2565      15.031057       0.00336
  28     23.16        0.2254        0.0001       15.2545       15.2546      15.029213       0.00357
  27     28.12        0.2254        0.0001       15.2522       15.2523      15.026977       0.00380
  26     33.73        0.2253        0.0001       15.2494       15.2496      15.024216       0.00415
  25     40.54        0.2253        0.0001       15.2456       15.2458      15.020464       0.00465
  24     48.69        0.2253        0.0002       15.2406       15.2408      15.015453       0.00519
  23     57.69        0.2253        0.0002       15.2346       15.2348      15.009498       0.00558
  22     68.43        0.2252        0.0002       15.2270       15.2273      15.002021       0.00588
  21     81.20        0.2252        0.0003       15.2177       15.2180      14.992787       0.00610
  20     96.49        0.2252        0.0003       15.2063       15.2067      14.981532       0.00621
  19     114.6        0.2251        0.0004       15.1920       15.1924      14.967307       0.00664
  18     136.5        0.2250        0.0005       15.1746       15.1751      14.950009       0.00665
  17     162.9        0.2250        0.0006       15.1528       15.1533      14.928356       0.00692
  16     196.4        0.2249        0.0007       15.1218       15.1225      14.897548       0.00775
  15     218.7        0.2249        0.0008       15.0984       15.0992      14.874282       0.00883
  14     243.0        0.2249        0.0009       15.0676       15.0684      14.843569       0.01065
  13     269.0        0.2249        0.0009       15.0221       15.0231      14.798208       0.01471
  12     297.5        0.2249        0.0010       14.9603       14.9614      14.736449       0.01832
  11     328.5        0.2250        0.0011       14.8757       14.8768      14.651824       0.02301
  10     361.9        0.2252        0.0012       14.7569       14.7582      14.533010       0.03006
   9     398.1        0.2254        0.0014       14.5960       14.5973      14.371940       0.03753
   8     437.6        0.2257        0.0015       14.3895       14.3910      14.165248       0.04419
   7     480.5        0.2262        0.0016       14.1391       14.1407      13.914425       0.04926
   6     533.0        0.2271        0.0017       13.8306       13.8323      13.605172       0.04975
   5     589.8        0.2284        0.0018       13.4947       13.4965      13.268134       0.05003
   4     651.6        0.2304        0.0020       13.0918       13.0937      12.863343       0.05536
   3     718.7        0.2332        0.0021       12.6299       12.6320      12.398813       0.05838
   2     792.3        0.2369        0.0022       12.1517       12.1539      11.916978       0.05526
   1     891.5        0.2436        0.0023       11.5578       11.5601      11.316537       0.05109
   0    1013.0        0.2572        0.0025       10.8936       10.8962      10.638927       0.04705



 Wavenumbers:  4650. -  5150. cm-1, ATM      1
 LEVEL PRESSURE   UPWARD FLUX   DIFDOWN FLUX  DIRDOWN FLUX  DOWNWARD FLUX   NET FLUX    HEATING RATE
          mb          W/m2          W/m2          W/m2        W/m2          W/m2       degree/day
  51    .06700        0.1719        0.0000       14.4465       14.4465      14.274595       0.00000
  50    .07753        0.1719        0.0000       14.4463       14.4463      14.274359       0.18924
  49    .09103        0.1719        0.0000       14.4460       14.4460      14.274063       0.18479
  48    0.1069        0.1719        0.0000       14.4456       14.4456      14.273725       0.18012
  47    0.1255        0.1719        0.0000       14.4453       14.4453      14.273338       0.17541
  46    0.1487        0.1719        0.0000       14.4448       14.4448      14.272852       0.17694
  45    0.1794        0.1719        0.0000       14.4441       14.4441      14.272194       0.18069
  44    0.2165        0.1719        0.0000       14.4433       14.4433      14.271422       0.17558
  43    0.2613        0.1719        0.0000       14.4424       14.4424      14.270518       0.17039
  42    0.3336        0.1719        0.0000       14.4410       14.4410      14.269046       0.17163
  41    0.4307        0.1719        0.0000       14.4391       14.4391      14.267137       0.16598
  40    0.5894        0.1719        0.0000       14.4360       14.4360      14.264121       0.16038
  39     1.339        0.1719        0.0000       14.4233       14.4233      14.251382       0.14342
  38     1.782        0.1719        0.0000       14.4168       14.4169      14.244937       0.12270
  37     2.292        0.1719        0.0000       14.4102       14.4102      14.238311       0.10975
  36     2.964        0.1719        0.0000       14.4026       14.4027      14.230755       0.09484
  35     3.853        0.1719        0.0000       14.3943       14.3943      14.222401       0.07929
  34     5.035        0.1719        0.0000       14.3853       14.3854      14.213475       0.06376
  33     6.613        0.1719        0.0000       14.3761       14.3761      14.204197       0.04960
  32     8.786        0.1719        0.0000       14.3664       14.3664      14.194521       0.03758
  31     11.80        0.1719        0.0001       14.3551       14.3552      14.183296       0.03143
  30     15.07        0.1718        0.0001       14.3440       14.3441      14.172252       0.02851
  29     18.79        0.1718        0.0001       14.3313       14.3314      14.159550       0.02880
  28     23.16        0.1718        0.0001       14.3154       14.3155      14.143680       0.03069
  27     28.12        0.1718        0.0002       14.2955       14.2957      14.123914       0.03360
  26     33.73        0.1718        0.0002       14.2714       14.2716      14.099853       0.03618
  25     40.54        0.1717        0.0002       14.2399       14.2401      14.068357       0.03907
  24     48.69        0.1717        0.0003       14.1990       14.1993      14.027618       0.04216
  23     57.69        0.1717        0.0003       14.1516       14.1519      13.980209       0.04444
  22     68.43        0.1716        0.0004       14.0927       14.0931      13.921481       0.04617
  21     81.20        0.1716        0.0004       14.0212       14.0216      13.850046       0.04720
  20     96.49        0.1715        0.0005       13.9361       13.9366      13.765097       0.04689
  19     114.6        0.1715        0.0006       13.8377       13.8383      13.666854       0.04587
  18     136.5        0.1714        0.0007       13.7275       13.7282      13.556804       0.04232
  17     162.9        0.1713        0.0008       13.6063       13.6071      13.435758       0.03869
  16     196.4        0.1713        0.0010       13.4642       13.4652      13.293959       0.03569
  15     218.7        0.1713        0.0011       13.3776       13.3787      13.207496       0.03283
  14     243.0        0.1712        0.0012       13.2860       13.2872      13.115986       0.03174
  13     269.0        0.1713        0.0014       13.1835       13.1849      13.013643       0.03320
  12     297.5        0.1713        0.0015       13.0650       13.0665      12.895127       0.03515
  11     328.5        0.1715        0.0016       12.9254       12.9270      12.755541       0.03795
  10     361.9        0.1717        0.0018       12.7587       12.7604      12.588729       0.04221
   9     398.1        0.1720        0.0019       12.5574       12.5593      12.387304       0.04693
   8     437.6        0.1725        0.0020       12.3136       12.3157      12.143152       0.05220
   7     480.5        0.1732        0.0022       12.0140       12.0162      11.842927       0.05896
   6     533.0        0.1744        0.0023       11.6039       11.6063      11.431814       0.06613
   5     589.8        0.1762        0.0025       11.1341       11.1366      10.960371       0.06998
   4     651.6        0.1787        0.0026       10.6153       10.6179      10.439125       0.07128
   3     718.7        0.1823        0.0027       10.0900       10.0927       9.910453       0.06644
   2     792.3        0.1870        0.0028        9.5878        9.5906       9.403542       0.05814
   1     891.5        0.1956        0.0030        8.9871        8.9901       8.794500       0.05183
   0    1013.0        0.2115        0.0031        8.3214        8.3245       8.112977       0.04732



 Wavenumbers:  5150. -  6150. cm-1, ATM      1
 LEVEL PRESSURE   UPWARD FLUX   DIFDOWN FLUX  DIRDOWN FLUX  DOWNWARD FLUX   NET FLUX    HEATING RATE
          mb          W/m2          W/m2          W/m2        W/m2          W/m2       degree/day
  51    .06700        0.4749        0.0000       36.2175       36.2175      35.742601       0.00000
  50    .07753        0.4749        0.0000       36.2174       36.2174      35.742566       0.02761
  49    .09103        0.4749        0.0000       36.2174       36.2174      35.742522       0.02811
  48    0.1069        0.4749        0.0000       36.2173       36.2173      35.742468       0.02860
  47    0.1255        0.4749        0.0000       36.2173       36.2173      35.742404       0.02905
  46    0.1487        0.4749        0.0000       36.2172       36.2172      35.742320       0.03061
  45    0.1794        0.4749        0.0000       36.2171       36.2171      35.742201       0.03272
  44    0.2165        0.4749        0.0000       36.2169       36.2169      35.742054       0.03335
  43    0.2613        0.4749        0.0000       36.2167       36.2167      35.741874       0.03382
  42    0.3336        0.4749        0.0000       36.2164       36.2164      35.741568       0.03573
  41    0.4307        0.4749        0.0000       36.2160       36.2160      35.741147       0.03659
  40    0.5894        0.4749        0.0000       36.2153       36.2153      35.740442       0.03749
  39     1.339        0.4748        0.0000       36.2118       36.2118      35.736992       0.03884
  38     1.782        0.4748        0.0000       36.2097       36.2098      35.734951       0.03886
  37     2.292        0.4748        0.0001       36.2074       36.2074      35.732596       0.03900
  36     2.964        0.4748        0.0001       36.2043       36.2043      35.729518       0.03864
  35     3.853        0.4748        0.0001       36.2002       36.2003      35.725480       0.03832
  34     5.035        0.4748        0.0001       36.1948       36.1949      35.720166       0.03796
  33     6.613        0.4747        0.0002       36.1877       36.1879      35.713162       0.03744
  32     8.786        0.4747        0.0002       36.1784       36.1786      35.703918       0.03590
  31     11.80        0.4746        0.0003       36.1654       36.1657      35.691084       0.03593
  30     15.07        0.4745        0.0004       36.1520       36.1523      35.677810       0.03427
  29     18.79        0.4744        0.0005       36.1374       36.1379      35.663418       0.03263
  28     23.16        0.4743        0.0006       36.1211       36.1217      35.647371       0.03103
  27     28.12        0.4742        0.0007       36.1035       36.1042      35.629933       0.02964
  26     33.73        0.4741        0.0008       36.0847       36.0856      35.611490       0.02773
  25     40.54        0.4739        0.0010       36.0636       36.0646      35.590696       0.02580
  24     48.69        0.4738        0.0012       36.0401       36.0413      35.567516       0.02399
  23     57.69        0.4736        0.0014       36.0164       36.0178      35.544256       0.02180
  22     68.43        0.4733        0.0017       35.9910       35.9927      35.519411       0.01953
  21     81.20        0.4731        0.0020       35.9634       35.9654      35.492359       0.01788
  20     96.49        0.4727        0.0024       35.9325       35.9349      35.462200       0.01665
  19     114.6        0.4723        0.0029       35.8970       35.8999      35.427556       0.01618
  18     136.5        0.4719        0.0034       35.8504       35.8538      35.381918       0.01755
  17     162.9        0.4713        0.0040       35.7698       35.7739      35.302552       0.02537
  16     196.4        0.4706        0.0048       35.5998       35.6046      35.134027       0.04242
  15     218.7        0.4701        0.0053       35.4112       35.4165      34.946397       0.07124
  14     243.0        0.4697        0.0059       35.0448       35.0506      34.580975       0.12674
  13     269.0        0.4692        0.0063       34.2953       34.3016      33.832433       0.24282
  12     297.5        0.4687        0.0068       33.3087       33.3155      32.846848       0.29231
  11     328.5        0.4682        0.0072       32.1963       32.2036      31.735369       0.30221
  10     361.9        0.4678        0.0076       30.8648       30.8725      30.404678       0.33668
   9     398.1        0.4674        0.0079       29.3521       29.3600      28.892597       0.35228
   8     437.6        0.4672        0.0082       27.7441       27.7524      27.285193       0.34367
   7     480.5        0.4671        0.0085       26.0590       26.0675      25.600393       0.33089
   6     533.0        0.4673        0.0088       24.2830       24.2918      23.824433       0.28570
   5     589.8        0.4681        0.0091       22.8044       22.8136      22.345469       0.21953
   4     651.6        0.4697        0.0096       21.6190       21.6286      21.158871       0.16227
   3     718.7        0.4725        0.0102       20.7191       20.7293      20.256791       0.11337
   2     792.3        0.4768        0.0108       20.0035       20.0143      19.537512       0.08249
   1     891.5        0.4859        0.0117       19.1759       19.1876      18.701673       0.07113
   0    1013.0        0.5083        0.0126       18.1924       18.2050      17.696687       0.06978



 Wavenumbers:  6150. -  7700. cm-1, ATM      1
 LEVEL PRESSURE   UPWARD FLUX   DIFDOWN FLUX  DIRDOWN FLUX  DOWNWARD FLUX   NET FLUX    HEATING RATE
          mb          W/m2          W/m2          W/m2        W/m2          W/m2       degree/day
  51    .06700        0.8121        0.0000       66.9856       66.9856      66.173513       0.00000
  50    .07753        0.8121        0.0000       66.9856       66.9856      66.173461       0.04144
  49    .09103        0.8121        0.0000       66.9855       66.9855      66.173394       0.04174
  48    0.1069        0.8121        0.0000       66.9854       66.9854      66.173315       0.04203
  47    0.1255        0.8121        0.0000       66.9853       66.9853      66.173222       0.04228
  46    0.1487        0.8121        0.0000       66.9852       66.9852      66.173101       0.04413
  45    0.1794        0.8121        0.0000       66.9850       66.9850      66.172931       0.04673
  44    0.2165        0.8121        0.0000       66.9848       66.9848      66.172723       0.04720
  43    0.2613        0.8121        0.0000       66.9845       66.9846      66.172471       0.04750
  42    0.3336        0.8121        0.0000       66.9841       66.9841      66.172044       0.04984
  41    0.4307        0.8121        0.0000       66.9835       66.9835      66.171461       0.05065
  40    0.5894        0.8121        0.0001       66.9825       66.9825      66.170490       0.05165
  39     1.339        0.8120        0.0001       66.9776       66.9777      66.165770       0.05314
  38     1.782        0.8119        0.0002       66.9747       66.9749      66.162984       0.05304
  37     2.292        0.8119        0.0002       66.9714       66.9716      66.159771       0.05322
  36     2.964        0.8118        0.0003       66.9671       66.9674      66.155570       0.05274
  35     3.853        0.8117        0.0004       66.9614       66.9618      66.150052       0.05237
  34     5.035        0.8116        0.0005       66.9538       66.9544      66.142776       0.05198
  33     6.613        0.8114        0.0007       66.9439       66.9446      66.133151       0.05146
  32     8.786        0.8112        0.0009       66.9307       66.9316      66.120371       0.04963
  31     11.80        0.8109        0.0012       66.9121       66.9134      66.102464       0.05013
  30     15.07        0.8106        0.0016       66.8927       66.8943      66.083724       0.04838
  29     18.79        0.8102        0.0020       66.8713       66.8733      66.063130       0.04669
  28     23.16        0.8097        0.0024       66.8471       66.8495      66.039808       0.04510
  27     28.12        0.8092        0.0030       66.8203       66.8232      66.014013       0.04385
  26     33.73        0.8086        0.0036       66.7913       66.7949      65.986231       0.04177
  25     40.54        0.8080        0.0043       66.7579       66.7622      65.954269       0.03965
  24     48.69        0.8071        0.0051       66.7198       66.7249      65.917777       0.03776
  23     57.69        0.8062        0.0061       66.6804       66.6865      65.880251       0.03517
  22     68.43        0.8051        0.0072       66.6369       66.6441      65.838992       0.03244
  21     81.20        0.8038        0.0085       66.5881       66.5967      65.792882       0.03047
  20     96.49        0.8022        0.0102       66.5323       66.5425      65.740254       0.02905
  19     114.6        0.8004        0.0121       66.4672       66.4792      65.678849       0.02867
  18     136.5        0.7982        0.0143       66.3822       66.3966      65.598387       0.03094
  17     162.9        0.7955        0.0170       66.2399       66.2569      65.461332       0.04381
  16     196.4        0.7922        0.0204       65.9466       65.9670      65.174799       0.07212
  15     218.7        0.7900        0.0226       65.6514       65.6740      64.884039       0.11039
  14     243.0        0.7876        0.0249       65.1482       65.1731      64.385471       0.17292
  13     269.0        0.7851        0.0271       64.1152       64.1423      63.357135       0.33359
  12     297.5        0.7826        0.0291       62.5106       62.5397      61.757139       0.47454
  11     328.5        0.7801        0.0311       60.5129       60.5439      59.763878       0.54196
  10     361.9        0.7776        0.0329       58.2676       58.3004      57.522819       0.56701
   9     398.1        0.7753        0.0344       55.6881       55.7225      54.947229       0.60005
   8     437.6        0.7732        0.0357       52.7570       52.7927      52.019507       0.62597
   7     480.5        0.7717        0.0366       49.5366       49.5732      48.801535       0.63200
   6     533.0        0.7710        0.0376       45.8844       45.9220      45.150955       0.58726
   5     589.8        0.7719        0.0385       42.4698       42.5083      41.736327       0.50684
   4     651.6        0.7754        0.0394       39.3280       39.3673      38.591941       0.43000
   3     718.7        0.7822        0.0404       36.5964       36.6368      35.854644       0.34400
   2     792.3        0.7931        0.0417       34.2844       34.3261      33.532946       0.26627
   1     891.5        0.8166        0.0435       31.7640       31.8075      30.990892       0.21632
   0    1013.0        0.8748        0.0454       29.1615       29.2069      28.332097       0.18461



 Wavenumbers:  7700. -  8050. cm-1, ATM      1
 LEVEL PRESSURE   UPWARD FLUX   DIFDOWN FLUX  DIRDOWN FLUX  DOWNWARD FLUX   NET FLUX    HEATING RATE
          mb          W/m2          W/m2          W/m2        W/m2          W/m2       degree/day
  51    .06700        0.4980        0.0000       15.8307       15.8307      15.332732       0.00000
  50    .07753        0.4980        0.0000       15.8307       15.8307      15.332714       0.01449
  49    .09103        0.4980        0.0000       15.8307       15.8307      15.332691       0.01420
  48    0.1069        0.4980        0.0000       15.8306       15.8306      15.332665       0.01390
  47    0.1255        0.4980        0.0000       15.8306       15.8306      15.332635       0.01360
  46    0.1487        0.4980        0.0000       15.8306       15.8306      15.332597       0.01380
  45    0.1794        0.4980        0.0000       15.8305       15.8305      15.332545       0.01420
  44    0.2165        0.4980        0.0000       15.8304       15.8304      15.332484       0.01393
  43    0.2613        0.4980        0.0000       15.8304       15.8304      15.332412       0.01367
  42    0.3336        0.4980        0.0000       15.8302       15.8303      15.332292       0.01399
  41    0.4307        0.4980        0.0000       15.8301       15.8301      15.332132       0.01384
  40    0.5894        0.4980        0.0000       15.8298       15.8298      15.331873       0.01382
  39     1.339        0.4980        0.0001       15.8285       15.8286      15.330643       0.01384
  38     1.782        0.4979        0.0001       15.8278       15.8279      15.329921       0.01375
  37     2.292        0.4979        0.0001       15.8269       15.8270      15.329085       0.01385
  36     2.964        0.4979        0.0001       15.8258       15.8259      15.327987       0.01378
  35     3.853        0.4979        0.0002       15.8243       15.8245      15.326537       0.01376
  34     5.035        0.4979        0.0002       15.8223       15.8225      15.324610       0.01376
  33     6.613        0.4979        0.0003       15.8197       15.8200      15.322037       0.01376
  32     8.786        0.4979        0.0004       15.8161       15.8165      15.318571       0.01346
  31     11.80        0.4979        0.0005       15.8110       15.8115      15.313614       0.01388
  30     15.07        0.4979        0.0006       15.8055       15.8061      15.308296       0.01373
  29     18.79        0.4978        0.0008       15.7993       15.8001      15.302295       0.01361
  28     23.16        0.4978        0.0010       15.7921       15.7931      15.295293       0.01354
  27     28.12        0.4978        0.0012       15.7839       15.7851      15.287298       0.01359
  26     33.73        0.4977        0.0014       15.7747       15.7761      15.278366       0.01343
  25     40.54        0.4977        0.0017       15.7636       15.7653      15.267600       0.01336
  24     48.69        0.4976        0.0020       15.7503       15.7523      15.254655       0.01340
  23     57.69        0.4976        0.0024       15.7356       15.7380      15.240484       0.01328
  22     68.43        0.4975        0.0028       15.7183       15.7212      15.223671       0.01322
  21     81.20        0.4974        0.0034       15.6978       15.7011      15.203736       0.01317
  20     96.49        0.4973        0.0040       15.6734       15.6774      15.180119       0.01304
  19     114.6        0.4972        0.0047       15.6447       15.6495      15.152269       0.01300
  18     136.5        0.4971        0.0056       15.6110       15.6166      15.119528       0.01259
  17     162.9        0.4969        0.0066       15.5712       15.5778      15.080907       0.01234
  16     196.4        0.4968        0.0080       15.5202       15.5282      15.031393       0.01246
  15     218.7        0.4967        0.0089       15.4870       15.4959      14.999194       0.01222
  14     243.0        0.4966        0.0098       15.4512       15.4610      14.964438       0.01205
  13     269.0        0.4965        0.0109       15.4126       15.4234      14.926954       0.01216
  12     297.5        0.4964        0.0120       15.3710       15.3830      14.886554       0.01198
  11     328.5        0.4963        0.0132       15.3260       15.3392      14.842855       0.01188
  10     361.9        0.4963        0.0145       15.2774       15.2919      14.795545       0.01197
   9     398.1        0.4963        0.0159       15.2246       15.2405      14.744119       0.01198
   8     437.6        0.4964        0.0174       15.1670       15.1844      14.687921       0.01202
   7     480.5        0.4967        0.0190       15.1034       15.1224      14.625714       0.01222
   6     533.0        0.4971        0.0209       15.0222       15.0431      14.546021       0.01282
   5     589.8        0.4978        0.0230       14.9305       14.9535      14.455739       0.01340
   4     651.6        0.4988        0.0253       14.8261       14.8514      14.352549       0.01411
   3     718.7        0.5003        0.0276       14.7091       14.7367      14.236375       0.01460
   2     792.3        0.5023        0.0301       14.5802       14.6103      14.107943       0.01473
   1     891.5        0.5057        0.0334       14.4001       14.4335      13.927771       0.01533
   0    1013.0        0.5113        0.0373       14.1676       14.2049      13.693590       0.01626



 Wavenumbers:  8050. - 12850. cm-1, ATM      1
 LEVEL PRESSURE   UPWARD FLUX   DIFDOWN FLUX  DIRDOWN FLUX  DOWNWARD FLUX   NET FLUX    HEATING RATE
          mb          W/m2          W/m2          W/m2        W/m2          W/m2       degree/day
  51    .06700       25.5778        0.0000      221.6414      221.6414     196.063621       0.00000
  50    .07753       25.5778        0.0000      221.6414      221.6414     196.063621       0.00000
  49    .09103       25.5778        0.0001      221.6413      221.6414     196.063621       0.00000
  48    0.1069       25.5777        0.0001      221.6413      221.6413     196.063621      -0.00000
  47    0.1255       25.5777        0.0001      221.6412      221.6413     196.063621       0.00000
  46    0.1487       25.5777        0.0002      221.6411      221.6413     196.063621      -0.00000
  45    0.1794       25.5776        0.0003      221.6410      221.6412     196.063621      -0.00000
  44    0.2165       25.5775        0.0003      221.6408      221.6412     196.063621       0.00000
  43    0.2613       25.5775        0.0004      221.6406      221.6411     196.063621       0.00000
  42    0.3336       25.5773        0.0006      221.6404      221.6410     196.063621      -0.00000
  41    0.4307       25.5772        0.0008      221.6400      221.6408     196.063621       0.00000
  40    0.5894       25.5769        0.0012      221.6394      221.6405     196.063621      -0.00000
  39     1.339       25.5756        0.0028      221.6364      221.6392     196.063621       0.00000
  38     1.782       25.5748        0.0038      221.6347      221.6384     196.063621       0.00000
  37     2.292       25.5739        0.0049      221.6326      221.6376     196.063621       0.00000
  36     2.964       25.5728        0.0064      221.6300      221.6364     196.063621      -0.00000
  35     3.853       25.5712        0.0083      221.6265      221.6349     196.063621       0.00000
  34     5.035       25.5692        0.0109      221.6219      221.6328     196.063621       0.00000
  33     6.613       25.5665        0.0144      221.6157      221.6301     196.063621      -0.00000
  32     8.786       25.5628        0.0191      221.6073      221.6264     196.063621      -0.00000
  31     11.80       25.5575        0.0258      221.5953      221.6211     196.063621       0.00000
  30     15.07       25.5518        0.0330      221.5824      221.6154     196.063621       0.00000
  29     18.79       25.5454        0.0411      221.5679      221.6090     196.063621       0.00000
  28     23.16       25.5379        0.0507      221.5509      221.6015     196.063621       0.00000
  27     28.12       25.5293        0.0616      221.5314      221.5929     196.063621      -0.00000
  26     33.73       25.5197        0.0738      221.5095      221.5833     196.063621       0.00000
  25     40.54       25.5080        0.0886      221.4831      221.5717     196.063621       0.00000
  24     48.69       25.4940        0.1064      221.4512      221.5576     196.063621       0.00000
  23     57.69       25.4785        0.1261      221.4160      221.5421     196.063621      -0.00000
  22     68.43       25.4600        0.1495      221.3742      221.5236     196.063621       0.00000
  21     81.20       25.4380        0.1774      221.3242      221.5016     196.063621      -0.00000
  20     96.49       25.4116        0.2108      221.2645      221.4753     196.063621       0.00000
  19     114.6       25.3804        0.2505      221.1858      221.4363     196.055894       0.00361
  18     136.5       25.3432        0.2976      221.0903      221.3879     196.044708       0.00430
  17     162.9       25.2989        0.3538      220.9669      221.3207     196.021788       0.00733
  16     196.4       25.2413        0.4269      220.7736      221.2006     195.959212       0.01575
  15     218.7       25.2035        0.4750      220.6054      221.0804     195.876912       0.03125
  14     243.0       25.1624        0.5271      220.3409      220.8681     195.705668       0.05939
  13     269.0       25.1185        0.5834      219.8552      220.4386     195.320148       0.12506
  12     297.5       25.0720        0.6437      219.1256      219.7694     194.697359       0.18471
  11     328.5       25.0237        0.7085      218.1465      218.8550     193.831268       0.23549
  10     361.9       24.9747        0.7773      216.8872      217.6645     192.689805       0.28880
   9     398.1       24.9264        0.8502      215.2499      216.1001     191.173701       0.35322
   8     437.6       24.8816        0.9266      213.1114      214.0380     189.156414       0.43131
   7     480.5       24.8462        1.0056      210.2947      211.3003     186.454092       0.53073
   6     533.0       24.8238        1.0992      206.3441      207.4433     182.619519       0.61686
   5     589.8       24.8313        1.1960      201.7196      202.9155     178.084266       0.67318
   4     651.6       24.8873        1.2955      196.5203      197.8158     172.928572       0.70505
   3     718.7       25.0048        1.3990      191.1461      192.5451     167.540266       0.67716
   2     792.3       25.1978        1.5069      185.8170      187.3239     162.126106       0.62094
   1     891.5       25.6131        1.6470      179.0025      180.6495     155.036394       0.60330
   0    1013.0       26.5760        1.8033      170.8432      172.6465     146.070503       0.62255



 Wavenumbers: 12850. - 16000. cm-1, ATM      1
 LEVEL PRESSURE   UPWARD FLUX   DIFDOWN FLUX  DIRDOWN FLUX  DOWNWARD FLUX   NET FLUX    HEATING RATE
          mb          W/m2          W/m2          W/m2        W/m2          W/m2       degree/day
  51    .06700       61.2186        0.0000      138.8779      138.8779      77.659376       0.00000
  50    .07753       61.2185        0.0001      138.8771      138.8771      77.658587       0.63235
  49    .09103       61.2185        0.0001      138.8760      138.8761      77.657594       0.62071
  48    0.1069       61.2185        0.0002      138.8747      138.8750      77.656450       0.60897
  47    0.1255       61.2185        0.0003      138.8733      138.8736      77.655132       0.59758
  46    0.1487       61.2185        0.0005      138.8715      138.8720      77.653463       0.60836
  45    0.1794       61.2185        0.0007      138.8690      138.8697      77.651182       0.62606
  44    0.2165       61.2185        0.0009      138.8661      138.8670      77.648485       0.61353
  43    0.2613       61.2186        0.0012      138.8627      138.8639      77.645295       0.60137
  42    0.3336       61.2187        0.0016      138.8572      138.8588      77.640047       0.61184
  41    0.4307       61.2189        0.0022      138.8499      138.8521      77.633180       0.59710
  40    0.5894       61.2194        0.0031      138.8385      138.8416      77.622209       0.58339
  39     1.339       61.2239        0.0075      138.7880      138.7955      77.571587       0.56992
  38     1.782       61.2283        0.0101      138.7596      138.7698      77.541491       0.57298
  37     2.292       61.2349        0.0131      138.7266      138.7398      77.504915       0.60580
  36     2.964       61.2459        0.0171      138.6819      138.6990      77.453056       0.65098
  35     3.853       61.2639        0.0223      138.6198      138.6421      77.378156       0.71082
  34     5.035       61.2912        0.0292      138.5344      138.5637      77.272461       0.75504
  33     6.613       61.3293        0.0385      138.4204      138.4589      77.129603       0.76372
  32     8.786       61.3789        0.0510      138.2733      138.3242      76.945327       0.71566
  31     11.80       61.4432        0.0688      138.0786      138.1474      76.704155       0.67520
  30     15.07       61.5045        0.0879      137.8868      137.9747      76.470161       0.60413
  29     18.79       61.5669        0.1095      137.6855      137.7950      76.228121       0.54878
  28     23.16       61.6317        0.1347      137.4680      137.6027      75.970975       0.49724
  27     28.12       61.6965        0.1635      137.2394      137.4029      75.706468       0.44964
  26     33.73       61.7556        0.1957      137.0123      137.2080      75.452427       0.38196
  25     40.54       61.8115        0.2347      136.7709      137.0055      75.194026       0.32058
  24     48.69       61.8639        0.2816      136.5127      136.7943      74.930463       0.27275
  23     57.69       61.9068        0.3333      136.2615      136.5947      74.687897       0.22737
  22     68.43       61.9422        0.3948      135.9978      136.3926      74.450390       0.18671
  21     81.20       61.9627        0.4682      135.7317      136.1999      74.237209       0.14087
  20     96.49       61.9671        0.5558      135.4607      136.0166      74.049504       0.10360
  19     114.6       61.9720        0.6608      135.1644      135.8252      73.853154       0.09168
  18     136.5       61.9689        0.7852      134.8341      135.6193      73.650418       0.07796
  17     162.9       61.9570        0.9334      134.4577      135.3911      73.434104       0.06914
  16     196.4       61.9242        1.1257      133.9957      135.1214      73.197255       0.05962
  15     218.7       61.8963        1.2521      133.6988      134.9509      73.054581       0.05417
  14     243.0       61.8634        1.3894      133.3758      134.7652      72.901849       0.05297
  13     269.0       61.8254        1.5383      133.0226      134.5609      72.735513       0.05396
  12     297.5       61.7828        1.6991      132.6345      134.3337      72.550867       0.05476
  11     328.5       61.7379        1.8730      132.2028      134.0758      72.337934       0.05790
  10     361.9       61.6921        2.0601      131.7206      133.7807      72.088587       0.06309
   9     398.1       61.6475        2.2615      131.1798      133.4412      71.793742       0.06869
   8     437.6       61.6080        2.4774      130.5665      133.0438      71.435819       0.07653
   7     480.5       61.5811        2.7083      129.8562      132.5645      70.983368       0.08886
   6     533.0       61.5739        2.9914      128.9076      131.8990      70.325113       0.10589
   5     589.8       61.5985        3.2944      127.8113      131.1057      69.507149       0.12141
   4     651.6       61.6707        3.6170      126.5506      130.1676      68.496930       0.13815
   3     718.7       61.7998        3.9599      125.1412      129.1011      67.301295       0.15026
   2     792.3       61.9987        4.3234      123.6089      127.9323      65.933618       0.15686
   1     891.5       62.3962        4.8072      121.4995      126.3067      63.910467       0.17216
   0    1013.0       63.1646        5.3761      118.8765      124.2526      61.088038       0.19598



 Wavenumbers: 16000. - 22650. cm-1, ATM      1
 LEVEL PRESSURE   UPWARD FLUX   DIFDOWN FLUX  DIRDOWN FLUX  DOWNWARD FLUX   NET FLUX    HEATING RATE
          mb          W/m2          W/m2          W/m2        W/m2          W/m2       degree/day
  51    .06700      161.7834        0.0000      221.4255      221.4255      59.642051       0.00000
  50    .07753      161.7834        0.0004      221.4249      221.4253      59.641893       0.12620
  49    .09103      161.7835        0.0009      221.4242      221.4251      59.641664       0.14314
  48    0.1069      161.7835        0.0015      221.4233      221.4249      59.641358       0.16322
  47    0.1255      161.7836        0.0022      221.4223      221.4245      59.640947       0.18605
  46    0.1487      161.7837        0.0031      221.4210      221.4241      59.640343       0.22047
  45    0.1794      161.7840        0.0043      221.4191      221.4234      59.639397       0.25959
  44    0.2165      161.7844        0.0057      221.4167      221.4225      59.638114       0.29175
  43    0.2613      161.7849        0.0074      221.4139      221.4213      59.636374       0.32799
  42    0.3336      161.7860        0.0102      221.4089      221.4191      59.633066       0.38572
  41    0.4307      161.7878        0.0139      221.4020      221.4158      59.628079       0.43359
  40    0.5894      161.7913        0.0199      221.3899      221.4098      59.618568       0.50577
  39     1.339      161.8198        0.0484      221.3197      221.3681      59.548297       0.79113
  38     1.782      161.8453        0.0652      221.2686      221.3337      59.488428       1.13981
  37     2.292      161.8831        0.0845      221.2003      221.2848      59.401757       1.43549
  36     2.964      161.9453        0.1100      221.0966      221.2066      59.261329       1.76280
  35     3.853      162.0452        0.1435      220.9401      221.0836      59.038449       2.11517
  34     5.035      162.1954        0.1881      220.7131      220.9012      58.705809       2.37624
  33     6.613      162.4050        0.2476      220.4007      220.6483      58.243299       2.47258
  32     8.786      162.6783        0.3277      219.9916      220.3193      57.641058       2.33889
  31     11.80      163.0347        0.4422      219.4471      219.8893      56.854585       2.20188
  30     15.07      163.3773        0.5651      218.9095      219.4746      56.097263       1.95526
  29     18.79      163.7281        0.7038      218.3446      219.0484      55.320297       1.76162
  28     23.16      164.0961        0.8656      217.7335      218.5991      54.503041       1.58031
  27     28.12      164.4681        1.0505      217.0908      218.1413      53.673288       1.41052
  26     33.73      164.8143        1.2575      216.4498      217.7073      52.893036       1.17313
  25     40.54      165.1514        1.5075      215.7649      217.2724      52.121009       0.95779
  24     48.69      165.4790        1.8090      215.0258      216.8348      51.355809       0.79186
  23     57.69      165.7625        2.1400      214.2972      216.4372      50.674689       0.63845
  22     68.43      166.0177        2.5343      213.5180      216.0523      50.034575       0.50322
  21     81.20      166.2089        3.0042      212.7092      215.7134      49.504455       0.35030
  20     96.49      166.3319        3.5644      211.8555      215.4199      49.087986       0.22986
  19     114.6      166.4232        4.2284      210.9014      215.1299      48.706637       0.17806
  18     136.5      166.4944        5.0139      209.8115      214.8254      48.331021       0.14443
  17     162.9      166.5449        5.9465      208.5526      214.4991      47.954212       0.12044
  16     196.4      166.5372        7.1526      206.9993      214.1518      47.614665       0.08547
  15     218.7      166.5048        7.9423      206.0096      213.9519      47.447118       0.06361
  14     243.0      166.4566        8.7985      204.9494      213.7479      47.291288       0.05405
  13     269.0      166.3909        9.7239      203.8164      213.5403      47.149477       0.04600
  12     297.5      166.3068       10.7211      202.6077      213.3287      47.021984       0.03781
  11     328.5      166.2094       11.7952      201.3104      213.1056      46.896180       0.03421
  10     361.9      166.0987       12.9477      199.9223      212.8700      46.771266       0.03160
   9     398.1      165.9745       14.1837      198.4361      212.6198      46.645379       0.02933
   8     437.6      165.8382       15.5060      196.8456      212.3516      46.513403       0.02822
   7     480.5      165.6912       16.9179      195.1436      212.0615      46.370313       0.02810
   6     533.0      165.5113       18.6480      193.0503      211.6984      46.187076       0.02948
   5     589.8      165.3224       20.5036      190.7928      211.2963      45.973969       0.03163
   4     651.6      165.1288       22.4873      188.3614      210.8486      45.719870       0.03475
   3     718.7      164.9300       24.6022      185.7535      210.3557      45.425737       0.03696
   2     792.3      164.7278       26.8472      182.9699      209.8171      45.089281       0.03859
   1     891.5      164.4814       29.8431      179.2226      209.0657      44.584223       0.04298
   0    1013.0      164.2383       33.3897      174.7281      208.1178      43.879422       0.04894



 Wavenumbers: 22650. - 29000. cm-1, ATM      1
 LEVEL PRESSURE   UPWARD FLUX   DIFDOWN FLUX  DIRDOWN FLUX  DOWNWARD FLUX   NET FLUX    HEATING RATE
          mb          W/m2          W/m2          W/m2        W/m2          W/m2       degree/day
  51    .06700       72.5655        0.0000       83.5579       83.5579      10.992444       0.00000
  50    .07753       72.5654        0.0005       83.5574       83.5579      10.992444      -0.00000
  49    .09103       72.5654        0.0011       83.5567       83.5578      10.992444       0.00000
  48    0.1069       72.5653        0.0019       83.5559       83.5578      10.992444      -0.00000
  47    0.1255       72.5652        0.0027       83.5550       83.5577      10.992444       0.00000
  46    0.1487       72.5651        0.0038       83.5538       83.5576      10.992444       0.00000
  45    0.1794       72.5650        0.0052       83.5522       83.5575      10.992444      -0.00000
  44    0.2165       72.5649        0.0070       83.5504       83.5573      10.992444       0.00000
  43    0.2613       72.5647        0.0090       83.5481       83.5571      10.992444       0.00000
  42    0.3336       72.5644        0.0124       83.5445       83.5568      10.992444      -0.00000
  41    0.4307       72.5640        0.0168       83.5396       83.5564      10.992444       0.00000
  40    0.5894       72.5634        0.0241       83.5317       83.5558      10.992444       0.00000
  39     1.339       72.5603        0.0587       83.4941       83.5528      10.992444      -0.00000
  38     1.782       72.5585        0.0790       83.4720       83.5510      10.992444       0.00000
  37     2.292       72.5564        0.1024       83.4464       83.5489      10.992444      -0.00000
  36     2.964       72.5537        0.1333       83.4129       83.5462      10.992444       0.00000
  35     3.853       72.5501        0.1740       83.3686       83.5426      10.992444      -0.00000
  34     5.035       72.5454        0.2281       83.3097       83.5378      10.992444       0.00000
  33     6.613       72.5390        0.3003       83.2311       83.5314      10.992444      -0.00000
  32     8.786       72.5304        0.3976       83.1252       83.5228      10.992444       0.00000
  31     11.80       72.5181        0.5367       82.9738       83.5105      10.992444      -0.00000
  30     15.07       72.5048        0.6858       82.8114       83.4973      10.992444      -0.00000
  29     18.79       72.4899        0.8541       82.6282       83.4823      10.992444       0.00000
  28     23.16       72.4724        1.0504       82.4145       83.4648      10.992444       0.00000
  27     28.12       72.4524        1.2744       82.1704       83.4448      10.992444      -0.00000
  26     33.73       72.4300        1.5245       81.8979       83.4224      10.992444       0.00000
  25     40.54       72.4029        1.8259       81.5695       83.3953      10.992444       0.00000
  24     48.69       72.3702        2.1879       81.1748       83.3627      10.992444      -0.00000
  23     57.69       72.3343        2.5839       80.7428       83.3267      10.992444       0.00000
  22     68.43       72.2915        3.0532       80.2307       83.2840      10.992444       0.00000
  21     81.20       72.2405        3.6089       79.6240       83.2330      10.992444      -0.00000
  20     96.49       72.1797        4.2661       78.9060       83.1722      10.992444       0.00000
  19     114.6       72.1075        5.0393       78.0607       83.1000      10.992444      -0.00000
  18     136.5       72.0220        5.9457       77.0687       83.0144      10.992444       0.00000
  17     162.9       71.9201        7.0108       75.9018       82.9125      10.992444      -0.00000
  16     196.4       71.7880        8.3690       74.4115       82.7804      10.992444       0.00000
  15     218.7       71.7012        9.2470       73.4467       82.6937      10.992444      -0.00000
  14     243.0       71.6069       10.1891       72.4103       82.5994      10.992444       0.00000
  13     269.0       71.5047       11.1957       71.3014       82.4972      10.992444       0.00000
  12     297.5       71.3942       12.2671       70.1195       82.3867      10.992444      -0.00000
  11     328.5       71.2747       13.4062       68.8610       82.2672      10.992444       0.00000
  10     361.9       71.1460       14.6112       67.5272       82.1384      10.992444      -0.00000
   9     398.1       71.0073       15.8839       66.1158       81.9997      10.992444       0.00000
   8     437.6       70.8581       17.2233       64.6272       81.8505      10.992444       0.00000
   7     480.5       70.6978       18.6284       63.0619       81.6903      10.992444       0.00000
   6     533.0       70.5000       20.3155       61.1770       81.4925      10.992444      -0.00000
   5     589.8       70.2861       22.0829       59.1956       81.2785      10.992444       0.00000
   4     651.6       70.0551       23.9253       57.1222       81.0476      10.992444       0.00000
   3     718.7       69.8062       25.8357       54.9629       80.7987      10.992444      -0.00000
   2     792.3       69.5388       27.8046       52.7267       80.5313      10.992444      -0.00000
   1     891.5       69.1764       30.3390       49.8298       80.1689      10.992444       0.00000
   0    1013.0       68.7384       33.2036       46.5272       79.7308      10.992444       0.00000



 Wavenumbers: 29000. - 38000. cm-1, ATM      1
 LEVEL PRESSURE   UPWARD FLUX   DIFDOWN FLUX  DIRDOWN FLUX  DOWNWARD FLUX   NET FLUX    HEATING RATE
          mb          W/m2          W/m2          W/m2        W/m2          W/m2       degree/day
  51    .06700       11.0875        0.0000       29.4660       29.4660      18.378548       0.00000
  50    .07753       11.0873        0.0003       29.4617       29.4620      18.374734       3.05696
  49    .09103       11.0871        0.0008       29.4555       29.4563      18.369185       3.46862
  48    0.1069       11.0869        0.0012       29.4474       29.4486      18.361753       3.95572
  47    0.1255       11.0866        0.0018       29.4366       29.4384      18.351811       4.50723
  46    0.1487       11.0863        0.0025       29.4210       29.4235      18.337176       5.33485
  45    0.1794       11.0860        0.0034       29.3969       29.4003      18.314356       6.26444
  44    0.2165       11.0855        0.0046       29.3645       29.3691      18.283545       7.00896
  43    0.2613       11.0851        0.0059       29.3212       29.3271      18.242018       7.82767
  42    0.3336       11.0844        0.0081       29.2404       29.2485      18.164011       9.09487
  41    0.4307       11.0837        0.0109       29.1216       29.1326      18.048861      10.01207
  40    0.5894       11.0827        0.0155       28.9044       28.9199      17.837105      11.26089
  39     1.339       11.0831        0.0353       27.6014       27.6367      16.553597      14.44997
  38     1.782       11.0865        0.0457       26.7907       26.8364      15.749863      15.30181
  37     2.292       11.0932        0.0569       25.9184       25.9753      14.882138      14.37179
  36     2.964       11.1059        0.0707       24.9351       25.0058      13.899955      12.32936
  35     3.853       11.1282        0.0882       23.8931       23.9813      12.853060       9.93522
  34     5.035       11.1634        0.1104       22.8387       22.9491      11.785688       7.62486
  33     6.613       11.2136        0.1392       21.8116       21.9508      10.737166       5.60540
  32     8.786       11.2800        0.1769       20.8422       21.0191       9.739100       3.87613
  31     11.80       11.3676        0.2294       19.8906       20.1201       8.752489       2.76220
  30     15.07       11.4534        0.2848       19.1622       19.4470       7.993612       1.95927
  29     18.79       11.5434        0.3460       18.5321       18.8781       7.334646       1.49408
  28     23.16       11.6407        0.4162       17.9546       18.3708       6.730050       1.16909
  27     28.12       11.7425        0.4952       17.4280       17.9232       6.180722       0.93382
  26     33.73       11.8400        0.5831       16.9644       17.5474       5.707419       0.71162
  25     40.54       11.9374        0.6885       16.5188       17.2073       5.269925       0.54276
  24     48.69       12.0349        0.8148       16.0802       16.8951       4.860138       0.42407
  23     57.69       12.1217        0.9525       15.6801       16.6325       4.510797       0.32745
  22     68.43       12.2016        1.1151       15.2796       16.3947       4.193146       0.24972
  21     81.20       12.2604        1.3085       14.8885       16.1970       3.936630       0.16950
  20     96.49       12.2953        1.5407       14.4959       16.0366       3.741338       0.10779
  19     114.6       12.3188        1.8081       14.0739       15.8819       3.563175       0.08319
  18     136.5       12.3359        2.1166       13.6094       15.7261       3.390137       0.06654
  17     162.9       12.3472        2.4720       13.0932       15.5652       3.218035       0.05501
  16     196.4       12.3376        2.9186       12.4834       15.4019       3.064362       0.03868
  15     218.7       12.3227        3.2027       12.1087       15.3113       2.988662       0.02874
  14     243.0       12.3028        3.5026       11.7184       15.2210       2.918186       0.02444
  13     269.0       12.2772        3.8179       11.3137       15.1316       2.854401       0.02069
  12     297.5       12.2453        4.1474       10.8957       15.0431       2.797739       0.01681
  11     328.5       12.2094        4.4901       10.4623       14.9525       2.743102       0.01486
  10     361.9       12.1691        4.8440       10.0158       14.8598       2.690735       0.01325
   9     398.1       12.1242        5.2082        9.5567       14.7650       2.640760       0.01164
   8     437.6       12.0751        5.5807        9.0866       14.6673       2.592273       0.01037
   7     480.5       12.0212        5.9594        8.6078       14.5672       2.545951       0.00910
   6     533.0       11.9538        6.3990        8.0500       14.4490       2.495144       0.00817
   5     589.8       11.8806        6.8399        7.4864       14.3263       2.445651       0.00735
   4     651.6       11.8017        7.2781        6.9206       14.1987       2.396986       0.00666
   3     718.7       11.7170        7.7091        6.3571       14.0662       2.349126       0.00601
   2     792.3       11.6267        8.1271        5.8017       13.9288       2.302143       0.00539
   1     891.5       11.5055        8.6276        5.1220       13.7495       2.244030       0.00495
   0    1013.0       11.3617        9.1399        4.4016       13.5415       2.179784       0.00446



 Wavenumbers: 38000. - 50000. cm-1, ATM      1
 LEVEL PRESSURE   UPWARD FLUX   DIFDOWN FLUX  DIRDOWN FLUX  DOWNWARD FLUX   NET FLUX    HEATING RATE
          mb          W/m2          W/m2          W/m2        W/m2          W/m2       degree/day
  51    .06700        0.0069        0.0000        1.8174        1.8174       1.810587       0.00000
  50    .07753        0.0068        0.0001        1.8150        1.8150       1.808250       1.87287
  49    .09103        0.0067        0.0002        1.8115        1.8116       1.804913       2.08560
  48    0.1069        0.0066        0.0002        1.8069        1.8072       1.800524       2.33660
  47    0.1255        0.0066        0.0004        1.8009        1.8013       1.794746       2.61955
  46    0.1487        0.0064        0.0005        1.7923        1.7928       1.786369       3.05332
  45    0.1794        0.0063        0.0007        1.7791        1.7798       1.773484       3.53721
  44    0.2165        0.0061        0.0009        1.7616        1.7625       1.756329       3.90263
  43    0.2613        0.0059        0.0011        1.7383        1.7395       1.733542       4.29520
  42    0.3336        0.0056        0.0015        1.6956        1.6971       1.691503       4.90131
  41    0.4307        0.0053        0.0020        1.6341        1.6361       1.630864       5.27240
  40    0.5894        0.0047        0.0026        1.5252        1.5278       1.523151       5.72807
  39     1.339        0.0029        0.0038        0.9646        0.9684       0.965456       6.27863
  38     1.782        0.0022        0.0036        0.6957        0.6993       0.697085       5.10936
  37     2.292        0.0017        0.0031        0.4747        0.4778       0.476111       3.65991
  36     2.964        0.0013        0.0025        0.3027        0.3052       0.303941       2.16125
  35     3.853        0.0009        0.0020        0.1866        0.1886       0.187698       1.10317
  34     5.035        0.0007        0.0016        0.1122        0.1138       0.113105       0.53286
  33     6.613        0.0005        0.0012        0.0667        0.0679       0.067378       0.24446
  32     8.786        0.0003        0.0009        0.0393        0.0402       0.039909       0.10668
  31     11.80        0.0002        0.0007        0.0215        0.0222       0.021941       0.05031
  30     15.07        0.0001        0.0005        0.0123        0.0127       0.012593       0.02414
  29     18.79        0.0001        0.0003        0.0069        0.0072       0.007141       0.01236
  28     23.16        0.0000        0.0002        0.0038        0.0040       0.003907       0.00625
  27     28.12        0.0000        0.0001        0.0020        0.0021       0.002085       0.00310
  26     33.73        0.0000        0.0001        0.0011        0.0011       0.001113       0.00146
  25     40.54        0.0000        0.0000        0.0005        0.0006       0.000564       0.00068
  24     48.69        0.0000        0.0000        0.0002        0.0003       0.000267       0.00031
  23     57.69        0.0000        0.0000        0.0001        0.0001       0.000125       0.00013
  22     68.43        0.0000        0.0000        0.0000        0.0001       0.000054       0.00006
  21     81.20        0.0000        0.0000        0.0000        0.0000       0.000021       0.00002
  20     96.49        0.0000        0.0000        0.0000        0.0000       0.000008       0.00001
  19     114.6        0.0000        0.0000        0.0000        0.0000       0.000002       0.00000
  18     136.5        0.0000        0.0000        0.0000        0.0000       0.000001       0.00000
  17     162.9        0.0000        0.0000        0.0000        0.0000       0.000000       0.00000
  16     196.4        0.0000        0.0000        0.0000        0.0000       0.000000       0.00000
  15     218.7        0.0000        0.0000        0.0000        0.0000       0.000000       0.00000
  14     243.0        0.0000        0.0000        0.0000        0.0000       0.000000       0.00000
  13     269.0        0.0000        0.0000        0.0000        0.0000       0.000000       0.00000
  12     297.5        0.0000        0.0000        0.0000        0.0000       0.000000       0.00000
  11     328.5        0.0000        0.0000        0.0000        0.0000       0.000000       0.00000
  10     361.9        0.0000        0.0000        0.0000        0.0000       0.000000       0.00000
   9     398.1        0.0000        0.0000        0.0000        0.0000       0.000000       0.00000
   8     437.6        0.0000        0.0000        0.0000        0.0000       0.000000       0.00000
   7     480.5        0.0000        0.0000        0.0000        0.0000       0.000000       0.00000
   6     533.0        0.0000        0.0000        0.0000        0.0000       0.000000       0.00000
   5     589.8        0.0000        0.0000        0.0000        0.0000       0.000000       0.00000
   4     651.6        0.0000        0.0000        0.0000        0.0000       0.000000       0.00000
   3     718.7        0.0000        0.0000        0.0000        0.0000       0.000000       0.00000
   2     792.3        0.0000        0.0000        0.0000        0.0000       0.000000       0.00000
   1     891.5        0.0000        0.0000        0.0000        0.0000       0.000000       0.00000
   0    1013.0        0.0000        0.0000        0.0000        0.0000       0.000000       0.00000



 Wavenumbers:   820. -  2600. cm-1, ATM      1
 LEVEL PRESSURE   UPWARD FLUX   DIFDOWN FLUX  DIRDOWN FLUX  DOWNWARD FLUX   NET FLUX    HEATING RATE
          mb          W/m2          W/m2          W/m2        W/m2          W/m2       degree/day
  51    .06700        0.0693        0.0000        8.5018        8.5018       8.432443       0.00000
  50    .07753        0.0693        0.0000        8.4967        8.4967       8.427379       4.05923
  49    .09103        0.0693        0.0000        8.4957        8.4957       8.426368       0.63201
  48    0.1069        0.0693        0.0000        8.4947        8.4947       8.425341       0.54628
  47    0.1255        0.0693        0.0000        8.4935        8.4935       8.424155       0.53808
  46    0.1487        0.0693        0.0000        8.4920        8.4920       8.422668       0.54175
  45    0.1794        0.0693        0.0000        8.4900        8.4900       8.420718       0.53549
  44    0.2165        0.0693        0.0000        8.4879        8.4879       8.418554       0.49226
  43    0.2613        0.0693        0.0000        8.4855        8.4855       8.416195       0.44465
  42    0.3336        0.0693        0.0000        8.4820        8.4820       8.412724       0.40473
  41    0.4307        0.0693        0.0000        8.4780        8.4780       8.408688       0.35089
  40    0.5894        0.0693        0.0000        8.4720        8.4720       8.402649       0.32116
  39     1.339        0.0693        0.0000        8.4442        8.4442       8.374931       0.31206
  38     1.782        0.0693        0.0000        8.4286        8.4286       8.359268       0.29818
  37     2.292        0.0693        0.0000        8.4110        8.4110       8.341705       0.29089
  36     2.964        0.0693        0.0000        8.3886        8.3886       8.319260       0.28176
  35     3.853        0.0693        0.0000        8.3598        8.3598       8.290517       0.27277
  34     5.035        0.0693        0.0000        8.3236        8.3236       8.254247       0.25910
  33     6.613        0.0693        0.0000        8.2782        8.2782       8.208862       0.24263
  32     8.786        0.0693        0.0000        8.2207        8.2207       8.151361       0.22331
  31     11.80        0.0693        0.0000        8.1452        8.1452       8.075859       0.21138
  30     15.07        0.0693        0.0000        8.0751        8.0751       8.005799       0.18088
  29     18.79        0.0693        0.0000        8.0117        8.0117       7.942341       0.14388
  28     23.16        0.0693        0.0000        7.9568        7.9568       7.887518       0.10601
  27     28.12        0.0693        0.0000        7.9127        7.9127       7.843419       0.07497
  26     33.73        0.0693        0.0000        7.8770        7.8770       7.807709       0.05369
  25     40.54        0.0693        0.0000        7.8426        7.8426       7.773290       0.04270
  24     48.69        0.0693        0.0000        7.8052        7.8052       7.735913       0.03868
  23     57.69        0.0693        0.0000        7.7657        7.7657       7.696339       0.03710
  22     68.43        0.0693        0.0000        7.7198        7.7198       7.650496       0.03604
  21     81.20        0.0693        0.0000        7.6670        7.6670       7.597664       0.03491
  20     96.49        0.0693        0.0000        7.6057        7.6057       7.536409       0.03381
  19     114.6        0.0693        0.0000        7.5336        7.5336       7.464293       0.03367
  18     136.5        0.0693        0.0000        7.4434        7.4434       7.374099       0.03468
  17     162.9        0.0694        0.0000        7.3128        7.3128       7.243425       0.04177
  16     196.4        0.0694        0.0000        7.0953        7.0954       7.025991       0.05473
  15     218.7        0.0694        0.0000        6.9394        6.9394       6.870056       0.05920
  14     243.0        0.0694        0.0000        6.7354        6.7355       6.666033       0.07076
  13     269.0        0.0695        0.0000        6.4676        6.4677       6.398193       0.08689
  12     297.5        0.0696        0.0000        6.1850        6.1850       6.115491       0.08385
  11     328.5        0.0697        0.0000        5.8512        5.8512       5.781520       0.09081
  10     361.9        0.0699        0.0000        5.4382        5.4383       5.368371       0.10453
   9     398.1        0.0702        0.0000        5.0139        5.0139       4.943743       0.09893
   8     437.6        0.0706        0.0000        4.6560        4.6561       4.585478       0.07660
   7     480.5        0.0712        0.0000        4.3946        4.3946       4.323483       0.05145
   6     533.0        0.0721        0.0000        4.1603        4.1603       4.088201       0.03785
   5     589.8        0.0735        0.0000        3.9157        3.9157       3.842250       0.03651
   4     651.6        0.0755        0.0000        3.6521        3.6521       3.576610       0.03633
   3     718.7        0.0782        0.0000        3.4038        3.4039       3.325689       0.03153
   2     792.3        0.0815        0.0000        3.1900        3.1901       3.108553       0.02490
   1     891.5        0.0872        0.0000        2.9486        2.9487       2.861474       0.02103
   0    1013.0        0.0981        0.0000        2.6579        2.6580       2.559892       0.02094

  Modules and versions used in this calculation:

       rrtmg_sw.1col.f90:  $Revision$                    rrtmg_sw_init.f90:  $Revision$        
     rrtmgsw_cldprop.f90:  $Revision$                  rrtmgsw_cldprmc.f90:  NOT USED          
     rrtmg_sw_reftra.f90:  $Revision$                  rrtmg_sw_spcvrt.f90:  NOT USED          
     rrtmg_sw_spcvmc.f90:  NOT USED                    rrtmgsw_setcoef.f90:  NOT USED          
     rrtmg_sw_taumol.f90:  $Revision$                  rrtmg_sw_vrtqdr.f90:  NOT USED          
                rrtatm.f:  NOT USED                             util_xxx.f:  NOT USED          
                 extra.f:  NOT USED                       rrtmg_sw_k_g.f90:  $Revision$        

