

 Wavenumbers:   820. - 50000. cm-1, ATM      1
 LEVEL PRESSURE   UPWARD FLUX   DIFDOWN FLUX  DIRDOWN FLUX  DOWNWARD FLUX   NET FLUX    HEATING RATE
          mb          W/m2          W/m2          W/m2        W/m2          W/m2       degree/day
  51    .06700      437.3125        0.0000     1178.5299     1178.5299     741.217427       0.00000
  50    .07753      437.3124        0.0015     1178.5089     1178.5104     741.198079      15.50767
  49    .09103      437.3122        0.0035     1178.4900     1178.4935     741.181267      10.50773
  48    0.1069      437.3121        0.0057     1178.4687     1178.4744     741.162328      10.08116
  47    0.1255      437.3120        0.0083     1178.4432     1178.4515     741.139451      10.37165
  46    0.1487      437.3120        0.0115     1178.4086     1178.4201     741.108097      11.42881
  45    0.1794      437.3121        0.0159     1178.3578     1178.3737     741.061566      12.77373
  44    0.2165      437.3124        0.0211     1178.2925     1178.3136     741.001130      13.74827
  43    0.2613      437.3130        0.0272     1178.2080     1178.2352     740.922226      14.87308
  42    0.3336      437.3144        0.0374     1178.0552     1178.0926     740.778210      16.79081
  41    0.4307      437.3168        0.0507     1177.8366     1177.8873     740.570447      18.06454
  40    0.5894      437.3222        0.0724     1177.4455     1177.5179     740.195651      19.93117
  39     1.339      437.3732        0.1713     1175.1524     1175.3237     737.950428      25.27713
  38     1.782      437.4212        0.2272     1173.7149     1173.9421     736.520907      27.21578
  37     2.292      437.4932        0.2907     1172.1483     1172.4390     734.945788      26.08808
  36     2.964      437.6129        0.3734     1170.3627     1170.7361     733.123252      22.87833
  35     3.853      437.8060        0.4819     1168.4602     1168.9420     731.136022      18.85917
  34     5.035      438.0972        0.6253     1166.4934     1167.1187     729.021510      15.10520
  33     6.613      438.5046        0.8162     1164.4532     1165.2694     726.764805      12.06435
  32     8.786      439.0375        1.0727     1162.3234     1163.3961     724.358534       9.34509
  31     11.80      439.7366        1.4385     1159.9474     1161.3859     721.649239       7.58517
  30     15.07      440.4138        1.8302     1157.8674     1159.6976     719.283755       6.10722
  29     18.79      441.1134        2.2714     1155.8452     1158.1166     717.003276       5.17055
  28     23.16      441.8552        2.7855     1153.7776     1156.5631     714.707957       4.43841
  27     28.12      442.6149        3.3722     1151.6911     1155.0634     712.448467       3.84098
  26     33.73      443.3336        4.0283     1149.6526     1153.6809     710.347333       3.15911
  25     40.54      444.0470        4.8206     1147.4894     1152.3100     708.263059       2.58578
  24     48.69      444.7562        5.7746     1145.1555     1150.9301     706.173903       2.16195
  23     57.69      445.3871        6.8212     1142.8372     1149.6584     704.271293       1.78341
  22     68.43      445.9756        8.0660     1140.3233     1148.3894     702.413780       1.46025
  21     81.20      446.4463        9.5486     1137.6280     1147.1766     700.730298       1.11242
  20     96.49      446.7893       11.3128     1134.6836     1145.9963     699.207091       0.84070
  19     114.6      447.0952       13.3987     1131.3157     1144.7144     697.619169       0.74145
  18     136.5      447.3786       15.8544     1127.4102     1143.2646     695.886016       0.66644
  17     162.9      447.6429       18.7563     1122.7168     1141.4731     693.830167       0.65713
  16     196.4      447.8254       22.4970     1116.3929     1138.8899     691.064451       0.69616
  15     218.7      447.8827       24.9254     1111.9747     1136.9000     689.017380       0.77720
  14     243.0      447.9157       27.5451     1106.5758     1134.1208     686.205111       0.97539
  13     269.0      447.9223       30.3610     1099.2788     1129.6397     681.717434       1.45578
  12     297.5      447.9024       33.3774     1090.1816     1123.5589     675.656567       1.79759
  11     328.5      447.8712       36.6052     1079.6115     1116.2167     668.345510       1.98786
  10     361.9      447.8325       40.0442     1067.7434     1107.7876     659.955074       2.12286
   9     398.1      447.7921       43.7040     1054.4905     1098.1945     650.402440       2.22555
   8     437.6      447.7641       47.5866     1039.6221     1087.2088     639.444658       2.34284
   7     480.5      447.7724       51.6950     1022.9170     1074.6120     626.839593       2.47559
   6     533.0      447.8550       56.6776     1002.5852     1059.2628     611.407719       2.48250
   5     589.8      448.0550       61.9588      981.4193     1043.3781     595.323053       2.38749
   4     651.6      448.4447       67.5338      959.4661     1027.0000     578.555223       2.29305
   3     718.7      449.0712       73.4002      937.6818     1011.0820     562.010777       2.07918
   2     792.3      449.9942       79.5438      916.5383      996.0820     546.087867       1.82618
   1     891.5      451.8468       87.6104      890.0508      977.6612     525.814368       1.72518
   0    1013.0      455.9261       96.9627      859.0942      956.0569     500.130807       1.78334



 Wavenumbers:  2600. -  3250. cm-1, ATM      1
 LEVEL PRESSURE   UPWARD FLUX   DIFDOWN FLUX  DIRDOWN FLUX  DOWNWARD FLUX   NET FLUX    HEATING RATE
          mb          W/m2          W/m2          W/m2        W/m2          W/m2       degree/day
  51    .06700        0.5189        0.0000       10.3869       10.3869       9.868010       0.00000
  50    .07753        0.5189        0.0000       10.3869       10.3869       9.868002       0.00640
  49    .09103        0.5189        0.0000       10.3868       10.3868       9.867992       0.00627
  48    0.1069        0.5189        0.0000       10.3868       10.3868       9.867981       0.00613
  47    0.1255        0.5189        0.0000       10.3868       10.3868       9.867967       0.00600
  46    0.1487        0.5189        0.0000       10.3868       10.3868       9.867951       0.00608
  45    0.1794        0.5189        0.0000       10.3868       10.3868       9.867928       0.00625
  44    0.2165        0.5189        0.0000       10.3868       10.3868       9.867901       0.00613
  43    0.2613        0.5189        0.0000       10.3867       10.3867       9.867869       0.00601
  42    0.3336        0.5189        0.0000       10.3867       10.3867       9.867816       0.00618
  41    0.4307        0.5189        0.0000       10.3866       10.3866       9.867745       0.00622
  40    0.5894        0.5189        0.0000       10.3865       10.3865       9.867624       0.00640
  39     1.339        0.5189        0.0000       10.3858       10.3858       9.866909       0.00805
  38     1.782        0.5189        0.0000       10.3852       10.3852       9.866355       0.01054
  37     2.292        0.5189        0.0000       10.3845       10.3845       9.865618       0.01221
  36     2.964        0.5189        0.0000       10.3834       10.3834       9.864535       0.01360
  35     3.853        0.5189        0.0000       10.3818       10.3818       9.862965       0.01490
  34     5.035        0.5189        0.0000       10.3796       10.3796       9.860721       0.01603
  33     6.613        0.5189        0.0000       10.3764       10.3764       9.857563       0.01688
  32     8.786        0.5189        0.0000       10.3720       10.3720       9.853196       0.01696
  31     11.80        0.5189        0.0000       10.3658       10.3658       9.846979       0.01740
  30     15.07        0.5189        0.0000       10.3594       10.3594       9.840545       0.01661
  29     18.79        0.5189        0.0000       10.3526       10.3526       9.833766       0.01537
  28     23.16        0.5188        0.0000       10.3453       10.3454       9.826504       0.01404
  27     28.12        0.5188        0.0000       10.3378       10.3378       9.818954       0.01283
  26     33.73        0.5189        0.0000       10.3297       10.3297       9.810874       0.01215
  25     40.54        0.5189        0.0000       10.3200       10.3200       9.801177       0.01203
  24     48.69        0.5189        0.0000       10.3082       10.3082       9.789336       0.01225
  23     57.69        0.5189        0.0000       10.2946       10.2946       9.775747       0.01274
  22     68.43        0.5189        0.0000       10.2773       10.2774       9.758497       0.01356
  21     81.20        0.5189        0.0000       10.2553       10.2553       9.736410       0.01459
  20     96.49        0.5189        0.0000       10.2272       10.2272       9.708333       0.01550
  19     114.6        0.5189        0.0000       10.1909       10.1910       9.672032       0.01695
  18     136.5        0.5190        0.0001       10.1464       10.1464       9.627429       0.01715
  17     162.9        0.5190        0.0001       10.0915       10.0916       9.572555       0.01754
  16     196.4        0.5192        0.0001       10.0183       10.0183       9.499168       0.01847
  15     218.7        0.5193        0.0001        9.9673        9.9673       9.448040       0.01941
  14     243.0        0.5195        0.0001        9.9055        9.9056       9.386060       0.02150
  13     269.0        0.5199        0.0001        9.8232        9.8233       9.303422       0.02681
  12     297.5        0.5204        0.0001        9.7204        9.7205       9.200122       0.03064
  11     328.5        0.5212        0.0001        9.5957        9.5959       9.074644       0.03412
  10     361.9        0.5224        0.0001        9.4473        9.4475       8.925053       0.03785
   9     398.1        0.5242        0.0001        9.2669        9.2670       8.742854       0.04245
   8     437.6        0.5267        0.0001        9.0383        9.0385       8.511816       0.04940
   7     480.5        0.5304        0.0002        8.7337        8.7339       8.203500       0.06055
   6     533.0        0.5367        0.0002        8.3094        8.3095       7.772865       0.06928
   5     589.8        0.5459        0.0002        7.8377        7.8378       7.291969       0.07138
   4     651.6        0.5594        0.0002        7.3446        7.3448       6.785351       0.06928
   3     718.7        0.5786        0.0002        6.8696        6.8698       6.291194       0.06210
   2     792.3        0.6048        0.0002        6.4239        6.4241       5.819296       0.05412
   1     891.5        0.6541        0.0002        5.8764        5.8766       5.222523       0.05078
   0    1013.0        0.7623        0.0002        5.2387        5.2389       4.476620       0.05179



 Wavenumbers:  3250. -  4000. cm-1, ATM      1
 LEVEL PRESSURE   UPWARD FLUX   DIFDOWN FLUX  DIRDOWN FLUX  DOWNWARD FLUX   NET FLUX    HEATING RATE
          mb          W/m2          W/m2          W/m2        W/m2          W/m2       degree/day
  51    .06700        0.0014        0.0000       17.5107       17.5107      17.509323       0.00000
  50    .07753        0.0014        0.0000       17.5052       17.5052      17.503796       4.42966
  49    .09103        0.0014        0.0000       17.5003       17.5003      17.498907       3.05556
  48    0.1069        0.0014        0.0000       17.4963       17.4963      17.494912       2.12669
  47    0.1255        0.0014        0.0000       17.4929       17.4929      17.491450       1.56962
  46    0.1487        0.0014        0.0000       17.4893       17.4893      17.487937       1.28050
  45    0.1794        0.0014        0.0000       17.4853       17.4853      17.483900       1.10826
  44    0.2165        0.0014        0.0000       17.4811       17.4811      17.479718       0.95138
  43    0.2613        0.0014        0.0000       17.4767       17.4767      17.475295       0.83361
  42    0.3336        0.0014        0.0000       17.4703       17.4703      17.468938       0.74122
  41    0.4307        0.0014        0.0000       17.4633       17.4633      17.461855       0.61586
  40    0.5894        0.0014        0.0000       17.4537       17.4537      17.452251       0.51071
  39     1.339        0.0014        0.0000       17.4189       17.4189      17.417512       0.39110
  38     1.782        0.0014        0.0000       17.4024       17.4024      17.400962       0.31508
  37     2.292        0.0014        0.0000       17.3857       17.3857      17.384324       0.27557
  36     2.964        0.0014        0.0000       17.3667       17.3667      17.365251       0.23942
  35     3.853        0.0014        0.0000       17.3444       17.3444      17.343032       0.21086
  34     5.035        0.0014        0.0000       17.3179       17.3179      17.316476       0.18971
  33     6.613        0.0014        0.0000       17.2848       17.2848      17.283410       0.17677
  32     8.786        0.0014        0.0000       17.2410       17.2410      17.239589       0.17019
  31     11.80        0.0014        0.0000       17.1768       17.1768      17.175395       0.17972
  30     15.07        0.0014        0.0000       17.1048       17.1048      17.103448       0.18575
  29     18.79        0.0014        0.0000       17.0202       17.0202      17.018862       0.19178
  28     23.16        0.0014        0.0000       16.9188       16.9188      16.917414       0.19617
  27     28.12        0.0014        0.0000       16.8013       16.8014      16.799999       0.19960
  26     33.73        0.0014        0.0000       16.6717       16.6717      16.670353       0.19493
  25     40.54        0.0014        0.0001       16.5212       16.5213      16.519923       0.18662
  24     48.69        0.0013        0.0001       16.3534       16.3535      16.352125       0.17365
  23     57.69        0.0013        0.0001       16.1868       16.1868      16.185498       0.15619
  22     68.43        0.0013        0.0001       16.0086       16.0087      16.007334       0.14006
  21     81.20        0.0013        0.0001       15.8139       15.8140      15.812718       0.12860
  20     96.49        0.0013        0.0001       15.5943       15.5944      15.593098       0.12121
  19     114.6        0.0013        0.0001       15.3272       15.3273      15.326033       0.12470
  18     136.5        0.0012        0.0002       15.0076       15.0078      15.006514       0.12286
  17     162.9        0.0012        0.0002       14.5885       14.5887      14.587441       0.13395
  16     196.4        0.0012        0.0002       13.9150       13.9152      13.914000       0.16951
  15     218.7        0.0012        0.0002       13.4030       13.4033      13.402103       0.19435
  14     243.0        0.0011        0.0002       12.7221       12.7224      12.721239       0.23615
  13     269.0        0.0011        0.0002       11.7516       11.7518      11.750699       0.31484
  12     297.5        0.0011        0.0002       10.6153       10.6155      10.614408       0.33701
  11     328.5        0.0011        0.0002        9.4075        9.4077       9.406626       0.32839
  10     361.9        0.0011        0.0002        8.1663        8.1665       8.165471       0.31402
   9     398.1        0.0011        0.0002        7.0099        7.0101       7.009057       0.26942
   8     437.6        0.0011        0.0002        5.9522        5.9524       5.951274       0.22616
   7     480.5        0.0011        0.0002        4.9597        4.9598       4.958716       0.19493
   6     533.0        0.0012        0.0001        3.9527        3.9529       3.951651       0.16200
   5     589.8        0.0014        0.0001        3.0771        3.0772       3.075756       0.13001
   4     651.6        0.0018        0.0001        2.2909        2.2910       2.289196       0.10756
   3     718.7        0.0027        0.0001        1.6367        1.6368       1.634117       0.08233
   2     792.3        0.0043        0.0000        1.1387        1.1387       1.134377       0.05731
   1     891.5        0.0100        0.0000        0.6711        0.6711       0.661079       0.04028
   0    1013.0        0.0421        0.0000        0.2896        0.2896       0.247467       0.02872



 Wavenumbers:  4000. -  4650. cm-1, ATM      1
 LEVEL PRESSURE   UPWARD FLUX   DIFDOWN FLUX  DIRDOWN FLUX  DOWNWARD FLUX   NET FLUX    HEATING RATE
          mb          W/m2          W/m2          W/m2        W/m2          W/m2       degree/day
  51    .06700        1.8957        0.0000       20.5629       20.5629      18.667149       0.00000
  50    .07753        1.8957        0.0000       20.5629       20.5629      18.667148       0.00079
  49    .09103        1.8957        0.0000       20.5629       20.5629      18.667146       0.00078
  48    0.1069        1.8957        0.0000       20.5629       20.5629      18.667145       0.00076
  47    0.1255        1.8957        0.0000       20.5629       20.5629      18.667143       0.00074
  46    0.1487        1.8957        0.0000       20.5629       20.5629      18.667141       0.00075
  45    0.1794        1.8957        0.0000       20.5629       20.5629      18.667138       0.00077
  44    0.2165        1.8957        0.0000       20.5629       20.5629      18.667135       0.00076
  43    0.2613        1.8957        0.0000       20.5629       20.5629      18.667131       0.00074
  42    0.3336        1.8957        0.0000       20.5629       20.5629      18.667125       0.00076
  41    0.4307        1.8957        0.0000       20.5629       20.5629      18.667116       0.00077
  40    0.5894        1.8957        0.0000       20.5628       20.5628      18.667101       0.00079
  39     1.339        1.8957        0.0000       20.5627       20.5627      18.667012       0.00100
  38     1.782        1.8957        0.0000       20.5627       20.5627      18.666943       0.00132
  37     2.292        1.8957        0.0000       20.5626       20.5626      18.666849       0.00155
  36     2.964        1.8957        0.0000       20.5624       20.5624      18.666709       0.00175
  35     3.853        1.8957        0.0000       20.5622       20.5622      18.666502       0.00197
  34     5.035        1.8957        0.0000       20.5619       20.5619      18.666197       0.00218
  33     6.613        1.8957        0.0000       20.5614       20.5615      18.665747       0.00241
  32     8.786        1.8957        0.0000       20.5608       20.5608      18.665081       0.00258
  31     11.80        1.8957        0.0000       20.5597       20.5597      18.664034       0.00293
  30     15.07        1.8957        0.0001       20.5584       20.5585      18.662804       0.00318
  29     18.79        1.8957        0.0001       20.5569       20.5570      18.661313       0.00338
  28     23.16        1.8957        0.0001       20.5550       20.5551      18.659456       0.00359
  27     28.12        1.8957        0.0001       20.5528       20.5529      18.657202       0.00383
  26     33.73        1.8957        0.0001       20.5499       20.5501      18.654413       0.00419
  25     40.54        1.8956        0.0002       20.5461       20.5463      18.650615       0.00471
  24     48.69        1.8956        0.0002       20.5410       20.5412      18.645528       0.00526
  23     57.69        1.8956        0.0002       20.5349       20.5351      18.639464       0.00568
  22     68.43        1.8956        0.0003       20.5272       20.5275      18.631827       0.00600
  21     81.20        1.8956        0.0003       20.5177       20.5180      18.622362       0.00625
  20     96.49        1.8957        0.0004       20.5061       20.5065      18.610784       0.00639
  19     114.6        1.8957        0.0005       20.4914       20.4918      18.596088       0.00686
  18     136.5        1.8958        0.0005       20.4734       20.4740      18.578150       0.00690
  17     162.9        1.8960        0.0006       20.4509       20.4516      18.555580       0.00721
  16     196.4        1.8963        0.0008       20.4188       20.4195      18.523248       0.00814
  15     218.7        1.8966        0.0009       20.3943       20.3952      18.498561       0.00937
  14     243.0        1.8971        0.0009       20.3615       20.3625      18.465411       0.01150
  13     269.0        1.8978        0.0010       20.3117       20.3127      18.414901       0.01639
  12     297.5        1.8990        0.0011       20.2427       20.2439      18.344861       0.02077
  11     328.5        1.9007        0.0013       20.1499       20.1512      18.250479       0.02566
  10     361.9        1.9030        0.0014       20.0217       20.0230      18.120074       0.03299
   9     398.1        1.9059        0.0015       19.8442       19.8457      17.939810       0.04200
   8     437.6        1.9099        0.0016       19.6068       19.6085      17.698546       0.05158
   7     480.5        1.9154        0.0018       19.3034       19.3051      17.389720       0.06065
   6     533.0        1.9244        0.0019       18.9161       18.9180      16.993612       0.06372
   5     589.8        1.9376        0.0021       18.5086       18.5107      16.573111       0.06242
   4     651.6        1.9570        0.0022       18.0462       18.0484      16.091398       0.06588
   3     718.7        1.9842        0.0024       17.5163       17.5187      15.534439       0.06999
   2     792.3        2.0205        0.0025       16.9462       16.9487      14.928141       0.06954
   1     891.5        2.0869        0.0027       16.1994       16.2021      14.115214       0.06918
   0    1013.0        2.2307        0.0029       15.3260       15.3289      13.098277       0.07061



 Wavenumbers:  4650. -  5150. cm-1, ATM      1
 LEVEL PRESSURE   UPWARD FLUX   DIFDOWN FLUX  DIRDOWN FLUX  DOWNWARD FLUX   NET FLUX    HEATING RATE
          mb          W/m2          W/m2          W/m2        W/m2          W/m2       degree/day
  51    .06700        1.3477        0.0000       19.4637       19.4637      18.116008       0.00000
  50    .07753        1.3477        0.0000       19.4635       19.4635      18.115772       0.18932
  49    .09103        1.3477        0.0000       19.4632       19.4632      18.115476       0.18504
  48    0.1069        1.3477        0.0000       19.4629       19.4629      18.115137       0.18057
  47    0.1255        1.3477        0.0000       19.4625       19.4625      18.114748       0.17606
  46    0.1487        1.3477        0.0000       19.4620       19.4620      18.114260       0.17787
  45    0.1794        1.3477        0.0000       19.4613       19.4613      18.113598       0.18200
  44    0.2165        1.3477        0.0000       19.4606       19.4606      18.112818       0.17729
  43    0.2613        1.3477        0.0000       19.4596       19.4596      18.111903       0.17254
  42    0.3336        1.3477        0.0000       19.4581       19.4581      18.110406       0.17450
  41    0.4307        1.3477        0.0000       19.4562       19.4562      18.108454       0.16974
  40    0.5894        1.3477        0.0000       19.4531       19.4531      18.105343       0.16542
  39     1.339        1.3477        0.0000       19.4395       19.4395      18.091820       0.15225
  38     1.782        1.3477        0.0000       19.4324       19.4324      18.084718       0.13520
  37     2.292        1.3477        0.0000       19.4249       19.4249      18.077209       0.12438
  36     2.964        1.3477        0.0000       19.4161       19.4161      18.068359       0.11109
  35     3.853        1.3477        0.0000       19.4059       19.4059      18.058164       0.09675
  34     5.035        1.3477        0.0000       19.3945       19.3945      18.046790       0.08125
  33     6.613        1.3477        0.0000       19.3821       19.3822      18.034480       0.06581
  32     8.786        1.3477        0.0001       19.3691       19.3691      18.021426       0.05070
  31     11.80        1.3477        0.0001       19.3544       19.3545      18.006779       0.04101
  30     15.07        1.3477        0.0001       19.3411       19.3412      17.993477       0.03434
  29     18.79        1.3477        0.0001       19.3269       19.3270      17.979293       0.03216
  28     23.16        1.3477        0.0001       19.3100       19.3101      17.962419       0.03263
  27     28.12        1.3477        0.0002       19.2894       19.2896      17.941874       0.03492
  26     33.73        1.3477        0.0002       19.2645       19.2647      17.917009       0.03739
  25     40.54        1.3477        0.0002       19.2318       19.2321      17.884359       0.04051
  24     48.69        1.3477        0.0003       19.1892       19.1895      17.841772       0.04407
  23     57.69        1.3478        0.0003       19.1391       19.1395      17.791693       0.04694
  22     68.43        1.3478        0.0004       19.0761       19.0765      17.728661       0.04955
  21     81.20        1.3479        0.0005       18.9980       18.9985      17.650529       0.05163
  20     96.49        1.3481        0.0006       18.9030       18.9035      17.555468       0.05247
  19     114.6        1.3483        0.0007       18.7903       18.7910      17.442702       0.05265
  18     136.5        1.3486        0.0008       18.6601       18.6609      17.312322       0.05013
  17     162.9        1.3490        0.0009       18.5126       18.5135      17.164483       0.04726
  16     196.4        1.3498        0.0011       18.3353       18.3364      16.986598       0.04478
  15     218.7        1.3504        0.0012       18.2261       18.2273      16.876922       0.04164
  14     243.0        1.3512        0.0013       18.1110       18.1124      16.761194       0.04014
  13     269.0        1.3523        0.0015       17.9846       17.9861      16.633740       0.04135
  12     297.5        1.3540        0.0016       17.8418       17.8434      16.489395       0.04281
  11     328.5        1.3563        0.0018       17.6775       17.6793      16.322981       0.04525
  10     361.9        1.3594        0.0019       17.4852       17.4872      16.127769       0.04939
   9     398.1        1.3636        0.0021       17.2575       17.2595      15.895943       0.05401
   8     437.6        1.3693        0.0022       16.9828       16.9850      15.615788       0.05990
   7     480.5        1.3770        0.0024       16.6451       16.6475      15.270515       0.06781
   6     533.0        1.3894        0.0026       16.1764       16.1789      14.789590       0.07737
   5     589.8        1.4067        0.0027       15.6239       15.6266      14.219935       0.08456
   4     651.6        1.4313        0.0029       14.9920       14.9949      13.563569       0.08976
   3     718.7        1.4651        0.0030       14.3291       14.3322      12.867040       0.08753
   2     792.3        1.5105        0.0032       13.6786       13.6818      12.171301       0.07979
   1     891.5        1.5922        0.0034       12.8905       12.8938      11.301623       0.07401
   0    1013.0        1.7497        0.0036       12.0193       12.0229      10.273174       0.07141



 Wavenumbers:  5150. -  6150. cm-1, ATM      1
 LEVEL PRESSURE   UPWARD FLUX   DIFDOWN FLUX  DIRDOWN FLUX  DOWNWARD FLUX   NET FLUX    HEATING RATE
          mb          W/m2          W/m2          W/m2        W/m2          W/m2       degree/day
  51    .06700        3.2788        0.0000       48.7957       48.7957      45.516856       0.00000
  50    .07753        3.2788        0.0000       48.7956       48.7956      45.516821       0.02762
  49    .09103        3.2788        0.0000       48.7956       48.7956      45.516776       0.02812
  48    0.1069        3.2788        0.0000       48.7955       48.7955      45.516723       0.02861
  47    0.1255        3.2788        0.0000       48.7955       48.7955      45.516658       0.02907
  46    0.1487        3.2788        0.0000       48.7954       48.7954      45.516574       0.03063
  45    0.1794        3.2788        0.0000       48.7953       48.7953      45.516455       0.03274
  44    0.2165        3.2788        0.0000       48.7951       48.7951      45.516308       0.03338
  43    0.2613        3.2788        0.0000       48.7949       48.7949      45.516129       0.03385
  42    0.3336        3.2788        0.0000       48.7946       48.7946      45.515822       0.03577
  41    0.4307        3.2788        0.0000       48.7942       48.7942      45.515401       0.03664
  40    0.5894        3.2788        0.0000       48.7935       48.7935      45.514694       0.03756
  39     1.339        3.2788        0.0000       48.7900       48.7900      45.511234       0.03896
  38     1.782        3.2788        0.0000       48.7879       48.7880      45.509182       0.03906
  37     2.292        3.2788        0.0001       48.7855       48.7856      45.506811       0.03927
  36     2.964        3.2788        0.0001       48.7824       48.7825      45.503707       0.03897
  35     3.853        3.2788        0.0001       48.7783       48.7784      45.499624       0.03875
  34     5.035        3.2787        0.0001       48.7728       48.7730      45.494233       0.03851
  33     6.613        3.2787        0.0002       48.7656       48.7658      45.487097       0.03815
  32     8.786        3.2787        0.0002       48.7561       48.7563      45.477625       0.03678
  31     11.80        3.2786        0.0003       48.7427       48.7430      45.464373       0.03710
  30     15.07        3.2786        0.0004       48.7287       48.7291      45.450541       0.03571
  29     18.79        3.2785        0.0005       48.7134       48.7139      45.435396       0.03434
  28     23.16        3.2785        0.0006       48.6962       48.6968      45.418327       0.03300
  27     28.12        3.2784        0.0008       48.6772       48.6780      45.399559       0.03191
  26     33.73        3.2783        0.0009       48.6569       48.6578      45.379457       0.03022
  25     40.54        3.2783        0.0011       48.6337       48.6348      45.356495       0.02849
  24     48.69        3.2782        0.0013       48.6074       48.6087      45.330522       0.02688
  23     57.69        3.2781        0.0015       48.5807       48.5823      45.304107       0.02476
  22     68.43        3.2781        0.0018       48.5518       48.5536      45.275530       0.02247
  21     81.20        3.2780        0.0022       48.5197       48.5219      45.243897       0.02090
  20     96.49        3.2779        0.0026       48.4835       48.4861      45.208169       0.01972
  19     114.6        3.2779        0.0031       48.4415       48.4446      45.166704       0.01936
  18     136.5        3.2778        0.0036       48.3855       48.3892      45.111392       0.02127
  17     162.9        3.2777        0.0043       48.2871       48.2914      45.013680       0.03123
  16     196.4        3.2776        0.0052       48.0799       48.0851      44.807459       0.05191
  15     218.7        3.2776        0.0057       47.8641       47.8699      44.592232       0.08171
  14     243.0        3.2777        0.0063       47.4658       47.4722      44.194481       0.13795
  13     269.0        3.2778        0.0068       46.6226       46.6294      43.351604       0.27343
  12     297.5        3.2782        0.0074       45.4195       45.4268      42.148640       0.35679
  11     328.5        3.2789        0.0079       44.0479       44.0557      40.776880       0.37298
  10     361.9        3.2800        0.0083       42.4723       42.4806      39.200679       0.39879
   9     398.1        3.2817        0.0087       40.6232       40.6319      37.350243       0.43111
   8     437.6        3.2843        0.0091       38.5776       38.5867      35.302365       0.43785
   7     480.5        3.2885        0.0094       36.3768       36.3862      33.097623       0.43300
   6     533.0        3.2962        0.0098       33.9554       33.9652      30.668973       0.39069
   5     589.8        3.3084        0.0103       31.8440       31.8543      28.545847       0.31514
   4     651.6        3.3281        0.0109       30.0913       30.1022      26.774092       0.24229
   3     718.7        3.3580        0.0116       28.7501       28.7617      25.403668       0.17222
   2     792.3        3.4016        0.0123       27.7293       27.7416      24.340042       0.12199
   1     891.5        3.4900        0.0134       26.6457       26.6591      23.169015       0.09965
   0    1013.0        3.7004        0.0145       25.4071       25.4215      21.721197       0.10053



 Wavenumbers:  6150. -  7700. cm-1, ATM      1
 LEVEL PRESSURE   UPWARD FLUX   DIFDOWN FLUX  DIRDOWN FLUX  DOWNWARD FLUX   NET FLUX    HEATING RATE
          mb          W/m2          W/m2          W/m2        W/m2          W/m2       degree/day
  51    .06700        5.0455        0.0000       90.2495       90.2495      85.204022       0.00000
  50    .07753        5.0455        0.0000       90.2494       90.2494      85.203970       0.04144
  49    .09103        5.0455        0.0000       90.2494       90.2494      85.203904       0.04174
  48    0.1069        5.0455        0.0000       90.2493       90.2493      85.203825       0.04203
  47    0.1255        5.0455        0.0000       90.2492       90.2492      85.203731       0.04229
  46    0.1487        5.0455        0.0000       90.2491       90.2491      85.203610       0.04414
  45    0.1794        5.0454        0.0000       90.2489       90.2489      85.203440       0.04673
  44    0.2165        5.0454        0.0000       90.2487       90.2487      85.203232       0.04721
  43    0.2613        5.0454        0.0000       90.2484       90.2484      85.202980       0.04752
  42    0.3336        5.0454        0.0000       90.2480       90.2480      85.202553       0.04986
  41    0.4307        5.0454        0.0000       90.2474       90.2474      85.201970       0.05068
  40    0.5894        5.0454        0.0001       90.2463       90.2464      85.200998       0.05169
  39     1.339        5.0453        0.0001       90.2415       90.2416      85.196270       0.05323
  38     1.782        5.0453        0.0002       90.2386       90.2388      85.193477       0.05318
  37     2.292        5.0452        0.0003       90.2352       90.2355      85.190251       0.05342
  36     2.964        5.0452        0.0003       90.2309       90.2312      85.186030       0.05299
  35     3.853        5.0451        0.0004       90.2251       90.2256      85.180476       0.05270
  34     5.035        5.0450        0.0006       90.2176       90.2181      85.173139       0.05241
  33     6.613        5.0448        0.0007       90.2075       90.2082      85.163408       0.05202
  32     8.786        5.0446        0.0010       90.1941       90.1951      85.150443       0.05035
  31     11.80        5.0443        0.0013       90.1752       90.1765      85.132190       0.05110
  30     15.07        5.0440        0.0017       90.1553       90.1570      85.112979       0.04960
  29     18.79        5.0437        0.0021       90.1333       90.1354      85.091743       0.04815
  28     23.16        5.0432        0.0026       90.1082       90.1108      85.067533       0.04681
  27     28.12        5.0428        0.0032       90.0802       90.0833      85.040565       0.04585
  26     33.73        5.0422        0.0038       90.0497       90.0535      85.011292       0.04401
  25     40.54        5.0416        0.0045       90.0144       90.0189      84.977332       0.04213
  24     48.69        5.0408        0.0054       89.9735       89.9790      84.938199       0.04050
  23     57.69        5.0399        0.0065       89.9311       89.9375      84.897576       0.03808
  22     68.43        5.0389        0.0076       89.8838       89.8914      84.852497       0.03544
  21     81.20        5.0377        0.0091       89.8302       89.8393      84.801595       0.03364
  20     96.49        5.0362        0.0108       89.7685       89.7793      84.743075       0.03230
  19     114.6        5.0345        0.0128       89.6958       89.7086      84.674070       0.03222
  18     136.5        5.0324        0.0152       89.5999       89.6151      84.582699       0.03513
  17     162.9        5.0300        0.0180       89.4366       89.4547      84.424676       0.05051
  16     196.4        5.0269        0.0217       89.0898       89.1115      84.084619       0.08560
  15     218.7        5.0249        0.0240       88.7361       88.7601      83.735236       0.13265
  14     243.0        5.0228        0.0264       88.1547       88.1812      83.158356       0.20008
  13     269.0        5.0208        0.0288       87.0176       87.0464      82.025620       0.36745
  12     297.5        5.0191        0.0311       85.1839       85.2149      80.195860       0.54269
  11     328.5        5.0179        0.0332       82.7504       82.7836      77.765752       0.66074
  10     361.9        5.0176        0.0352       79.9987       80.0339      75.016286       0.69564
   9     398.1        5.0188        0.0371       76.9069       76.9439      71.925093       0.72018
   8     437.6        5.0224        0.0386       73.3051       73.3437      68.321345       0.77050
   7     480.5        5.0302        0.0399       69.1994       69.2392      64.208997       0.80765
   6     533.0        5.0469        0.0412       64.4399       64.4810      59.434102       0.76813
   5     589.8        5.0760        0.0424       59.8803       59.9227      54.846734       0.68092
   4     651.6        5.1249        0.0437       55.6198       55.6635      50.538643       0.58914
   3     718.7        5.2001        0.0452       51.8853       51.9305      46.730378       0.47859
   2     792.3        5.3096        0.0470       48.7123       48.7593      43.449655       0.37626
   1     891.5        5.5303        0.0494       45.2359       45.2853      39.754943       0.31440
   0    1013.0        6.0696        0.0520       41.6263       41.6783      35.608637       0.28790



 Wavenumbers:  7700. -  8050. cm-1, ATM      1
 LEVEL PRESSURE   UPWARD FLUX   DIFDOWN FLUX  DIRDOWN FLUX  DOWNWARD FLUX   NET FLUX    HEATING RATE
          mb          W/m2          W/m2          W/m2        W/m2          W/m2       degree/day
  51    .06700        2.6019        0.0000       21.3286       21.3286      18.726712       0.00000
  50    .07753        2.6019        0.0000       21.3286       21.3286      18.726693       0.01570
  49    .09103        2.6019        0.0000       21.3286       21.3286      18.726668       0.01539
  48    0.1069        2.6019        0.0000       21.3286       21.3286      18.726640       0.01506
  47    0.1255        2.6019        0.0000       21.3285       21.3285      18.726607       0.01474
  46    0.1487        2.6019        0.0000       21.3285       21.3285      18.726566       0.01496
  45    0.1794        2.6019        0.0000       21.3284       21.3285      18.726510       0.01539
  44    0.2165        2.6019        0.0000       21.3284       21.3284      18.726444       0.01510
  43    0.2613        2.6020        0.0000       21.3283       21.3283      18.726365       0.01482
  42    0.3336        2.6020        0.0000       21.3282       21.3282      18.726235       0.01516
  41    0.4307        2.6020        0.0000       21.3280       21.3280      18.726063       0.01499
  40    0.5894        2.6020        0.0000       21.3278       21.3278      18.725781       0.01498
  39     1.339        2.6021        0.0001       21.3265       21.3265      18.724448       0.01500
  38     1.782        2.6022        0.0001       21.3257       21.3258      18.723665       0.01491
  37     2.292        2.6022        0.0001       21.3249       21.3250      18.722759       0.01501
  36     2.964        2.6023        0.0001       21.3237       21.3239      18.721569       0.01494
  35     3.853        2.6024        0.0002       21.3223       21.3224      18.719996       0.01493
  34     5.035        2.6026        0.0002       21.3203       21.3205      18.717906       0.01493
  33     6.613        2.6028        0.0003       21.3176       21.3179      18.715114       0.01493
  32     8.786        2.6031        0.0004       21.3140       21.3144      18.711351       0.01462
  31     11.80        2.6035        0.0006       21.3089       21.3095      18.705967       0.01507
  30     15.07        2.6040        0.0007       21.3034       21.3041      18.700186       0.01492
  29     18.79        2.6045        0.0009       21.2972       21.2981      18.693657       0.01480
  28     23.16        2.6050        0.0011       21.2900       21.2911      18.686033       0.01474
  27     28.12        2.6057        0.0013       21.2817       21.2830      18.677317       0.01482
  26     33.73        2.6065        0.0016       21.2725       21.2741      18.667569       0.01466
  25     40.54        2.6074        0.0019       21.2613       21.2632      18.655801       0.01460
  24     48.69        2.6085        0.0023       21.2479       21.2502      18.641629       0.01467
  23     57.69        2.6098        0.0027       21.2332       21.2359      18.626084       0.01457
  22     68.43        2.6113        0.0032       21.2157       21.2189      18.607600       0.01453
  21     81.20        2.6131        0.0038       21.1949       21.1987      18.585627       0.01452
  20     96.49        2.6152        0.0045       21.1702       21.1747      18.559514       0.01441
  19     114.6        2.6178        0.0053       21.1411       21.1464      18.528610       0.01443
  18     136.5        2.6209        0.0063       21.1067       21.1130      18.492122       0.01403
  17     162.9        2.6247        0.0075       21.0661       21.0736      18.448866       0.01383
  16     196.4        2.6297        0.0090       21.0137       21.0228      18.393069       0.01404
  15     218.7        2.6330        0.0100       20.9796       20.9896      18.356582       0.01385
  14     243.0        2.6367        0.0111       20.9426       20.9538      18.317016       0.01372
  13     269.0        2.6409        0.0123       20.9027       20.9150      18.274136       0.01391
  12     297.5        2.6454        0.0136       20.8595       20.8731      18.227676       0.01378
  11     328.5        2.6505        0.0150       20.8127       20.8277      18.177143       0.01374
  10     361.9        2.6563        0.0164       20.7620       20.7784      18.122108       0.01392
   9     398.1        2.6628        0.0180       20.7067       20.7247      18.061913       0.01402
   8     437.6        2.6703        0.0197       20.6462       20.6660      17.995703       0.01416
   7     480.5        2.6789        0.0216       20.5792       20.6008      17.921904       0.01449
   6     533.0        2.6905        0.0238       20.4933       20.5171      17.826595       0.01533
   5     589.8        2.7046        0.0262       20.3959       20.4221      17.717593       0.01618
   4     651.6        2.7216        0.0288       20.2847       20.3135      17.591891       0.01719
   3     718.7        2.7422        0.0315       20.1592       20.1907      17.448543       0.01801
   2     792.3        2.7666        0.0344       20.0203       20.0547      17.288090       0.01840
   1     891.5        2.8040        0.0383       19.8254       19.8637      17.059696       0.01944
   0    1013.0        2.8585        0.0429       19.5724       19.6153      16.756788       0.02103



 Wavenumbers:  8050. - 12850. cm-1, ATM      1
 LEVEL PRESSURE   UPWARD FLUX   DIFDOWN FLUX  DIRDOWN FLUX  DOWNWARD FLUX   NET FLUX    HEATING RATE
          mb          W/m2          W/m2          W/m2        W/m2          W/m2       degree/day
  51    .06700       32.8346        0.0000      298.6167      298.6167     265.782094       0.00000
  50    .07753       32.8346        0.0000      298.6166      298.6167     265.782094       0.00000
  49    .09103       32.8345        0.0001      298.6166      298.6166     265.782094       0.00000
  48    0.1069       32.8345        0.0001      298.6165      298.6166     265.782094      -0.00000
  47    0.1255       32.8345        0.0001      298.6164      298.6166     265.782094       0.00000
  46    0.1487       32.8344        0.0002      298.6163      298.6165     265.782094       0.00000
  45    0.1794       32.8344        0.0003      298.6162      298.6165     265.782094       0.00000
  44    0.2165       32.8343        0.0003      298.6161      298.6164     265.782094       0.00000
  43    0.2613       32.8343        0.0004      298.6159      298.6163     265.782094       0.00000
  42    0.3336       32.8341        0.0006      298.6156      298.6162     265.782094      -0.00000
  41    0.4307       32.8340        0.0008      298.6152      298.6161     265.782094       0.00000
  40    0.5894       32.8337        0.0012      298.6146      298.6158     265.782094       0.00000
  39     1.339       32.8325        0.0029      298.6117      298.6145     265.782094      -0.00000
  38     1.782       32.8317        0.0039      298.6099      298.6138     265.782094       0.00000
  37     2.292       32.8309        0.0051      298.6079      298.6130     265.782094       0.00000
  36     2.964       32.8297        0.0066      298.6053      298.6118     265.782094       0.00000
  35     3.853       32.8283        0.0086      298.6018      298.6104     265.782094       0.00000
  34     5.035       32.8263        0.0113      298.5971      298.6084     265.782094      -0.00000
  33     6.613       32.8237        0.0148      298.5909      298.6058     265.782094      -0.00000
  32     8.786       32.8201        0.0197      298.5826      298.6022     265.782094       0.00000
  31     11.80       32.8150        0.0266      298.5706      298.5971     265.782094       0.00000
  30     15.07       32.8096        0.0340      298.5577      298.5917     265.782094      -0.00000
  29     18.79       32.8034        0.0424      298.5431      298.5855     265.782094       0.00000
  28     23.16       32.7962        0.0522      298.5261      298.5783     265.782094      -0.00000
  27     28.12       32.7879        0.0634      298.5066      298.5700     265.782094       0.00000
  26     33.73       32.7787        0.0760      298.4848      298.5608     265.782094      -0.00000
  25     40.54       32.7675        0.0912      298.4583      298.5496     265.782094      -0.00000
  24     48.69       32.7539        0.1096      298.4264      298.5360     265.782094       0.00000
  23     57.69       32.7390        0.1299      298.3913      298.5211     265.782094      -0.00000
  22     68.43       32.7213        0.1540      298.3494      298.5034     265.782094       0.00000
  21     81.20       32.7000        0.1828      298.2994      298.4821     265.782094       0.00000
  20     96.49       32.6747        0.2172      298.2396      298.4568     265.782094      -0.00000
  19     114.6       32.6446        0.2581      298.1609      298.4190     265.774339       0.00362
  18     136.5       32.6089        0.3066      298.0654      298.3720     265.763102       0.00432
  17     162.9       32.5663        0.3646      297.9418      298.3064     265.740037       0.00737
  16     196.4       32.5110        0.4399      297.7478      298.1878     265.676787       0.01592
  15     218.7       32.4746        0.4895      297.5781      298.0675     265.592937       0.03183
  14     243.0       32.4352        0.5433      297.3080      297.8513     265.416114       0.06133
  13     269.0       32.3933        0.6013      296.7985      297.3998     265.006546       0.13286
  12     297.5       32.3495        0.6637      296.0018      296.6655     264.316031       0.20480
  11     328.5       32.3047        0.7305      294.9005      295.6310     263.326275       0.26911
  10     361.9       32.2607        0.8018      293.4920      294.2937     262.033010       0.32721
   9     398.1       32.2195        0.8772      291.6912      292.5684     260.348873       0.39237
   8     437.6       32.1853        0.9565      289.3216      290.2781     258.092839       0.48235
   7     480.5       32.1662        1.0387      286.1500      287.1887     255.022456       0.60301
   6     533.0       32.1727        1.1362      281.6387      282.7749     250.602239       0.71107
   5     589.8       32.2249        1.2374      276.2642      277.5015     245.276640       0.79049
   4     651.6       32.3502        1.3417      270.0688      271.4105     239.060348       0.85009
   3     718.7       32.5692        1.4504      263.5631      265.0135     232.444301       0.83145
   2     792.3       32.9053        1.5643      257.0983      258.6625     225.757174       0.76694
   1     891.5       33.6010        1.7126      248.8099      250.5225     216.921427       0.75188
   0    1013.0       35.2036        1.8788      238.7171      240.5959     205.392284       0.80053



 Wavenumbers: 12850. - 16000. cm-1, ATM      1
 LEVEL PRESSURE   UPWARD FLUX   DIFDOWN FLUX  DIRDOWN FLUX  DOWNWARD FLUX   NET FLUX    HEATING RATE
          mb          W/m2          W/m2          W/m2        W/m2          W/m2       degree/day
  51    .06700       79.5044        0.0000      187.1097      187.1097     107.605381       0.00000
  50    .07753       79.5044        0.0001      187.1089      187.1089     107.604587       0.63643
  49    .09103       79.5044        0.0002      187.1078      187.1079     107.603585       0.62642
  48    0.1069       79.5044        0.0003      187.1065      187.1068     107.602426       0.61653
  47    0.1255       79.5044        0.0004      187.1051      187.1055     107.601087       0.60717
  46    0.1487       79.5044        0.0005      187.1033      187.1038     107.599384       0.62070
  45    0.1794       79.5045        0.0007      187.1008      187.1015     107.597046       0.64195
  44    0.2165       79.5045        0.0010      187.0978      187.0988     107.594264       0.63283
  43    0.2613       79.5047        0.0013      187.0943      187.0956     107.590951       0.62443
  42    0.3336       79.5049        0.0017      187.0886      187.0904     107.585454       0.64092
  41    0.4307       79.5053        0.0023      187.0811      187.0835     107.578192       0.63145
  40    0.5894       79.5061        0.0034      187.0691      187.0725     107.566384       0.62793
  39     1.339       79.5130        0.0082      187.0146      187.0228     107.509773       0.63733
  38     1.782       79.5193        0.0110      186.9834      186.9944     107.475147       0.65922
  37     2.292       79.5286        0.0143      186.9471      186.9614     107.432811       0.70119
  36     2.964       79.5439        0.0186      186.8983      186.9169     107.372939       0.75158
  35     3.853       79.5687        0.0243      186.8316      186.8559     107.287237       0.81332
  34     5.035       79.6060        0.0318      186.7418      186.7737     107.167701       0.85392
  33     6.613       79.6579        0.0419      186.6240      186.6659     107.008005       0.85374
  32     8.786       79.7257        0.0555      186.4741      186.5296     106.803933       0.79254
  31     11.80       79.8138        0.0749      186.2773      186.3522     106.538383       0.74346
  30     15.07       79.8984        0.0958      186.0838      186.1796     106.281180       0.66405
  29     18.79       79.9848        0.1193      185.8805      185.9998     106.014976       0.60357
  28     23.16       80.0753        0.1468      185.6602      185.8069     105.731683       0.54780
  27     28.12       80.1664        0.1782      185.4279      185.6062     105.439742       0.49628
  26     33.73       80.2509        0.2134      185.1960      185.4094     105.158512       0.42284
  25     40.54       80.3327        0.2560      184.9479      185.2039     104.871159       0.35649
  24     48.69       80.4116        0.3074      184.6806      184.9880     104.576366       0.30506
  23     57.69       80.4791        0.3639      184.4182      184.7821     104.302937       0.25630
  22     68.43       80.5388        0.4312      184.1400      184.5712     104.032360       0.21271
  21     81.20       80.5816        0.5116      183.8556      184.3672     103.785642       0.16303
  20     96.49       80.6063        0.6076      183.5626      184.1702     103.563934       0.12237
  19     114.6       80.6346        0.7227      183.2413      183.9641     103.329494       0.10947
  18     136.5       80.6566        0.8593      182.8847      183.7440     103.087424       0.09308
  17     162.9       80.6722        1.0221      182.4822      183.5043     102.832076       0.08162
  16     196.4       80.6701        1.2335      181.9942      183.2277     102.557605       0.06909
  15     218.7       80.6607        1.3725      181.6836      183.0561     102.395367       0.06160
  14     243.0       80.6471        1.5237      181.3468      182.8704     102.223341       0.05966
  13     269.0       80.6296        1.6876      180.9786      182.6662     102.036607       0.06058
  12     297.5       80.6090        1.8650      180.5728      182.4378     101.828812       0.06163
  11     328.5       80.5886        2.0568      180.1197      182.1765     101.587894       0.06551
  10     361.9       80.5706        2.2634      179.6107      181.8741     101.303483       0.07196
   9     398.1       80.5581        2.4859      179.0368      181.5227     100.964577       0.07896
   8     437.6       80.5570        2.7248      178.3827      181.1075     100.550474       0.08854
   7     480.5       80.5779        2.9805      177.6219      180.6024     100.024493       0.10330
   6     533.0       80.6408        3.2946      176.6021      179.8967      99.255938       0.12364
   5     589.8       80.7555        3.6314      175.4201      179.0514      98.295913       0.14250
   4     651.6       80.9453        3.9907      174.0516      178.0424      97.097096       0.16394
   3     718.7       81.2255        4.3736      172.5119      176.8856      95.660067       0.18059
   2     792.3       81.6165        4.7806      170.8271      175.6077      93.991161       0.19140
   1     891.5       82.3412        5.3239      168.4828      173.8068      91.465588       0.21491
   0    1013.0       83.6679        5.9655      165.5252      171.4908      87.822904       0.25293



 Wavenumbers: 16000. - 22650. cm-1, ATM      1
 LEVEL PRESSURE   UPWARD FLUX   DIFDOWN FLUX  DIRDOWN FLUX  DOWNWARD FLUX   NET FLUX    HEATING RATE
          mb          W/m2          W/m2          W/m2        W/m2          W/m2       degree/day
  51    .06700      209.5944        0.0000      298.3258      298.3258      88.731359       0.00000
  50    .07753      209.5945        0.0005      298.3252      298.3257      88.731179       0.14423
  49    .09103      209.5946        0.0011      298.3245      298.3255      88.730917       0.16359
  48    0.1069      209.5948        0.0017      298.3236      298.3253      88.730567       0.18655
  47    0.1255      209.5950        0.0025      298.3226      298.3251      88.730098       0.21264
  46    0.1487      209.5953        0.0035      298.3212      298.3247      88.729406       0.25197
  45    0.1794      209.5959        0.0048      298.3193      298.3242      88.728326       0.29668
  44    0.2165      209.5966        0.0064      298.3170      298.3234      88.726860       0.33344
  43    0.2613      209.5976        0.0083      298.3141      298.3225      88.724871       0.37487
  42    0.3336      209.5995        0.0114      298.3092      298.3206      88.721090       0.44084
  41    0.4307      209.6024        0.0156      298.3022      298.3178      88.715390       0.49556
  40    0.5894      209.6080        0.0223      298.2902      298.3125      88.704520       0.57807
  39     1.339      209.6501        0.0543      298.2199      298.2743      88.624200       0.90426
  38     1.782      209.6862        0.0731      298.1688      298.2420      88.555763       1.30292
  37     2.292      209.7387        0.0949      298.1005      298.1954      88.456682       1.64105
  36     2.964      209.8241        0.1234      297.9968      298.1203      88.296122       2.01551
  35     3.853      209.9601        0.1611      297.8402      298.0013      88.041239       2.41889
  34     5.035      210.1635        0.2112      297.6130      297.8242      87.660717       2.71829
  33     6.613      210.4469        0.2780      297.3002      297.5783      87.131400       2.82973
  32     8.786      210.8167        0.3681      296.8904      297.2585      86.441764       2.67830
  31     11.80      211.3010        0.4968      296.3446      296.8414      85.540469       2.52334
  30     15.07      211.7685        0.6350      295.8053      296.4403      84.671833       2.24265
  29     18.79      212.2495        0.7911      295.2382      296.0294      83.779892       2.02230
  28     23.16      212.7569        0.9735      294.6243      295.5977      82.840843       1.81582
  27     28.12      213.2734        1.1819      293.9780      295.1599      81.886522       1.62228
  26     33.73      213.7601        1.4154      293.3330      294.7484      80.988271       1.35054
  25     40.54      214.2423        1.6977      292.6433      294.3409      80.098636       1.10369
  24     48.69      214.7206        2.0382      291.8984      293.9366      79.215987       0.91340
  23     57.69      215.1465        2.4125      291.1635      293.5760      78.429544       0.73717
  22     68.43      215.5461        2.8587      290.3771      293.2358      77.689725       0.58160
  21     81.20      215.8748        3.3911      289.5601      292.9512      77.076436       0.40525
  20     96.49      216.1294        4.0263      288.6972      292.7235      76.594172       0.26618
  19     114.6      216.3599        4.7803      287.7320      292.5123      76.152394       0.20628
  18     136.5      216.5844        5.6732      286.6280      292.3012      75.716802       0.16750
  17     162.9      216.8067        6.7351      285.3509      292.0860      75.279311       0.13984
  16     196.4      216.9988        8.1109      283.7724      291.8833      74.884538       0.09937
  15     218.7      217.0889        9.0134      282.7651      291.7784      74.689503       0.07405
  14     243.0      217.1696        9.9931      281.6844      291.6775      74.507934       0.06297
  13     269.0      217.2390       11.0536      280.5279      291.5815      74.342536       0.05365
  12     297.5      217.2965       12.1982      279.2920      291.4902      74.193685       0.04415
  11     328.5      217.3500       13.4333      277.9634      291.3966      74.046647       0.03998
  10     361.9      217.3995       14.7611      276.5389      291.3000      73.900481       0.03698
   9     398.1      217.4457       16.1879      275.0108      291.1987      73.752988       0.03436
   8     437.6      217.4912       17.7176      273.3717      291.0894      73.598137       0.03311
   7     480.5      217.5387       19.3549      271.6137      290.9686      73.429946       0.03303
   6     533.0      217.5983       21.3669      269.4454      290.8123      73.214026       0.03473
   5     589.8      217.6689       23.5315      267.0994      290.6309      72.962027       0.03740
   4     651.6      217.7573       25.8537      264.5638      290.4175      72.660191       0.04128
   3     718.7      217.8636       28.3390      261.8335      290.1725      72.308891       0.04415
   2     792.3      217.9903       30.9879      258.9071      289.8950      71.904684       0.04636
   1     891.5      218.1940       34.5410      254.9468      289.4878      71.293782       0.05198
   0    1013.0      218.5067       38.7749      250.1650      288.9399      70.433178       0.05976



 Wavenumbers: 22650. - 29000. cm-1, ATM      1
 LEVEL PRESSURE   UPWARD FLUX   DIFDOWN FLUX  DIRDOWN FLUX  DOWNWARD FLUX   NET FLUX    HEATING RATE
          mb          W/m2          W/m2          W/m2        W/m2          W/m2       degree/day
  51    .06700       86.3162        0.0000      112.5773      112.5773      26.261117       0.00000
  50    .07753       86.3162        0.0006      112.5767      112.5773      26.261117      -0.00000
  49    .09103       86.3162        0.0012      112.5760      112.5773      26.261117       0.00000
  48    0.1069       86.3162        0.0020      112.5752      112.5773      26.261117      -0.00000
  47    0.1255       86.3162        0.0030      112.5743      112.5773      26.261117       0.00000
  46    0.1487       86.3162        0.0041      112.5732      112.5773      26.261117       0.00000
  45    0.1794       86.3162        0.0057      112.5716      112.5773      26.261117      -0.00000
  44    0.2165       86.3162        0.0076      112.5697      112.5773      26.261117       0.00000
  43    0.2613       86.3162        0.0098      112.5675      112.5773      26.261117      -0.00000
  42    0.3336       86.3161        0.0134      112.5638      112.5773      26.261117       0.00000
  41    0.4307       86.3161        0.0183      112.5590      112.5773      26.261117       0.00000
  40    0.5894       86.3161        0.0262      112.5510      112.5773      26.261117      -0.00000
  39     1.339       86.3161        0.0638      112.5134      112.5772      26.261117       0.00000
  38     1.782       86.3161        0.0858      112.4913      112.5772      26.261117      -0.00000
  37     2.292       86.3160        0.1114      112.4658      112.5771      26.261117       0.00000
  36     2.964       86.3160        0.1449      112.4322      112.5771      26.261117       0.00000
  35     3.853       86.3159        0.1891      112.3879      112.5770      26.261117       0.00000
  34     5.035       86.3158        0.2480      112.3290      112.5769      26.261117      -0.00000
  33     6.613       86.3157        0.3265      112.2503      112.5768      26.261117       0.00000
  32     8.786       86.3155        0.4324      112.1443      112.5766      26.261117      -0.00000
  31     11.80       86.3152        0.5837      111.9926      112.5763      26.261117       0.00000
  30     15.07       86.3149        0.7461      111.8299      112.5760      26.261117      -0.00000
  29     18.79       86.3144        0.9294      111.6461      112.5755      26.261117       0.00000
  28     23.16       86.3138        1.1433      111.4316      112.5749      26.261117       0.00000
  27     28.12       86.3131        1.3877      111.1865      112.5742      26.261117       0.00000
  26     33.73       86.3121        1.6606      110.9126      112.5732      26.261117       0.00000
  25     40.54       86.3108        1.9898      110.5821      112.5719      26.261117       0.00000
  24     48.69       86.3091        2.3857      110.1845      112.5702      26.261117       0.00000
  23     57.69       86.3068        2.8192      109.7487      112.5680      26.261117      -0.00000
  22     68.43       86.3038        3.3337      109.2312      112.5649      26.261117       0.00000
  21     81.20       86.2997        3.9439      108.6169      112.5608      26.261117       0.00000
  20     96.49       86.2940        4.6669      107.8882      112.5552      26.261117       0.00000
  19     114.6       86.2863        5.5195      107.0279      112.5474      26.261117       0.00000
  18     136.5       86.2756        6.5216      106.0151      112.5367      26.261117       0.00000
  17     162.9       86.2608        7.7030      104.8189      112.5219      26.261117      -0.00000
  16     196.4       86.2382        9.2156      103.2837      112.4993      26.261117       0.00000
  15     218.7       86.2214       10.1971      102.2854      112.4825      26.261117       0.00000
  14     243.0       86.2012       11.2534      101.2089      112.4623      26.261117      -0.00000
  13     269.0       86.1772       12.3860      100.0523      112.4383      26.261117       0.00000
  12     297.5       86.1487       13.5957       98.8141      112.4098      26.261117       0.00000
  11     328.5       86.1150       14.8869       97.4892      112.3761      26.261117      -0.00000
  10     361.9       86.0753       16.2586       96.0778      112.3364      26.261117       0.00000
   9     398.1       86.0286       17.7139       94.5758      112.2897      26.261117       0.00000
   8     437.6       85.9738       19.2529       92.9820      112.2349      26.261117      -0.00000
   7     480.5       85.9099       20.8759       91.2951      112.1710      26.261117       0.00000
   6     533.0       85.8237       22.8363       89.2485      112.0848      26.261117      -0.00000
   5     589.8       85.7214       24.9042       87.0783      111.9825      26.261117      -0.00000
   4     651.6       85.6006       27.0758       84.7859      111.8617      26.261117       0.00000
   3     718.7       85.4586       29.3461       82.3736      111.7197      26.261117       0.00000
   2     792.3       85.2925       31.7048       79.8488      111.5536      26.261117      -0.00000
   1     891.5       85.0455       34.7727       76.5339      111.3066      26.261117       0.00000
   0    1013.0       84.7141       38.2852       72.6900      110.9753      26.261117      -0.00000



 Wavenumbers: 29000. - 38000. cm-1, ATM      1
 LEVEL PRESSURE   UPWARD FLUX   DIFDOWN FLUX  DIRDOWN FLUX  DOWNWARD FLUX   NET FLUX    HEATING RATE
          mb          W/m2          W/m2          W/m2        W/m2          W/m2       degree/day
  51    .06700       13.9738        0.0000       39.6994       39.6994      25.725601       0.00000
  50    .07753       13.9737        0.0004       39.6951       39.6955      25.721780       3.06304
  49    .09103       13.9735        0.0008       39.6889       39.6897      25.716217       3.47657
  48    0.1069       13.9734        0.0013       39.6808       39.6821      25.708766       3.96641
  47    0.1255       13.9732        0.0019       39.6701       39.6719      25.698792       4.52187
  46    0.1487       13.9729        0.0026       39.6544       39.6570      25.684097       5.35624
  45    0.1794       13.9727        0.0036       39.6302       39.6338      25.661160       6.29677
  44    0.2165       13.9724        0.0048       39.5977       39.6025      25.630140       7.05664
  43    0.2613       13.9721        0.0062       39.5541       39.5603      25.588238       7.89822
  42    0.3336       13.9717        0.0085       39.4724       39.4810      25.509241       9.21026
  41    0.4307       13.9714        0.0116       39.3517       39.3633      25.391941      10.19898
  40    0.5894       13.9712        0.0164       39.1290       39.1454      25.174257      11.57619
  39     1.339       13.9764        0.0378       37.7272       37.7650      23.788660      15.59930
  38     1.782       13.9834        0.0491       36.7932       36.8422      22.858792      17.70318
  37     2.292       13.9951        0.0613       35.7337       35.7949      21.799852      17.53882
  36     2.964       14.0156        0.0765       34.4834       34.5598      20.544223      15.76194
  35     3.853       14.0500        0.0957       33.1337       33.2294      19.179427      12.95217
  34     5.035       14.1029        0.1202       31.7759       31.8962      17.793310       9.90185
  33     6.613       14.1779        0.1522       30.4559       30.6081      16.430219       7.28709
  32     8.786       14.2771        0.1942       29.2069       29.4011      15.123964       5.07302
  31     11.80       14.4093        0.2533       27.9832       28.2364      13.827133       3.63072
  30     15.07       14.5403        0.3157       27.0492       27.3649      12.824602       2.58834
  29     18.79       14.6790        0.3850       26.2430       26.6280      11.949017       1.98522
  28     23.16       14.8307        0.4648       25.5054       25.9703      11.139541       1.56526
  27     28.12       14.9917        0.5552       24.8371       25.3923      10.400632       1.25610
  26     33.73       15.1492        0.6560       24.2528       24.9088       9.759635       0.96376
  25     40.54       15.3110        0.7777       23.6985       24.4762       9.165252       0.73740
  24     48.69       15.4779        0.9240       23.1583       24.0823       8.604320       0.58048
  23     57.69       15.6323        1.0843       22.6715       23.7558       8.123487       0.45071
  22     68.43       15.7817        1.2749       22.1902       23.4651       7.683360       0.34600
  21     81.20       15.9057        1.5031       21.7276       23.2308       7.325047       0.23677
  20     96.49       15.9996        1.7758       21.2703       23.0461       7.046467       0.15376
  19     114.6       16.0836        2.0956       20.7814       22.8770       6.793488       0.11812
  18     136.5       16.1653        2.4670       20.2433       22.7102       6.544887       0.09559
  17     162.9       16.2471        2.8998       19.6439       22.5438       6.296647       0.07935
  16     196.4       16.3143        3.4589       18.9359       22.3948       6.080468       0.05441
  15     218.7       16.3417        3.8108       18.4990       22.3098       5.968151       0.04264
  14     243.0       16.3639        4.1850       18.0418       22.2268       5.862896       0.03651
  13     269.0       16.3797        4.5816       17.5651       22.1467       5.766980       0.03111
  12     297.5       16.3880        4.9997       17.0695       22.0692       5.681198       0.02544
  11     328.5       16.3920        5.4383       16.5516       21.9899       5.597891       0.02265
  10     361.9       16.3912        5.8957       16.0130       21.9087       5.517517       0.02034
   9     398.1       16.3849        6.3714       15.4537       21.8251       5.440260       0.01800
   8     437.6       16.3731        6.8632       14.8747       21.7379       5.364774       0.01614
   7     480.5       16.3549        7.3697       14.2773       21.6471       5.292163       0.01426
   6     533.0       16.3254        7.9640       13.5733       21.5373       5.211898       0.01291
   5     589.8       16.2867        8.5703       12.8496       21.4199       5.133139       0.01169
   4     651.6       16.2380        9.1831       12.1100       21.2931       5.055039       0.01068
   3     718.7       16.1782        9.7971       11.3588       21.1559       4.977646       0.00973
   2     792.3       16.1063       10.4066       10.6009       21.0075       4.901111       0.00878
   1     891.5       15.9977       11.1528        9.6505       20.8033       4.805670       0.00812
   0    1013.0       15.8518       11.9422        8.6088       20.5510       4.699163       0.00740



 Wavenumbers: 38000. - 50000. cm-1, ATM      1
 LEVEL PRESSURE   UPWARD FLUX   DIFDOWN FLUX  DIRDOWN FLUX  DOWNWARD FLUX   NET FLUX    HEATING RATE
          mb          W/m2          W/m2          W/m2        W/m2          W/m2       degree/day
  51    .06700        0.0074        0.0000        2.4486        2.4486       2.441190       0.00000
  50    .07753        0.0074        0.0001        2.4462        2.4462       2.438852       1.87385
  49    .09103        0.0073        0.0002        2.4427        2.4428       2.435512       2.08768
  48    0.1069        0.0072        0.0003        2.4381        2.4384       2.431115       2.34048
  47    0.1255        0.0071        0.0004        2.4321        2.4325       2.425322       2.62623
  46    0.1487        0.0070        0.0005        2.4235        2.4240       2.416914       3.06494
  45    0.1794        0.0069        0.0007        2.4102        2.4108       2.403955       3.55742
  44    0.2165        0.0067        0.0009        2.3925        2.3934       2.386654       3.93563
  43    0.2613        0.0065        0.0012        2.3690        2.3701       2.363590       4.34750
  42    0.3336        0.0063        0.0015        2.3255        2.3270       2.320778       4.99154
  41    0.4307        0.0059        0.0020        2.2623        2.2643       2.258401       5.42350
  40    0.5894        0.0053        0.0027        2.1484        2.1511       2.145732       5.99159
  39     1.339        0.0035        0.0041        1.5115        1.5155       1.512023       7.13441
  38     1.782        0.0028        0.0039        1.1616        1.1655       1.162718       6.65020
  37     2.292        0.0022        0.0034        0.8378        0.8412       0.839022       5.36125
  36     2.964        0.0017        0.0028        0.5542        0.5570       0.555324       3.56128
  35     3.853        0.0013        0.0023        0.3504        0.3527       0.351377       1.93549
  34     5.035        0.0010        0.0018        0.2191        0.2210       0.219975       0.93868
  33     6.613        0.0008        0.0014        0.1358        0.1373       0.136524       0.44613
  32     8.786        0.0006        0.0012        0.0843        0.0855       0.084918       0.20042
  31     11.80        0.0004        0.0009        0.0507        0.0516       0.051201       0.09440
  30     15.07        0.0003        0.0007        0.0324        0.0331       0.032836       0.04742
  29     18.79        0.0002        0.0005        0.0207        0.0212       0.021029       0.02677
  28     23.16        0.0001        0.0004        0.0129        0.0133       0.013123       0.01529
  27     28.12        0.0001        0.0002        0.0079        0.0081       0.008035       0.00865
  26     33.73        0.0001        0.0002        0.0048        0.0050       0.004927       0.00467
  25     40.54        0.0000        0.0001        0.0028        0.0029       0.002909       0.00250
  24     48.69        0.0000        0.0001        0.0016        0.0017       0.001633       0.00132
  23     57.69        0.0000        0.0000        0.0009        0.0009       0.000912       0.00068
  22     68.43        0.0000        0.0000        0.0005        0.0005       0.000480       0.00034
  21     81.20        0.0000        0.0000        0.0002        0.0002       0.000239       0.00016
  20     96.49        0.0000        0.0000        0.0001        0.0001       0.000110       0.00007
  19     114.6        0.0000        0.0000        0.0000        0.0000       0.000045       0.00003
  18     136.5        0.0000        0.0000        0.0000        0.0000       0.000015       0.00001
  17     162.9        0.0000        0.0000        0.0000        0.0000       0.000004       0.00000
  16     196.4        0.0000        0.0000        0.0000        0.0000       0.000001       0.00000
  15     218.7        0.0000        0.0000        0.0000        0.0000       0.000000       0.00000
  14     243.0        0.0000        0.0000        0.0000        0.0000       0.000000       0.00000
  13     269.0        0.0000        0.0000        0.0000        0.0000       0.000000       0.00000
  12     297.5        0.0000        0.0000        0.0000        0.0000       0.000000       0.00000
  11     328.5        0.0000        0.0000        0.0000        0.0000       0.000000       0.00000
  10     361.9        0.0000        0.0000        0.0000        0.0000       0.000000       0.00000
   9     398.1        0.0000        0.0000        0.0000        0.0000       0.000000       0.00000
   8     437.6        0.0000        0.0000        0.0000        0.0000       0.000000       0.00000
   7     480.5        0.0000        0.0000        0.0000        0.0000       0.000000       0.00000
   6     533.0        0.0000        0.0000        0.0000        0.0000       0.000000       0.00000
   5     589.8        0.0000        0.0000        0.0000        0.0000       0.000000       0.00000
   4     651.6        0.0000        0.0000        0.0000        0.0000       0.000000       0.00000
   3     718.7        0.0000        0.0000        0.0000        0.0000       0.000000       0.00000
   2     792.3        0.0000        0.0000        0.0000        0.0000       0.000000       0.00000
   1     891.5        0.0000        0.0000        0.0000        0.0000       0.000000       0.00000
   0    1013.0        0.0000        0.0000        0.0000        0.0000       0.000000       0.00000



 Wavenumbers:   820. -  2600. cm-1, ATM      1
 LEVEL PRESSURE   UPWARD FLUX   DIFDOWN FLUX  DIRDOWN FLUX  DOWNWARD FLUX   NET FLUX    HEATING RATE
          mb          W/m2          W/m2          W/m2        W/m2          W/m2       degree/day
  51    .06700        0.3918        0.0000       11.4544       11.4544      11.062605       0.00000
  50    .07753        0.3918        0.0000       11.4480       11.4480      11.056268       5.07919
  49    .09103        0.3918        0.0000       11.4467       11.4467      11.054956       0.82057
  48    0.1069        0.3918        0.0000       11.4457       11.4457      11.053882       0.57134
  47    0.1255        0.3918        0.0000       11.4444       11.4444      11.052635       0.56523
  46    0.1487        0.3918        0.0000       11.4428       11.4428      11.051044       0.58001
  45    0.1794        0.3918        0.0000       11.4407       11.4407      11.048900       0.58876
  44    0.2165        0.3918        0.0000       11.4382       11.4382      11.046444       0.55849
  43    0.2613        0.3918        0.0000       11.4355       11.4355      11.043691       0.51897
  42    0.3336        0.3918        0.0000       11.4313       11.4313      11.039542       0.48379
  41    0.4307        0.3918        0.0000       11.4265       11.4265      11.034710       0.42014
  40    0.5894        0.3918        0.0000       11.4195       11.4195      11.027755       0.36985
  39     1.339        0.3918        0.0000       11.3891       11.3891      10.997357       0.34223
  38     1.782        0.3918        0.0000       11.3717       11.3717      10.979972       0.33097
  37     2.292        0.3918        0.0000       11.3522       11.3522      10.960388       0.32437
  36     2.964        0.3918        0.0000       11.3271       11.3271      10.935273       0.31527
  35     3.853        0.3918        0.0000       11.2946       11.2946      10.902772       0.30844
  34     5.035        0.3918        0.0000       11.2529       11.2529      10.861135       0.29744
  33     6.613        0.3918        0.0000       11.2004       11.2004      10.808629       0.28070
  32     8.786        0.3918        0.0000       11.1338       11.1338      10.742035       0.25863
  31     11.80        0.3918        0.0000       11.0449       11.0449      10.653127       0.24892
  30     15.07        0.3918        0.0000       10.9579       10.9579      10.566114       0.22465
  29     18.79        0.3918        0.0000       10.8729       10.8729      10.481123       0.19270
  28     23.16        0.3918        0.0000       10.7937       10.7937      10.401869       0.15325
  27     28.12        0.3918        0.0000       10.7267       10.7267      10.334856       0.11392
  26     33.73        0.3918        0.0000       10.6736       10.6736      10.281810       0.07976
  25     40.54        0.3918        0.0000       10.6280       10.6280      10.236191       0.05660
  24     48.69        0.3919        0.0000       10.5851       10.5851      10.193276       0.04441
  23     57.69        0.3919        0.0000       10.5429       10.5429      10.151032       0.03960
  22     68.43        0.3919        0.0000       10.4946       10.4946      10.102697       0.03800
  21     81.20        0.3919        0.0000       10.4385       10.4385      10.046586       0.03708
  20     96.49        0.3920        0.0000       10.3727       10.3727       9.980755       0.03633
  19     114.6        0.3920        0.0000       10.2940       10.2940       9.902053       0.03675
  18     136.5        0.3920        0.0000       10.1941       10.1941       9.802039       0.03846
  17     162.9        0.3921        0.0000       10.0458       10.0458       9.653695       0.04742
  16     196.4        0.3923        0.0000        9.7880        9.7881       9.395774       0.06492
  15     218.7        0.3924        0.0000        9.5930        9.5931       9.200630       0.07409
  14     243.0        0.3926        0.0000        9.3225        9.3226       8.929951       0.09388
  13     269.0        0.3929        0.0000        8.9424        8.9424       8.549526       0.12341
  12     297.5        0.3934        0.0000        8.5482        8.5482       8.154762       0.11708
  11     328.5        0.3943        0.0000        8.1454        8.1454       7.751180       0.10973
  10     361.9        0.3955        0.0000        7.6575        7.6575       7.262027       0.12376
   9     398.1        0.3973        0.0000        7.1069        7.1070       6.709713       0.12868
   8     437.6        0.3997        0.0000        6.5802        6.5802       6.180479       0.11315
   7     480.5        0.4032        0.0000        6.1616        6.1616       5.758442       0.08289
   6     533.0        0.4089        0.0000        5.8340        5.8340       5.425113       0.05362
   5     589.8        0.4171        0.0000        5.5403        5.5403       5.123272       0.04480
   4     651.6        0.4291        0.0000        5.2164        5.2164       4.787291       0.04595
   3     718.7        0.4452        0.0000        4.8945        4.8946       4.449376       0.04247
   2     792.3        0.4653        0.0000        4.6070        4.6070       4.141718       0.03528
   1     891.5        0.4999        0.0000        4.2826        4.2826       3.782691       0.03055
   0    1013.0        0.5687        0.0000        3.9087        3.9087       3.340000       0.03074

  Modules and versions used in this calculation:

       rrtmg_sw.1col.f90:  $Revision$                    rrtmg_sw_init.f90:  $Revision$        
     rrtmgsw_cldprop.f90:  $Revision$                  rrtmgsw_cldprmc.f90:  NOT USED          
     rrtmg_sw_reftra.f90:  $Revision$                  rrtmg_sw_spcvrt.f90:  NOT USED          
     rrtmg_sw_spcvmc.f90:  NOT USED                    rrtmgsw_setcoef.f90:  NOT USED          
     rrtmg_sw_taumol.f90:  $Revision$                  rrtmg_sw_vrtqdr.f90:  NOT USED          
                rrtatm.f:  NOT USED                             util_xxx.f:  NOT USED          
                 extra.f:  NOT USED                       rrtmg_sw_k_g.f90:  $Revision$        

