

 Wavenumbers:   820. - 50000. cm-1, ATM      1
 LEVEL PRESSURE   UPWARD FLUX   DIFDOWN FLUX  DIRDOWN FLUX  DOWNWARD FLUX   NET FLUX    HEATING RATE
          mb          W/m2          W/m2          W/m2        W/m2          W/m2       degree/day
  51    .06700      111.0591        0.0000      236.3090      236.3090     125.249869       0.00000
  50    .07753      111.0584        0.0011      236.2946      236.2957     125.237298      10.07614
  49    .09103      111.0574        0.0024      236.2796      236.2820     125.224528       7.98156
  48    0.1069      111.0564        0.0039      236.2614      236.2653     125.208946       8.29423
  47    0.1255      111.0552        0.0057      236.2390      236.2447     125.189462       8.83329
  46    0.1487      111.0537        0.0079      236.2083      236.2161     125.162417       9.85801
  45    0.1794      111.0517        0.0109      236.1632      236.1741     125.122347      11.00021
  44    0.2165      111.0494        0.0144      236.1058      236.1202     125.070793      11.72763
  43    0.2613      111.0467        0.0186      236.0328      236.0513     125.004593      12.47842
  42    0.3336      111.0424        0.0254      235.9046      235.9300     124.887559      13.64503
  41    0.4307      111.0369        0.0343      235.7316      235.7659     124.728975      13.78848
  40    0.5894      111.0284        0.0486      235.4532      235.5018     124.473404      13.59098
  39     1.339      110.9954        0.1119      234.3693      234.4812     123.485839      11.11819
  38     1.782      110.9804        0.1474      233.9075      234.0549     123.074511       7.83100
  37     2.292      110.9668        0.1878      233.4445      233.6323     122.665508       6.77416
  36     2.964      110.9544        0.2402      232.8985      233.1388     122.184396       6.03941
  35     3.853      110.9454        0.3085      232.2480      232.5565     121.611074       5.44094
  34     5.035      110.9411        0.3980      231.4778      231.8758     120.934686       4.83183
  33     6.613      110.9400        0.5163      230.5748      231.0911     120.151127       4.18891
  32     8.786      110.9367        0.6738      229.5217      230.1956     119.258898       3.46510
  31     11.80      110.9218        0.8965      228.2272      229.1237     118.201880       2.95931
  30     15.07      110.8938        1.1325      227.0115      228.1440     117.250237       2.45696
  29     18.79      110.8515        1.3957      225.7744      227.1702     116.318615       2.11227
  28     23.16      110.7901        1.6992      224.4633      226.1625     115.372378       1.82972
  27     28.12      110.7057        2.0418      223.0995      225.1413     114.435553       1.59254
  26     33.73      110.5898        2.4204      221.7314      224.1518     113.561958       1.31347
  25     40.54      110.4253        2.8717      220.2475      223.1192     112.693894       1.07693
  24     48.69      110.2048        3.4075      218.6218      222.0293     111.824488       0.89970
  23     57.69      109.9422        3.9863      216.9916      220.9779     111.035698       0.73937
  22     68.43      109.6087        4.6630      215.2177      219.8807     110.272012       0.60036
  21     81.20      109.1825        5.4533      213.3191      218.7724     109.589867       0.45075
  20     96.49      108.6521        6.3734      211.2654      217.6387     108.986622       0.33295
  19     114.6      108.0269        7.4355      208.9567      216.3922     108.365286       0.29012
  18     136.5      107.2969        8.6534      206.3488      215.0022     107.705239       0.25380
  17     162.9      106.4483       10.0482      203.3355      213.3837     106.935439       0.24606
  16     196.4      105.3707       11.7752      199.4949      211.2701     105.899367       0.26079
  15     218.7      104.6819       12.8616      196.9113      209.7728     105.090907       0.30694
  14     243.0      103.9526       14.0022      193.8753      207.8776     103.924992       0.40438
  13     269.0      103.1843       15.1936      190.1393      205.3329     102.148550       0.57627
  12     297.5      102.3796       16.4313      185.8913      202.3226      99.942977       0.65415
  11     328.5      101.5409       17.7148      181.1050      198.8198      97.278911       0.72435
  10     361.9      100.6727       19.0373      175.9244      194.9617      94.289039       0.75647
   9     398.1       99.7772       20.3961      170.4958      190.8919      91.114712       0.73955
   8     437.6       98.8598       21.7853      164.8042      186.5895      87.729770       0.72372
   7     480.5       97.9273       23.1997      158.7891      181.9888      84.061533       0.72043
   6     533.0       96.8504       24.8421      151.8078      176.6499      79.799538       0.68562
   5     589.8       95.7744       26.5017      144.7866      171.2883      75.513847       0.63614
   4     651.6       94.7173       28.1664      137.6508      165.8172      71.099938       0.60361
   3     718.7       93.6887       29.8293      130.6673      160.4966      66.807846       0.53940
   2     792.3       92.7001       31.4803      124.0155      155.4958      62.795677       0.46015
   1     891.5       91.5540       33.5165      115.9839      149.5004      57.946435       0.41265
   0    1013.0       90.5086       35.7003      107.1500      142.8504      52.341787       0.38916



 Wavenumbers:  2600. -  3250. cm-1, ATM      1
 LEVEL PRESSURE   UPWARD FLUX   DIFDOWN FLUX  DIRDOWN FLUX  DOWNWARD FLUX   NET FLUX    HEATING RATE
          mb          W/m2          W/m2          W/m2        W/m2          W/m2       degree/day
  51    .06700        0.1776        0.0000        2.0827        2.0827       1.905076       0.00000
  50    .07753        0.1776        0.0000        2.0827        2.0827       1.905069       0.00640
  49    .09103        0.1776        0.0000        2.0827        2.0827       1.905058       0.00626
  48    0.1069        0.1776        0.0000        2.0827        2.0827       1.905047       0.00612
  47    0.1255        0.1776        0.0000        2.0826        2.0826       1.905034       0.00598
  46    0.1487        0.1776        0.0000        2.0826        2.0826       1.905017       0.00606
  45    0.1794        0.1776        0.0000        2.0826        2.0826       1.904994       0.00622
  44    0.2165        0.1776        0.0000        2.0826        2.0826       1.904968       0.00609
  43    0.2613        0.1776        0.0000        2.0825        2.0825       1.904936       0.00596
  42    0.3336        0.1776        0.0000        2.0825        2.0825       1.904884       0.00612
  41    0.4307        0.1776        0.0000        2.0824        2.0824       1.904813       0.00613
  40    0.5894        0.1776        0.0000        2.0823        2.0823       1.904695       0.00627
  39     1.339        0.1776        0.0000        2.0816        2.0816       1.904012       0.00769
  38     1.782        0.1776        0.0000        2.0811        2.0811       1.903504       0.00967
  37     2.292        0.1776        0.0000        2.0805        2.0805       1.902854       0.01076
  36     2.964        0.1776        0.0000        2.0796        2.0796       1.901949       0.01136
  35     3.853        0.1776        0.0000        2.0783        2.0783       1.900738       0.01149
  34     5.035        0.1776        0.0000        2.0768        2.0768       1.899192       0.01104
  33     6.613        0.1776        0.0000        2.0749        2.0749       1.897330       0.00995
  32     8.786        0.1776        0.0000        2.0728        2.0728       1.895223       0.00818
  31     11.80        0.1776        0.0000        2.0704        2.0704       1.892843       0.00666
  30     15.07        0.1776        0.0000        2.0684        2.0684       1.890760       0.00538
  29     18.79        0.1776        0.0000        2.0662        2.0662       1.888608       0.00488
  28     23.16        0.1776        0.0000        2.0636        2.0636       1.886041       0.00496
  27     28.12        0.1776        0.0000        2.0604        2.0605       1.882852       0.00542
  26     33.73        0.1776        0.0000        2.0563        2.0563       1.878716       0.00622
  25     40.54        0.1776        0.0000        2.0504        2.0504       1.872805       0.00733
  24     48.69        0.1776        0.0000        2.0422        2.0422       1.864633       0.00846
  23     57.69        0.1776        0.0000        2.0323        2.0324       1.854767       0.00925
  22     68.43        0.1776        0.0000        2.0201        2.0201       1.842504       0.00964
  21     81.20        0.1776        0.0000        2.0056        2.0057       1.828072       0.00954
  20     96.49        0.1776        0.0000        1.9896        1.9896       1.812007       0.00887
  19     114.6        0.1776        0.0000        1.9722        1.9723       1.794663       0.00810
  18     136.5        0.1776        0.0000        1.9549        1.9549       1.777346       0.00666
  17     162.9        0.1776        0.0001        1.9377        1.9378       1.760181       0.00549
  16     196.4        0.1776        0.0001        1.9181        1.9181       1.740517       0.00495
  15     218.7        0.1777        0.0001        1.9042        1.9043       1.726655       0.00526
  14     243.0        0.1777        0.0001        1.8858        1.8859       1.708167       0.00641
  13     269.0        0.1778        0.0001        1.8580        1.8581       1.680278       0.00905
  12     297.5        0.1779        0.0001        1.8173        1.8174       1.639543       0.01208
  11     328.5        0.1781        0.0001        1.7598        1.7600       1.581869       0.01568
  10     361.9        0.1784        0.0001        1.6844        1.6845       1.506130       0.01916
   9     398.1        0.1787        0.0001        1.5938        1.5939       1.415189       0.02119
   8     437.6        0.1793        0.0001        1.4931        1.4932       1.313942       0.02165
   7     480.5        0.1801        0.0001        1.3832        1.3834       1.203334       0.02172
   6     533.0        0.1813        0.0001        1.2547        1.2548       1.073464       0.02089
   5     589.8        0.1832        0.0001        1.1223        1.1224       0.939249       0.01992
   4     651.6        0.1858        0.0002        0.9877        0.9879       0.802144       0.01875
   3     718.7        0.1892        0.0002        0.8645        0.8647       0.675407       0.01593
   2     792.3        0.1937        0.0002        0.7586        0.7588       0.565046       0.01266
   1     891.5        0.2013        0.0001        0.6421        0.6422       0.440959       0.01056
   0    1013.0        0.2143        0.0001        0.5210        0.5211       0.306773       0.00932



 Wavenumbers:  3250. -  4000. cm-1, ATM      1
 LEVEL PRESSURE   UPWARD FLUX   DIFDOWN FLUX  DIRDOWN FLUX  DOWNWARD FLUX   NET FLUX    HEATING RATE
          mb          W/m2          W/m2          W/m2        W/m2          W/m2       degree/day
  51    .06700        0.0004        0.0000        3.5111        3.5111       3.510724       0.00000
  50    .07753        0.0004        0.0000        3.5077        3.5077       3.507358       2.69788
  49    .09103        0.0004        0.0000        3.5061        3.5061       3.505671       1.05463
  48    0.1069        0.0004        0.0000        3.5047        3.5047       3.504269       0.74609
  47    0.1255        0.0004        0.0000        3.5034        3.5034       3.502975       0.58679
  46    0.1487        0.0004        0.0000        3.5020        3.5020       3.501653       0.48207
  45    0.1794        0.0004        0.0000        3.5006        3.5006       3.500181       0.40387
  44    0.2165        0.0004        0.0000        3.4991        3.4991       3.498685       0.34047
  43    0.2613        0.0004        0.0000        3.4974        3.4974       3.497055       0.30720
  42    0.3336        0.0004        0.0000        3.4949        3.4949       3.494508       0.29693
  41    0.4307        0.0004        0.0000        3.4918        3.4918       3.491370       0.27285
  40    0.5894        0.0004        0.0000        3.4872        3.4872       3.486830       0.24144
  39     1.339        0.0004        0.0000        3.4728        3.4728       3.472449       0.16191
  38     1.782        0.0004        0.0000        3.4668        3.4668       3.466466       0.11390
  37     2.292        0.0004        0.0000        3.4606        3.4606       3.460205       0.10370
  36     2.964        0.0004        0.0000        3.4527        3.4527       3.452339       0.09875
  35     3.853        0.0004        0.0000        3.4425        3.4425       3.442081       0.09735
  34     5.035        0.0004        0.0000        3.4289        3.4289       3.428494       0.09706
  33     6.613        0.0004        0.0000        3.4106        3.4106       3.410247       0.09755
  32     8.786        0.0004        0.0000        3.3858        3.3858       3.385462       0.09626
  31     11.80        0.0004        0.0000        3.3509        3.3509       3.350554       0.09773
  30     15.07        0.0004        0.0000        3.3156        3.3156       3.315267       0.09111
  29     18.79        0.0004        0.0000        3.2795        3.2795       3.279145       0.08190
  28     23.16        0.0003        0.0000        3.2422        3.2422       3.241888       0.07204
  27     28.12        0.0003        0.0000        3.2043        3.2044       3.204038       0.06434
  26     33.73        0.0003        0.0000        3.1651        3.1651       3.164786       0.05902
  25     40.54        0.0003        0.0001        3.1190        3.1191       3.118770       0.05709
  24     48.69        0.0003        0.0001        3.0643        3.0644       3.064065       0.05661
  23     57.69        0.0003        0.0001        3.0058        3.0059       3.005557       0.05484
  22     68.43        0.0003        0.0001        2.9398        2.9399       2.939645       0.05182
  21     81.20        0.0003        0.0001        2.8676        2.8677       2.867399       0.04774
  20     96.49        0.0003        0.0001        2.7897        2.7898       2.789515       0.04299
  19     114.6        0.0002        0.0001        2.7011        2.7012       2.700999       0.04133
  18     136.5        0.0002        0.0002        2.6046        2.6048       2.604556       0.03708
  17     162.9        0.0002        0.0002        2.4885        2.4887       2.488509       0.03709
  16     196.4        0.0002        0.0002        2.3247        2.3249       2.324750       0.04122
  15     218.7        0.0001        0.0002        2.2102        2.2104       2.210301       0.04345
  14     243.0        0.0001        0.0002        2.0491        2.0494       2.049258       0.05585
  13     269.0        0.0001        0.0002        1.7975        1.7977       1.797642       0.08162
  12     297.5        0.0001        0.0002        1.5132        1.5134       1.513360       0.08432
  11     328.5        0.0001        0.0002        1.2479        1.2481       1.248019       0.07215
  10     361.9        0.0000        0.0002        1.0169        1.0171       1.017099       0.05843
   9     398.1        0.0000        0.0002        0.8188        0.8190       0.818992       0.04615
   8     437.6        0.0000        0.0002        0.6405        0.6407       0.640644       0.03813
   7     480.5        0.0000        0.0002        0.4697        0.4699       0.469870       0.03354
   6     533.0        0.0000        0.0001        0.3003        0.3004       0.300375       0.02727
   5     589.8        0.0000        0.0001        0.1722        0.1723       0.172335       0.01901
   4     651.6        0.0000        0.0001        0.0801        0.0802       0.080213       0.01260
   3     718.7        0.0000        0.0000        0.0275        0.0276       0.027575       0.00662
   2     792.3        0.0000        0.0000        0.0067        0.0067       0.006724       0.00239
   1     891.5        0.0000        0.0000        0.0006        0.0006       0.000606       0.00052
   0    1013.0        0.0000        0.0000        0.0000        0.0000       0.000003       0.00004



 Wavenumbers:  4000. -  4650. cm-1, ATM      1
 LEVEL PRESSURE   UPWARD FLUX   DIFDOWN FLUX  DIRDOWN FLUX  DOWNWARD FLUX   NET FLUX    HEATING RATE
          mb          W/m2          W/m2          W/m2        W/m2          W/m2       degree/day
  51    .06700        0.6740        0.0000        4.1231        4.1231       3.449124       0.00000
  50    .07753        0.6740        0.0000        4.1231        4.1231       3.449123       0.00079
  49    .09103        0.6740        0.0000        4.1231        4.1231       3.449122       0.00078
  48    0.1069        0.6740        0.0000        4.1231        4.1231       3.449120       0.00076
  47    0.1255        0.6740        0.0000        4.1231        4.1231       3.449119       0.00074
  46    0.1487        0.6740        0.0000        4.1231        4.1231       3.449117       0.00075
  45    0.1794        0.6740        0.0000        4.1231        4.1231       3.449114       0.00077
  44    0.2165        0.6740        0.0000        4.1231        4.1231       3.449110       0.00076
  43    0.2613        0.6740        0.0000        4.1231        4.1231       3.449106       0.00074
  42    0.3336        0.6740        0.0000        4.1231        4.1231       3.449100       0.00076
  41    0.4307        0.6740        0.0000        4.1231        4.1231       3.449091       0.00077
  40    0.5894        0.6740        0.0000        4.1230        4.1230       3.449076       0.00079
  39     1.339        0.6740        0.0000        4.1230        4.1230       3.448987       0.00100
  38     1.782        0.6740        0.0000        4.1229        4.1229       3.448918       0.00132
  37     2.292        0.6740        0.0000        4.1228        4.1228       3.448825       0.00155
  36     2.964        0.6740        0.0000        4.1226        4.1227       3.448686       0.00175
  35     3.853        0.6740        0.0000        4.1224        4.1224       3.448480       0.00196
  34     5.035        0.6740        0.0000        4.1221        4.1221       3.448176       0.00217
  33     6.613        0.6740        0.0000        4.1217        4.1217       3.447731       0.00238
  32     8.786        0.6739        0.0000        4.1210        4.1210       3.447076       0.00254
  31     11.80        0.6739        0.0000        4.1199        4.1200       3.446054       0.00286
  30     15.07        0.6739        0.0001        4.1187        4.1188       3.444865       0.00307
  29     18.79        0.6739        0.0001        4.1173        4.1174       3.443440       0.00323
  28     23.16        0.6739        0.0001        4.1155        4.1156       3.441688       0.00339
  27     28.12        0.6739        0.0001        4.1134        4.1135       3.439593       0.00356
  26     33.73        0.6739        0.0001        4.1108        4.1109       3.437043       0.00383
  25     40.54        0.6738        0.0001        4.1073        4.1075       3.433635       0.00423
  24     48.69        0.6738        0.0002        4.1028        4.1030       3.429171       0.00462
  23     57.69        0.6738        0.0002        4.0976        4.0978       3.423972       0.00487
  22     68.43        0.6738        0.0003        4.0911        4.0913       3.417573       0.00503
  21     81.20        0.6737        0.0003        4.0833        4.0836       3.409821       0.00512
  20     96.49        0.6737        0.0004        4.0739        4.0742       3.400535       0.00512
  19     114.6        0.6737        0.0004        4.0622        4.0627       3.389001       0.00539
  18     136.5        0.6736        0.0005        4.0483        4.0488       3.375175       0.00532
  17     162.9        0.6736        0.0006        4.0311        4.0317       3.358091       0.00546
  16     196.4        0.6736        0.0007        4.0072        4.0079       3.334385       0.00597
  15     218.7        0.6736        0.0008        3.9900        3.9908       3.317231       0.00651
  14     243.0        0.6736        0.0009        3.9686        3.9695       3.295847       0.00742
  13     269.0        0.6737        0.0010        3.9391        3.9400       3.266290       0.00959
  12     297.5        0.6739        0.0011        3.8986        3.8997       3.225728       0.01203
  11     328.5        0.6743        0.0012        3.8440        3.8451       3.170855       0.01492
  10     361.9        0.6747        0.0013        3.7762        3.7775       3.102782       0.01722
   9     398.1        0.6753        0.0014        3.6993        3.7007       3.025341       0.01804
   8     437.6        0.6761        0.0015        3.6133        3.6148       2.938646       0.01854
   7     480.5        0.6772        0.0016        3.5088        3.5104       2.833151       0.02072
   6     533.0        0.6790        0.0017        3.3612        3.3630       2.684002       0.02399
   5     589.8        0.6814        0.0018        3.1895        3.1913       2.509903       0.02584
   4     651.6        0.6850        0.0020        3.0066        3.0086       2.323523       0.02549
   3     718.7        0.6899        0.0021        2.8336        2.8357       2.145808       0.02233
   2     792.3        0.6960        0.0022        2.6767        2.6789       1.982901       0.01868
   1     891.5        0.7063        0.0023        2.4895        2.4918       1.785482       0.01680
   0    1013.0        0.7242        0.0025        2.2784        2.2808       1.556615       0.01589



 Wavenumbers:  4650. -  5150. cm-1, ATM      1
 LEVEL PRESSURE   UPWARD FLUX   DIFDOWN FLUX  DIRDOWN FLUX  DOWNWARD FLUX   NET FLUX    HEATING RATE
          mb          W/m2          W/m2          W/m2        W/m2          W/m2       degree/day
  51    .06700        0.4494        0.0000        3.9027        3.9027       3.453334       0.00000
  50    .07753        0.4494        0.0000        3.9025        3.9025       3.453099       0.18840
  49    .09103        0.4494        0.0000        3.9022        3.9022       3.452808       0.18216
  48    0.1069        0.4494        0.0000        3.9019        3.9019       3.452478       0.17551
  47    0.1255        0.4494        0.0000        3.9015        3.9015       3.452106       0.16867
  46    0.1487        0.4494        0.0000        3.9010        3.9010       3.451646       0.16749
  45    0.1794        0.4494        0.0000        3.9004        3.9004       3.451036       0.16756
  44    0.2165        0.4494        0.0000        3.8997        3.8997       3.450338       0.15872
  43    0.2613        0.4494        0.0000        3.8989        3.8989       3.449545       0.14955
  42    0.3336        0.4494        0.0000        3.8977        3.8977       3.448306       0.14447
  41    0.4307        0.4494        0.0000        3.8962        3.8962       3.446787       0.13202
  40    0.5894        0.4494        0.0000        3.8940        3.8940       3.444583       0.11724
  39     1.339        0.4494        0.0000        3.8867        3.8868       3.437387       0.08101
  38     1.782        0.4494        0.0000        3.8841        3.8841       3.434719       0.05079
  37     2.292        0.4494        0.0000        3.8818        3.8818       3.432425       0.03800
  36     2.964        0.4494        0.0000        3.8795        3.8795       3.430146       0.02860
  35     3.853        0.4494        0.0000        3.8771        3.8771       3.427744       0.02280
  34     5.035        0.4493        0.0000        3.8743        3.8743       3.424938       0.02004
  33     6.613        0.4493        0.0000        3.8706        3.8707       3.421315       0.01937
  32     8.786        0.4493        0.0000        3.8656        3.8656       3.416272       0.01959
  31     11.80        0.4493        0.0001        3.8578        3.8579       3.408587       0.02152
  30     15.07        0.4493        0.0001        3.8489        3.8490       3.399704       0.02293
  29     18.79        0.4493        0.0001        3.8381        3.8382       3.388945       0.02439
  28     23.16        0.4493        0.0001        3.8247        3.8249       3.375602       0.02580
  27     28.12        0.4492        0.0002        3.8086        3.8088       3.359557       0.02727
  26     33.73        0.4492        0.0002        3.7900        3.7902       3.341021       0.02787
  25     40.54        0.4492        0.0002        3.7674        3.7676       3.318464       0.02798
  24     48.69        0.4492        0.0003        3.7407        3.7410       3.291806       0.02759
  23     57.69        0.4491        0.0003        3.7128        3.7131       3.264012       0.02605
  22     68.43        0.4491        0.0004        3.6823        3.6826       3.233565       0.02394
  21     81.20        0.4490        0.0004        3.6499        3.6503       3.201261       0.02135
  20     96.49        0.4490        0.0005        3.6161        3.6167       3.167658       0.01855
  19     114.6        0.4489        0.0006        3.5809        3.5815       3.132527       0.01640
  18     136.5        0.4489        0.0007        3.5426        3.5433       3.094387       0.01467
  17     162.9        0.4489        0.0008        3.4979        3.4988       3.049897       0.01422
  16     196.4        0.4488        0.0010        3.4381        3.4391       2.990322       0.01500
  15     218.7        0.4488        0.0011        3.3964        3.3976       2.948741       0.01579
  14     243.0        0.4488        0.0012        3.3480        3.3492       2.900347       0.01678
  13     269.0        0.4489        0.0013        3.2893        3.2907       2.841749       0.01901
  12     297.5        0.4491        0.0015        3.2182        3.2197       2.770587       0.02111
  11     328.5        0.4493        0.0016        3.1344        3.1360       2.686635       0.02283
  10     361.9        0.4497        0.0017        3.0372        3.0389       2.589241       0.02464
   9     398.1        0.4502        0.0019        2.9275        2.9293       2.479117       0.02566
   8     437.6        0.4510        0.0020        2.8061        2.8081       2.357093       0.02609
   7     480.5        0.4521        0.0021        2.6733        2.6754       2.223341       0.02627
   6     533.0        0.4538        0.0022        2.5133        2.5155       2.061727       0.02600
   5     589.8        0.4562        0.0023        2.3501        2.3524       1.896214       0.02457
   4     651.6        0.4596        0.0025        2.1834        2.1858       1.726258       0.02324
   3     718.7        0.4641        0.0026        2.0222        2.0248       1.560660       0.02081
   2     792.3        0.4698        0.0027        1.8731        1.8757       1.405910       0.01775
   1     891.5        0.4793        0.0028        1.7032        1.7060       1.226673       0.01525
   0    1013.0        0.4948        0.0029        1.5267        1.5296       1.034751       0.01333



 Wavenumbers:  5150. -  6150. cm-1, ATM      1
 LEVEL PRESSURE   UPWARD FLUX   DIFDOWN FLUX  DIRDOWN FLUX  DOWNWARD FLUX   NET FLUX    HEATING RATE
          mb          W/m2          W/m2          W/m2        W/m2          W/m2       degree/day
  51    .06700        1.3433        0.0000        9.7841        9.7841       8.440795       0.00000
  50    .07753        1.3433        0.0000        9.7841        9.7841       8.440761       0.02761
  49    .09103        1.3433        0.0000        9.7840        9.7840       8.440716       0.02810
  48    0.1069        1.3433        0.0000        9.7840        9.7840       8.440662       0.02858
  47    0.1255        1.3433        0.0000        9.7839        9.7839       8.440598       0.02902
  46    0.1487        1.3433        0.0000        9.7838        9.7838       8.440514       0.03056
  45    0.1794        1.3433        0.0000        9.7837        9.7837       8.440395       0.03264
  44    0.2165        1.3433        0.0000        9.7835        9.7836       8.440249       0.03325
  43    0.2613        1.3433        0.0000        9.7834        9.7834       8.440070       0.03367
  42    0.3336        1.3433        0.0000        9.7831        9.7831       8.439766       0.03551
  41    0.4307        1.3433        0.0000        9.7826        9.7826       8.439349       0.03627
  40    0.5894        1.3433        0.0000        9.7819        9.7819       8.438652       0.03702
  39     1.339        1.3433        0.0000        9.7785        9.7786       8.435296       0.03779
  38     1.782        1.3433        0.0000        9.7766        9.7766       8.433348       0.03708
  37     2.292        1.3433        0.0001        9.7743        9.7744       8.431135       0.03665
  36     2.964        1.3432        0.0001        9.7715        9.7715       8.428297       0.03562
  35     3.853        1.3432        0.0001        9.7678        9.7679       8.424666       0.03446
  34     5.035        1.3432        0.0001        9.7631        9.7632       8.420043       0.03303
  33     6.613        1.3432        0.0002        9.7572        9.7574       8.414195       0.03126
  32     8.786        1.3431        0.0002        9.7498        9.7500       8.406916       0.02827
  31     11.80        1.3430        0.0003        9.7403        9.7406       8.397558       0.02620
  30     15.07        1.3430        0.0004        9.7313        9.7317       8.388696       0.02288
  29     18.79        1.3429        0.0005        9.7224        9.7229       8.379957       0.01982
  28     23.16        1.3428        0.0006        9.7133        9.7139       8.371130       0.01707
  27     28.12        1.3427        0.0007        9.7045        9.7052       8.362471       0.01472
  26     33.73        1.3426        0.0009        9.6959        9.6968       8.354161       0.01249
  25     40.54        1.3425        0.0010        9.6870        9.6880       8.345572       0.01066
  24     48.69        1.3423        0.0012        9.6777        9.6789       8.336637       0.00925
  23     57.69        1.3421        0.0015        9.6687        9.6702       8.328039       0.00806
  22     68.43        1.3419        0.0017        9.6591        9.6608       8.318897       0.00719
  21     81.20        1.3417        0.0021        9.6483        9.6504       8.308651       0.00677
  20     96.49        1.3414        0.0024        9.6356        9.6380       8.296576       0.00667
  19     114.6        1.3411        0.0029        9.6198        9.6227       8.281552       0.00701
  18     136.5        1.3408        0.0034        9.5972        9.6007       8.259918       0.00832
  17     162.9        1.3403        0.0041        9.5537        9.5578       8.217523       0.01355
  16     196.4        1.3398        0.0049        9.4430        9.4479       8.108125       0.02754
  15     218.7        1.3394        0.0054        9.3121        9.3176       7.978151       0.04935
  14     243.0        1.3391        0.0060        9.0963        9.1022       7.763155       0.07457
  13     269.0        1.3387        0.0064        8.7699        8.7764       7.437665       0.10559
  12     297.5        1.3384        0.0069        8.3579        8.3648       7.026405       0.12198
  11     328.5        1.3382        0.0073        7.8557        7.8630       6.524860       0.13637
  10     361.9        1.3380        0.0077        7.3303        7.3380       5.999969       0.13280
   9     398.1        1.3380        0.0080        6.8243        6.8323       5.494322       0.11780
   8     437.6        1.3382        0.0082        6.3647        6.3729       5.034756       0.09826
   7     480.5        1.3386        0.0085        5.9650        5.9734       4.634850       0.07854
   6     533.0        1.3396        0.0088        5.6156        5.6244       4.284836       0.05631
   5     589.8        1.3413        0.0092        5.3463        5.3555       4.014215       0.04017
   4     651.6        1.3440        0.0097        5.0931        5.1028       3.758802       0.03493
   3     718.7        1.3480        0.0103        4.8408        4.8511       3.503092       0.03214
   2     792.3        1.3533        0.0109        4.6138        4.6247       3.271403       0.02657
   1     891.5        1.3626        0.0117        4.3793        4.3910       3.028453       0.02067
   0    1013.0        1.3797        0.0126        4.1608        4.1734       2.793782       0.01629



 Wavenumbers:  6150. -  7700. cm-1, ATM      1
 LEVEL PRESSURE   UPWARD FLUX   DIFDOWN FLUX  DIRDOWN FLUX  DOWNWARD FLUX   NET FLUX    HEATING RATE
          mb          W/m2          W/m2          W/m2        W/m2          W/m2       degree/day
  51    .06700        1.9453        0.0000       18.0961       18.0961      16.150744       0.00000
  50    .07753        1.9453        0.0000       18.0960       18.0960      16.150692       0.04143
  49    .09103        1.9453        0.0000       18.0959       18.0960      16.150626       0.04173
  48    0.1069        1.9453        0.0000       18.0959       18.0959      16.150547       0.04200
  47    0.1255        1.9453        0.0000       18.0958       18.0958      16.150453       0.04225
  46    0.1487        1.9453        0.0000       18.0956       18.0957      16.150333       0.04408
  45    0.1794        1.9453        0.0000       18.0955       18.0955      16.150163       0.04665
  44    0.2165        1.9453        0.0000       18.0953       18.0953      16.149956       0.04709
  43    0.2613        1.9453        0.0000       18.0950       18.0950      16.149704       0.04736
  42    0.3336        1.9453        0.0000       18.0945       18.0946      16.149279       0.04963
  41    0.4307        1.9453        0.0000       18.0940       18.0940      16.148700       0.05036
  40    0.5894        1.9453        0.0001       18.0930       18.0930      16.147736       0.05122
  39     1.339        1.9452        0.0001       18.0882       18.0883      16.143098       0.05222
  38     1.782        1.9452        0.0002       18.0854       18.0855      16.140392       0.05151
  37     2.292        1.9451        0.0002       18.0822       18.0824      16.137301       0.05119
  36     2.964        1.9450        0.0003       18.0780       18.0783      16.133308       0.05012
  35     3.853        1.9449        0.0004       18.0727       18.0731      16.128146       0.04899
  34     5.035        1.9448        0.0005       18.0658       18.0663      16.121477       0.04764
  33     6.613        1.9447        0.0007       18.0568       18.0576      16.112893       0.04589
  32     8.786        1.9444        0.0009       18.0454       18.0463      16.101905       0.04268
  31     11.80        1.9441        0.0013       18.0301       18.0314      16.087238       0.04106
  30     15.07        1.9438        0.0016       18.0149       18.0165      16.072701       0.03753
  29     18.79        1.9434        0.0020       17.9991       18.0011      16.057665       0.03409
  28     23.16        1.9430        0.0025       17.9822       17.9847      16.041694       0.03088
  27     28.12        1.9425        0.0030       17.9647       17.9677      16.025189       0.02806
  26     33.73        1.9419        0.0036       17.9469       17.9505      16.008599       0.02494
  25     40.54        1.9412        0.0043       17.9277       17.9321      15.990816       0.02206
  24     48.69        1.9404        0.0052       17.9071       17.9123      15.971874       0.01960
  23     57.69        1.9395        0.0062       17.8869       17.8931      15.953559       0.01717
  22     68.43        1.9384        0.0073       17.8655       17.8728      15.934337       0.01511
  21     81.20        1.9372        0.0087       17.8420       17.8506      15.913456       0.01380
  20     96.49        1.9356        0.0103       17.8153       17.8255      15.889893       0.01300
  19     114.6        1.9338        0.0122       17.7836       17.7958      15.861974       0.01304
  18     136.5        1.9317        0.0145       17.7414       17.7559      15.824216       0.01452
  17     162.9        1.9291        0.0172       17.6693       17.6864      15.757323       0.02138
  16     196.4        1.9258        0.0206       17.5109       17.5315      15.605708       0.03816
  15     218.7        1.9237        0.0228       17.3315       17.3543      15.430626       0.06647
  14     243.0        1.9214        0.0251       17.0109       17.0360      15.114535       0.10963
  13     269.0        1.9191        0.0273       16.4536       16.4809      14.561814       0.17930
  12     297.5        1.9167        0.0293       15.7655       15.7948      13.878083       0.20279
  11     328.5        1.9144        0.0312       14.9176       14.9488      13.034411       0.22939
  10     361.9        1.9123        0.0329       13.9572       13.9901      12.077791       0.24203
   9     398.1        1.9104        0.0343       12.9820       13.0163      11.105910       0.22643
   8     437.6        1.9088        0.0354       12.0124       12.0479      10.139049       0.20672
   7     480.5        1.9080        0.0363       11.0555       11.0918       9.183736       0.18762
   6     533.0        1.9084        0.0371       10.0633       10.1005       8.192102       0.15952
   5     589.8        1.9106        0.0379        9.1864        9.2243       7.313696       0.13038
   4     651.6        1.9158        0.0388        8.4022        8.4409       6.525140       0.10784
   3     718.7        1.9245        0.0397        7.7347        7.7744       5.849894       0.08486
   2     792.3        1.9370        0.0408        7.1780        7.2188       5.281831       0.06515
   1     891.5        1.9605        0.0425        6.5878        6.6303       4.669776       0.05208
   0    1013.0        2.0063        0.0442        5.9949        6.0392       4.032859       0.04422



 Wavenumbers:  7700. -  8050. cm-1, ATM      1
 LEVEL PRESSURE   UPWARD FLUX   DIFDOWN FLUX  DIRDOWN FLUX  DOWNWARD FLUX   NET FLUX    HEATING RATE
          mb          W/m2          W/m2          W/m2        W/m2          W/m2       degree/day
  51    .06700        1.0038        0.0000        4.2766        4.2766       3.272860       0.00000
  50    .07753        1.0038        0.0000        4.2766        4.2766       3.272842       0.01471
  49    .09103        1.0038        0.0000        4.2766        4.2766       3.272819       0.01442
  48    0.1069        1.0038        0.0000        4.2766        4.2766       3.272792       0.01411
  47    0.1255        1.0038        0.0000        4.2765        4.2765       3.272762       0.01381
  46    0.1487        1.0038        0.0000        4.2765        4.2765       3.272723       0.01401
  45    0.1794        1.0038        0.0000        4.2764        4.2765       3.272671       0.01442
  44    0.2165        1.0038        0.0000        4.2764        4.2764       3.272608       0.01414
  43    0.2613        1.0038        0.0000        4.2763        4.2763       3.272535       0.01388
  42    0.3336        1.0038        0.0000        4.2762        4.2762       3.272413       0.01420
  41    0.4307        1.0038        0.0000        4.2760        4.2760       3.272252       0.01404
  40    0.5894        1.0038        0.0000        4.2758        4.2758       3.271988       0.01402
  39     1.339        1.0038        0.0001        4.2745        4.2745       3.270741       0.01403
  38     1.782        1.0038        0.0001        4.2737        4.2738       3.270010       0.01393
  37     2.292        1.0038        0.0001        4.2729        4.2730       3.269164       0.01401
  36     2.964        1.0038        0.0001        4.2718        4.2719       3.268054       0.01393
  35     3.853        1.0039        0.0002        4.2703        4.2704       3.266590       0.01389
  34     5.035        1.0039        0.0002        4.2683        4.2685       3.264648       0.01387
  33     6.613        1.0039        0.0003        4.2657        4.2660       3.262061       0.01383
  32     8.786        1.0039        0.0004        4.2622        4.2625       3.258585       0.01350
  31     11.80        1.0040        0.0005        4.2571        4.2576       3.253637       0.01385
  30     15.07        1.0041        0.0006        4.2518        4.2524       3.248355       0.01364
  29     18.79        1.0041        0.0008        4.2458        4.2466       3.242427       0.01344
  28     23.16        1.0042        0.0010        4.2388        4.2398       3.235555       0.01329
  27     28.12        1.0043        0.0012        4.2309        4.2321       3.227764       0.01324
  26     33.73        1.0044        0.0014        4.2221        4.2236       3.219133       0.01298
  25     40.54        1.0046        0.0017        4.2117        4.2134       3.208825       0.01279
  24     48.69        1.0047        0.0021        4.1992        4.2013       3.196569       0.01268
  23     57.69        1.0049        0.0024        4.1858        4.1882       3.183317       0.01242
  22     68.43        1.0051        0.0029        4.1700        4.1729       3.167815       0.01219
  21     81.20        1.0054        0.0034        4.1517        4.1551       3.149728       0.01195
  20     96.49        1.0057        0.0041        4.1304        4.1344       3.128696       0.01161
  19     114.6        1.0061        0.0048        4.1057        4.1105       3.104389       0.01135
  18     136.5        1.0066        0.0057        4.0774        4.0831       3.076512       0.01072
  17     162.9        1.0072        0.0067        4.0449        4.0517       3.044444       0.01025
  16     196.4        1.0080        0.0081        4.0045        4.0126       3.004549       0.01004
  15     218.7        1.0086        0.0089        3.9789        3.9878       2.979262       0.00960
  14     243.0        1.0092        0.0099        3.9518        3.9617       2.952494       0.00928
  13     269.0        1.0099        0.0109        3.9231        3.9340       2.924134       0.00920
  12     297.5        1.0107        0.0120        3.8928        3.9048       2.894079       0.00891
  11     328.5        1.0116        0.0132        3.8605        3.8737       2.862074       0.00870
  10     361.9        1.0127        0.0144        3.8262        3.8406       2.827905       0.00865
   9     398.1        1.0140        0.0158        3.7894        3.8052       2.791176       0.00856
   8     437.6        1.0155        0.0172        3.7498        3.7670       2.751489       0.00849
   7     480.5        1.0173        0.0187        3.7065        3.7252       2.707934       0.00855
   6     533.0        1.0198        0.0206        3.6519        3.6725       2.652626       0.00890
   5     589.8        1.0230        0.0225        3.5908        3.6134       2.590351       0.00924
   4     651.6        1.0270        0.0246        3.5221        3.5467       2.519718       0.00966
   3     718.7        1.0319        0.0268        3.4454        3.4722       2.440236       0.00999
   2     792.3        1.0378        0.0290        3.3610        3.3901       2.352230       0.01009
   1     891.5        1.0469        0.0320        3.2433        3.2753       2.228323       0.01054
   0    1013.0        1.0602        0.0354        3.0916        3.1270       2.066817       0.01121



 Wavenumbers:  8050. - 12850. cm-1, ATM      1
 LEVEL PRESSURE   UPWARD FLUX   DIFDOWN FLUX  DIRDOWN FLUX  DOWNWARD FLUX   NET FLUX    HEATING RATE
          mb          W/m2          W/m2          W/m2        W/m2          W/m2       degree/day
  51    .06700       17.2348        0.0000       59.8761       59.8761      42.641368       0.00000
  50    .07753       17.2347        0.0000       59.8761       59.8761      42.641368      -0.00000
  49    .09103       17.2347        0.0001       59.8760       59.8761      42.641368       0.00000
  48    0.1069       17.2347        0.0001       59.8760       59.8760      42.641368      -0.00000
  47    0.1255       17.2346        0.0001       59.8759       59.8760      42.641368       0.00000
  46    0.1487       17.2346        0.0002       59.8758       59.8760      42.641368       0.00000
  45    0.1794       17.2345        0.0002       59.8757       59.8759      42.641368      -0.00000
  44    0.2165       17.2345        0.0003       59.8755       59.8758      42.641368       0.00000
  43    0.2613       17.2344        0.0004       59.8754       59.8758      42.641368      -0.00000
  42    0.3336       17.2343        0.0006       59.8751       59.8756      42.641368       0.00000
  41    0.4307       17.2341        0.0008       59.8747       59.8755      42.641368       0.00000
  40    0.5894       17.2338        0.0011       59.8741       59.8752      42.641368       0.00000
  39     1.339       17.2324        0.0027       59.8711       59.8738      42.641368       0.00000
  38     1.782       17.2316        0.0037       59.8694       59.8730      42.641368       0.00000
  37     2.292       17.2307        0.0047       59.8673       59.8721      42.641368       0.00000
  36     2.964       17.2295        0.0062       59.8647       59.8709      42.641368      -0.00000
  35     3.853       17.2279        0.0081       59.8612       59.8693      42.641368       0.00000
  34     5.035       17.2258        0.0106       59.8566       59.8671      42.641368       0.00000
  33     6.613       17.2229        0.0139       59.8504       59.8643      42.641368      -0.00000
  32     8.786       17.2191        0.0184       59.8420       59.8605      42.641368       0.00000
  31     11.80       17.2136        0.0249       59.8300       59.8549      42.641368       0.00000
  30     15.07       17.2077        0.0319       59.8172       59.8490      42.641368      -0.00000
  29     18.79       17.2010        0.0397       59.8026       59.8424      42.641368       0.00000
  28     23.16       17.1932        0.0489       59.7856       59.8345      42.641368       0.00000
  27     28.12       17.1842        0.0595       59.7661       59.8256      42.641368      -0.00000
  26     33.73       17.1742        0.0712       59.7443       59.8156      42.641368       0.00000
  25     40.54       17.1621        0.0855       59.7179       59.8034      42.641368       0.00000
  24     48.69       17.1474        0.1027       59.6861       59.7888      42.641368       0.00000
  23     57.69       17.1313        0.1216       59.6511       59.7727      42.641368      -0.00000
  22     68.43       17.1121        0.1442       59.6093       59.7535      42.641368       0.00000
  21     81.20       17.0892        0.1711       59.5595       59.7306      42.641368       0.00000
  20     96.49       17.0619        0.2032       59.5000       59.7032      42.641368       0.00000
  19     114.6       17.0294        0.2413       59.4218       59.6632      42.633737       0.00356
  18     136.5       16.9909        0.2866       59.3271       59.6137      42.622833       0.00419
  17     162.9       16.9450        0.3405       59.2054       59.5459      42.600950       0.00699
  16     196.4       16.8854        0.4105       59.0190       59.4295      42.544137       0.01430
  15     218.7       16.8462        0.4565       58.8649       59.3213      42.475114       0.02621
  14     243.0       16.8037        0.5062       58.6453       59.1515      42.347796       0.04416
  13     269.0       16.7579        0.5598       58.3063       58.8661      42.108219       0.07772
  12     297.5       16.7090        0.6171       57.8509       58.4681      41.759078       0.10355
  11     328.5       16.6570        0.6783       57.2242       57.9025      41.245501       0.13964
  10     361.9       16.6026        0.7430       56.4018       57.1448      40.542231       0.17793
   9     398.1       16.5461        0.8110       55.3846       56.1956      39.649473       0.20799
   8     437.6       16.4887        0.8817       54.1448       55.0264      38.537729       0.23770
   7     480.5       16.4326        0.9541       52.6391       53.5932      37.160593       0.27046
   6     533.0       16.3723        1.0388       50.7275       51.7663      35.394038       0.28418
   5     589.8       16.3199        1.1254       48.6605       49.7859      33.465999       0.28618
   4     651.6       16.2816        1.2132       46.4311       47.6444      31.362763       0.28762
   3     718.7       16.2606        1.3028       44.2200       45.5228      29.262257       0.26398
   2     792.3       16.2594        1.3947       42.1469       43.5416      27.282154       0.22710
   1     891.5       16.3002        1.5120       39.6691       41.1811      24.880892       0.20434
   0    1013.0       16.4507        1.6405       36.9176       38.5581      22.107430       0.19258



 Wavenumbers: 12850. - 16000. cm-1, ATM      1
 LEVEL PRESSURE   UPWARD FLUX   DIFDOWN FLUX  DIRDOWN FLUX  DOWNWARD FLUX   NET FLUX    HEATING RATE
          mb          W/m2          W/m2          W/m2        W/m2          W/m2       degree/day
  51    .06700       20.3262        0.0000       37.5177       37.5177      17.191499       0.00000
  50    .07753       20.3261        0.0001       37.5168       37.5169      17.190727       0.61886
  49    .09103       20.3261        0.0001       37.5158       37.5159      17.189776       0.59439
  48    0.1069       20.3261        0.0002       37.5146       37.5148      17.188708       0.56856
  47    0.1255       20.3260        0.0003       37.5132       37.5135      17.187511       0.54244
  46    0.1487       20.3259        0.0004       37.5116       37.5120      17.186045       0.53446
  45    0.1794       20.3258        0.0005       37.5094       37.5100      17.184119       0.52879
  44    0.2165       20.3257        0.0007       37.5070       37.5077      17.181947       0.49400
  43    0.2613       20.3256        0.0009       37.5042       37.5051      17.179513       0.45877
  42    0.3336       20.3255        0.0013       37.5000       37.5012      17.175774       0.43601
  41    0.4307       20.3253        0.0017       37.4948       37.4965      17.171295       0.38943
  40    0.5894       20.3249        0.0025       37.4873       37.4898      17.164815       0.34456
  39     1.339       20.3242        0.0060       37.4561       37.4621      17.137934       0.30263
  38     1.782       20.3243        0.0081       37.4370       37.4451      17.120798       0.32624
  37     2.292       20.3249        0.0105       37.4123       37.4228      17.097930       0.37875
  36     2.964       20.3264        0.0137       37.3754       37.3891      17.062655       0.44280
  35     3.853       20.3295        0.0179       37.3201       37.3380      17.008465       0.51428
  34     5.035       20.3346        0.0234       37.2404       37.2638      16.929237       0.56597
  33     6.613       20.3420        0.0308       37.1317       37.1625      16.820492       0.58135
  32     8.786       20.3514        0.0407       36.9907       37.0314      16.680043       0.54545
  31     11.80       20.3628        0.0548       36.8057       36.8605      16.497755       0.51035
  30     15.07       20.3727        0.0699       36.6261       36.6960      16.323317       0.45037
  29     18.79       20.3818        0.0869       36.4406       36.5275      16.145687       0.40274
  28     23.16       20.3900        0.1066       36.2436       36.3502      15.960263       0.35855
  27     28.12       20.3965        0.1290       36.0409       36.1699      15.773383       0.31768
  26     33.73       20.3998        0.1541       35.8440       35.9981      15.598237       0.26334
  25     40.54       20.3991        0.1841       35.6400       35.8242      15.425076       0.21483
  24     48.69       20.3937        0.2203       35.4269       35.6471      15.253441       0.17761
  23     57.69       20.3834        0.2598       35.2234       35.4832      15.099761       0.14405
  22     68.43       20.3664        0.3067       35.0126       35.3193      14.952888       0.11546
  21     81.20       20.3397        0.3624       34.8024       35.1648      14.825046       0.08448
  20     96.49       20.3020        0.4286       34.5883       35.0169      14.714892       0.06080
  19     114.6       20.2584        0.5074       34.3469       34.8543      14.595909       0.05556
  18     136.5       20.2040        0.6003       34.0732       34.6735      14.469485       0.04861
  17     162.9       20.1369        0.7103       33.7589       34.4692      14.332268       0.04386
  16     196.4       20.0447        0.8520       33.3782       34.2301      14.185421       0.03696
  15     218.7       19.9824        0.9444       33.1386       34.0831      14.100700       0.03217
  14     243.0       19.9139        1.0444       32.8831       33.9276      14.013654       0.03019
  13     269.0       19.8392        1.1523       32.6098       33.7620      13.922839       0.02946
  12     297.5       19.7581        1.2681       32.3158       33.5839      13.825839       0.02877
  11     328.5       19.6708        1.3926       31.9947       33.3873      13.716436       0.02975
  10     361.9       19.5777        1.5257       31.6417       33.1674      13.589789       0.03204
   9     398.1       19.4786        1.6678       31.2522       32.9200      13.441345       0.03458
   8     437.6       19.3745        1.8190       30.8176       32.6366      13.262132       0.03832
   7     480.5       19.2665        1.9793       30.3258       32.3051      13.038600       0.04390
   6     533.0       19.1396        2.1737       29.6909       31.8646      12.725012       0.05045
   5     589.8       19.0107        2.3788       28.9912       31.3700      12.359291       0.05428
   4     651.6       18.8826        2.5937       28.2287       30.8224      11.939719       0.05738
   3     718.7       18.7567        2.8182       27.4198       30.2379      11.481208       0.05762
   2     792.3       18.6351        3.0517       26.5759       29.6276      10.992528       0.05605
   1     891.5       18.4960        3.3553       25.4522       28.8075      10.311468       0.05795
   0    1013.0       18.3763        3.7009       24.1013       27.8021       9.425810       0.06150



 Wavenumbers: 16000. - 22650. cm-1, ATM      1
 LEVEL PRESSURE   UPWARD FLUX   DIFDOWN FLUX  DIRDOWN FLUX  DOWNWARD FLUX   NET FLUX    HEATING RATE
          mb          W/m2          W/m2          W/m2        W/m2          W/m2       degree/day
  51    .06700       44.2843        0.0000       59.8178       59.8178      15.533522       0.00000
  50    .07753       44.2841        0.0003       59.8172       59.8175      15.533420       0.08219
  49    .09103       44.2839        0.0007       59.8165       59.8171      15.533270       0.09322
  48    0.1069       44.2836        0.0011       59.8156       59.8167      15.533071       0.10630
  47    0.1255       44.2834        0.0016       59.8146       59.8162      15.532803       0.12117
  46    0.1487       44.2830        0.0022       59.8133       59.8154      15.532410       0.14358
  45    0.1794       44.2826        0.0030       59.8114       59.8144      15.531794       0.16905
  44    0.2165       44.2821        0.0040       59.8090       59.8130      15.530959       0.18999
  43    0.2613       44.2815        0.0052       59.8062       59.8113      15.529825       0.21359
  42    0.3336       44.2806        0.0071       59.8012       59.8083      15.527671       0.25117
  41    0.4307       44.2795        0.0097       59.7943       59.8040      15.524424       0.28232
  40    0.5894       44.2779        0.0139       59.7822       59.7961      15.518232       0.32927
  39     1.339       44.2733        0.0338       59.7120       59.7458      15.472511       0.51474
  38     1.782       44.2729        0.0455       59.6610       59.7065      15.433593       0.74093
  37     2.292       44.2746        0.0590       59.5929       59.6519      15.377307       0.93224
  36     2.964       44.2801        0.0767       59.4896       59.5663      15.286238       1.14320
  35     3.853       44.2920        0.1000       59.3340       59.4340      15.142013       1.36872
  34     5.035       44.3124        0.1309       59.1089       59.2399      14.927467       1.53263
  33     6.613       44.3421        0.1721       58.8005       58.9726      14.630535       1.58740
  32     8.786       44.3798        0.2273       58.3988       58.6261      14.246281       1.49230
  31     11.80       44.4251        0.3058       57.8679       58.1737      13.748538       1.39352
  30     15.07       44.4636        0.3895       57.3477       57.7372      13.273588       1.22623
  29     18.79       44.4981        0.4834       56.8055       57.2889      12.790762       1.09472
  28     23.16       44.5280        0.5923       56.2235       56.8158      12.287773       0.97262
  27     28.12       44.5501        0.7158       55.6165       56.3323      11.782236       0.85938
  26     33.73       44.5574        0.8531       55.0160       55.8691      11.311658       0.70753
  25     40.54       44.5461        1.0176       54.3792       55.3969      10.850761       0.57179
  24     48.69       44.5133        1.2143       53.6977       54.9121      10.398757       0.46775
  23     57.69       44.4589        1.4285       53.0311       54.4596      10.000646       0.37317
  22     68.43       44.3747        1.6811       52.3239       54.0050       9.630387       0.29107
  21     81.20       44.2475        1.9793       51.5951       53.5744       9.326936       0.20052
  20     96.49       44.0718        2.3308       50.8320       53.1628       9.090971       0.13024
  19     114.6       43.8534        2.7425       49.9869       52.7294       8.875962       0.10039
  18     136.5       43.5898        3.2225       49.0339       52.2564       8.666594       0.08051
  17     162.9       43.2738        3.7833       47.9498       51.7331       8.459259       0.06627
  16     196.4       42.8558        4.4941       46.6369       51.1310       8.275235       0.04632
  15     218.7       42.5803        4.9512       45.8147       50.7660       8.185633       0.03402
  14     243.0       42.2828        5.4395       44.9465       50.3860       8.103174       0.02860
  13     269.0       41.9630        5.9589       44.0331       49.9919       8.028955       0.02408
  12     297.5       41.6208        6.5089       43.0749       49.5838       7.962993       0.01956
  11     328.5       41.2569        7.0905       42.0651       49.1556       7.898689       0.01748
  10     361.9       40.8721        7.7022       41.0055       48.7077       7.835664       0.01595
   9     398.1       40.4662        8.3442       39.8950       48.2392       7.773048       0.01459
   8     437.6       40.0401        9.0153       38.7333       47.7486       7.708457       0.01381
   7     480.5       39.5948        9.7141       37.5205       47.2346       7.639771       0.01349
   6     533.0       39.0628       10.5462       36.0707       46.6168       7.554082       0.01378
   5     589.8       38.5093       11.4092       34.5582       45.9673       7.458004       0.01426
   4     651.6       37.9376       12.2987       32.9873       45.2860       7.348434       0.01498
   3     718.7       37.3504       13.2095       31.3691       44.5786       7.228183       0.01511
   2     792.3       36.7513       14.1364       29.7129       43.8493       7.098018       0.01493
   1     891.5       35.9915       15.3098       27.5964       42.9062       6.914687       0.01560
   0    1013.0       35.1502       16.6086       25.2215       41.8301       6.679865       0.01630



 Wavenumbers: 22650. - 29000. cm-1, ATM      1
 LEVEL PRESSURE   UPWARD FLUX   DIFDOWN FLUX  DIRDOWN FLUX  DOWNWARD FLUX   NET FLUX    HEATING RATE
          mb          W/m2          W/m2          W/m2        W/m2          W/m2       degree/day
  51    .06700       20.7591        0.0000       22.5731       22.5731       1.813965       0.00000
  50    .07753       20.7589        0.0003       22.5725       22.5728       1.813965       0.00000
  49    .09103       20.7586        0.0008       22.5718       22.5726       1.813965      -0.00000
  48    0.1069       20.7583        0.0013       22.5710       22.5723       1.813965      -0.00000
  47    0.1255       20.7580        0.0018       22.5701       22.5719       1.813965       0.00000
  46    0.1487       20.7575        0.0026       22.5689       22.5715       1.813965       0.00000
  45    0.1794       20.7569        0.0035       22.5674       22.5709       1.813965       0.00000
  44    0.2165       20.7562        0.0047       22.5655       22.5702       1.813965       0.00000
  43    0.2613       20.7554        0.0061       22.5633       22.5693       1.813965       0.00000
  42    0.3336       20.7540        0.0083       22.5596       22.5679       1.813965      -0.00000
  41    0.4307       20.7521        0.0113       22.5548       22.5661       1.813965       0.00000
  40    0.5894       20.7491        0.0163       22.5468       22.5631       1.813965      -0.00000
  39     1.339       20.7348        0.0395       22.5093       22.5488       1.813965       0.00000
  38     1.782       20.7265        0.0532       22.4873       22.5404       1.813965       0.00000
  37     2.292       20.7168        0.0690       22.4618       22.5308       1.813965       0.00000
  36     2.964       20.7041        0.0897       22.4284       22.5181       1.813965       0.00000
  35     3.853       20.6873        0.1170       22.3844       22.5013       1.813965      -0.00000
  34     5.035       20.6651        0.1532       22.3259       22.4791       1.813965       0.00000
  33     6.613       20.6355        0.2014       22.2481       22.4495       1.813965       0.00000
  32     8.786       20.5958        0.2661       22.1436       22.4098       1.813965      -0.00000
  31     11.80       20.5392        0.3582       21.9949       22.3532       1.813965       0.00000
  30     15.07       20.4789        0.4565       21.8363       22.2928       1.813965       0.00000
  29     18.79       20.4112        0.5667       21.6584       22.2251       1.813965       0.00000
  28     23.16       20.3327        0.6943       21.4524       22.1467       1.813965       0.00000
  27     28.12       20.2438        0.8388       21.2190       22.0578       1.813965      -0.00000
  26     33.73       20.1455        0.9986       20.9608       21.9594       1.813965       0.00000
  25     40.54       20.0281        1.1892       20.6529       21.8421       1.813965       0.00000
  24     48.69       19.8888        1.4151       20.2877       21.7028       1.813965      -0.00000
  23     57.69       19.7386        1.6586       19.8939       21.5525       1.813965       0.00000
  22     68.43       19.5633        1.9424       19.4349       21.3773       1.813965       0.00000
  21     81.20       19.3596        2.2716       18.9020       21.1736       1.813965       0.00000
  20     96.49       19.1241        2.6517       18.2863       20.9380       1.813965      -0.00000
  19     114.6       18.8542        3.0862       17.5820       20.6682       1.813965       0.00000
  18     136.5       18.5474        3.5788       16.7826       20.3614       1.813965      -0.00000
  17     162.9       18.1999        4.1349       15.8790       20.0139       1.813965       0.00000
  16     196.4       17.7764        4.8097       14.7806       19.5903       1.813965       0.00000
  15     218.7       17.5141        5.2257       14.1024       19.3281       1.813965       0.00000
  14     243.0       17.2425        5.6548       13.4017       19.0565       1.813965      -0.00000
  13     269.0       16.9628        6.0947       12.6821       18.7768       1.813965      -0.00000
  12     297.5       16.6770        6.5420       11.9490       18.4910       1.813965       0.00000
  11     328.5       16.3857        6.9951       11.2046       18.1997       1.813965      -0.00000
  10     361.9       16.0914        7.4499       10.4555       17.9054       1.813965       0.00000
   9     398.1       15.7955        7.9036        9.7058       17.6094       1.813965       0.00000
   8     437.6       15.4998        8.3529        8.9609       17.3138       1.813965       0.00000
   7     480.5       15.2060        8.7945        8.2255       17.0200       1.813965      -0.00000
   6     533.0       14.8748        9.2858        7.4030       16.6888       1.813965      -0.00000
   5     589.8       14.5508        9.7583        6.6065       16.3648       1.813965       0.00000
   4     651.6       14.2375       10.2058        5.8456       16.0514       1.813965       0.00000
   3     718.7       13.9361       10.6255        5.1246       15.7501       1.813965       0.00000
   2     792.3       13.6497       11.0121        4.4516       15.4637       1.813965      -0.00000
   1     891.5       13.3135       11.4465        3.6810       15.1274       1.813965       0.00000
   0    1013.0       12.9727       11.8581        2.9286       14.7866       1.813965       0.00000



 Wavenumbers: 29000. - 38000. cm-1, ATM      1
 LEVEL PRESSURE   UPWARD FLUX   DIFDOWN FLUX  DIRDOWN FLUX  DOWNWARD FLUX   NET FLUX    HEATING RATE
          mb          W/m2          W/m2          W/m2        W/m2          W/m2       degree/day
  51    .06700        2.7544        0.0000        7.9602        7.9602       5.205751       0.00000
  50    .07753        2.7542        0.0003        7.9559        7.9562       5.201960       3.03854
  49    .09103        2.7539        0.0006        7.9497        7.9504       5.196461       3.43728
  48    0.1069        2.7536        0.0010        7.9417        7.9427       5.189127       3.90365
  47    0.1255        2.7532        0.0015        7.9311        7.9326       5.179371       4.42333
  46    0.1487        2.7527        0.0021        7.9158        7.9178       5.165119       5.19498
  45    0.1794        2.7521        0.0029        7.8924        7.8952       5.143158       6.02878
  44    0.2165        2.7513        0.0038        7.8615        7.8653       5.113998       6.63333
  43    0.2613        2.7505        0.0049        7.8211        7.8260       5.075568       7.24398
  42    0.3336        2.7491        0.0067        7.7483        7.7550       5.005927       8.11940
  41    0.4307        2.7473        0.0089        7.6473        7.6562       4.908978       8.42946
  40    0.5894        2.7445        0.0125        7.4789        7.4915       4.746995       8.61406
  39     1.339        2.7336        0.0272        6.7697        6.7969       4.063331       7.69682
  38     1.782        2.7285        0.0346        6.4617        6.4963       3.767856       5.62536
  37     2.292        2.7234        0.0425        6.1653        6.2079       3.484460       4.69379
  36     2.964        2.7181        0.0522        5.8405        5.8927       3.174624       3.88937
  35     3.853        2.7127        0.0639        5.4960        5.5599       2.847193       3.10738
  34     5.035        2.7074        0.0784        5.1482        5.2266       2.519216       2.34293
  33     6.613        2.7018        0.0964        4.8119        4.9083       2.206488       1.67185
  32     8.786        2.6952        0.1194        4.4930        4.6124       1.917159       1.12365
  31     11.80        2.6861        0.1504        4.1736        4.3240       1.637926       0.78176
  30     15.07        2.6763        0.1818        3.9229        4.1048       1.428494       0.54071
  29     18.79        2.6653        0.2155        3.7028        3.9183       1.252939       0.39804
  28     23.16        2.6526        0.2528        3.4983        3.7511       1.098558       0.29852
  27     28.12        2.6378        0.2934        3.3094        3.6028       0.964993       0.22705
  26     33.73        2.6204        0.3371        3.1386        3.4757       0.855352       0.16485
  25     40.54        2.5981        0.3877        2.9693        3.3570       0.758945       0.11960
  24     48.69        2.5706        0.4460        2.7977        3.2437       0.673170       0.08876
  23     57.69        2.5399        0.5070        2.6366        3.1436       0.603691       0.06513
  22     68.43        2.5033        0.5759        2.4712        3.0471       0.543813       0.04707
  21     81.20        2.4590        0.6539        2.3031        2.9570       0.498003       0.03027
  20     96.49        2.4064        0.7413        2.1297        2.8710       0.464587       0.01844
  19     114.6        2.3474        0.8370        1.9466        2.7836       0.436161       0.01327
  18     136.5        2.2828        0.9401        1.7529        2.6930       0.410201       0.00998
  17     162.9        2.2131        1.0495        1.5498        2.5993       0.386179       0.00768
  16     196.4        2.1321        1.1732        1.3252        2.4984       0.366308       0.00500
  15     218.7        2.0844        1.2444        1.1972        2.4415       0.357110       0.00349
  14     243.0        2.0370        1.3139        1.0721        2.3859       0.348928       0.00284
  13     269.0        1.9905        1.3807        0.9516        2.3323       0.341862       0.00229
  12     297.5        1.9452        1.4441        0.8369        2.2811       0.335862       0.00178
  11     328.5        1.9016        1.5036        0.7284        2.2319       0.330330       0.00150
  10     361.9        1.8601        1.5582        0.6271        2.1853       0.325251       0.00129
   9     398.1        1.8208        1.6078        0.5336        2.1414       0.320596       0.00108
   8     437.6        1.7840        1.6519        0.4484        2.1003       0.316248       0.00093
   7     480.5        1.7498        1.6902        0.3718        2.0620       0.312237       0.00079
   6     533.0        1.7138        1.7269        0.2949        2.0218       0.307983       0.00068
   5     589.8        1.6812        1.7559        0.2293        1.9852       0.303968       0.00060
   4     651.6        1.6518        1.7773        0.1746        1.9520       0.300122       0.00053
   3     718.7        1.6254        1.7917        0.1300        1.9218       0.296420       0.00047
   2     792.3        1.6014        1.7997        0.0946        1.8943       0.292845       0.00041
   1     891.5        1.5743        1.8015        0.0613        1.8628       0.288486       0.00037
   0    1013.0        1.5471        1.7947        0.0362        1.8309       0.283729       0.00033



 Wavenumbers: 38000. - 50000. cm-1, ATM      1
 LEVEL PRESSURE   UPWARD FLUX   DIFDOWN FLUX  DIRDOWN FLUX  DOWNWARD FLUX   NET FLUX    HEATING RATE
          mb          W/m2          W/m2          W/m2        W/m2          W/m2       degree/day
  51    .06700        0.0040        0.0000        0.4910        0.4910       0.486966       0.00000
  50    .07753        0.0040        0.0001        0.4885        0.4886       0.484638       1.86603
  49    .09103        0.0039        0.0002        0.4851        0.4852       0.481330       2.06753
  48    0.1069        0.0038        0.0002        0.4805        0.4808       0.477009       2.30025
  47    0.1255        0.0037        0.0004        0.4747        0.4751       0.471373       2.55491
  46    0.1487        0.0036        0.0005        0.4664        0.4669       0.463310       2.93916
  45    0.1794        0.0034        0.0007        0.4539        0.4546       0.451152       3.33778
  44    0.2165        0.0032        0.0009        0.4378        0.4387       0.435417       3.57928
  43    0.2613        0.0030        0.0011        0.4173        0.4184       0.415321       3.78810
  42    0.3336        0.0027        0.0014        0.3817        0.3831       0.380400       4.07140
  41    0.4307        0.0024        0.0018        0.3355        0.3373       0.334891       3.95694
  40    0.5894        0.0019        0.0022        0.2665        0.2687       0.266807       3.62059
  39     1.339        0.0008        0.0024        0.0834        0.0858       0.084977       2.04707
  38     1.782        0.0005        0.0021        0.0479        0.0500       0.049494       0.67554
  37     2.292        0.0003        0.0017        0.0275        0.0292       0.028865       0.34167
  36     2.964        0.0002        0.0013        0.0145        0.0158       0.015605       0.16645
  35     3.853        0.0001        0.0010        0.0070        0.0080       0.007861       0.07350
  34     5.035        0.0000        0.0007        0.0029        0.0035       0.003505       0.03111
  33     6.613        0.0000        0.0004        0.0009        0.0014       0.001359       0.01147
  32     8.786        0.0000        0.0003        0.0002        0.0005       0.000494       0.00336
  31     11.80        0.0000        0.0001        0.0000        0.0002       0.000174       0.00089
  30     15.07        0.0000        0.0001        0.0000        0.0001       0.000077       0.00025
  29     18.79        0.0000        0.0000        0.0000        0.0000       0.000037       0.00009
  28     23.16        0.0000        0.0000        0.0000        0.0000       0.000018       0.00004
  27     28.12        0.0000        0.0000        0.0000        0.0000       0.000008       0.00002
  26     33.73        0.0000        0.0000        0.0000        0.0000       0.000004       0.00001
  25     40.54        0.0000        0.0000        0.0000        0.0000       0.000002       0.00000
  24     48.69        0.0000        0.0000        0.0000        0.0000       0.000001       0.00000
  23     57.69        0.0000        0.0000        0.0000        0.0000       0.000000       0.00000
  22     68.43        0.0000        0.0000        0.0000        0.0000       0.000000       0.00000
  21     81.20        0.0000        0.0000        0.0000        0.0000       0.000000       0.00000
  20     96.49        0.0000        0.0000        0.0000        0.0000       0.000000       0.00000
  19     114.6        0.0000        0.0000        0.0000        0.0000       0.000000       0.00000
  18     136.5        0.0000        0.0000        0.0000        0.0000       0.000000       0.00000
  17     162.9        0.0000        0.0000        0.0000        0.0000       0.000000       0.00000
  16     196.4        0.0000        0.0000        0.0000        0.0000       0.000000       0.00000
  15     218.7        0.0000        0.0000        0.0000        0.0000       0.000000       0.00000
  14     243.0        0.0000        0.0000        0.0000        0.0000       0.000000       0.00000
  13     269.0        0.0000        0.0000        0.0000        0.0000       0.000000       0.00000
  12     297.5        0.0000        0.0000        0.0000        0.0000       0.000000       0.00000
  11     328.5        0.0000        0.0000        0.0000        0.0000       0.000000       0.00000
  10     361.9        0.0000        0.0000        0.0000        0.0000       0.000000       0.00000
   9     398.1        0.0000        0.0000        0.0000        0.0000       0.000000       0.00000
   8     437.6        0.0000        0.0000        0.0000        0.0000       0.000000       0.00000
   7     480.5        0.0000        0.0000        0.0000        0.0000       0.000000       0.00000
   6     533.0        0.0000        0.0000        0.0000        0.0000       0.000000       0.00000
   5     589.8        0.0000        0.0000        0.0000        0.0000       0.000000       0.00000
   4     651.6        0.0000        0.0000        0.0000        0.0000       0.000000       0.00000
   3     718.7        0.0000        0.0000        0.0000        0.0000       0.000000       0.00000
   2     792.3        0.0000        0.0000        0.0000        0.0000       0.000000       0.00000
   1     891.5        0.0000        0.0000        0.0000        0.0000       0.000000       0.00000
   0    1013.0        0.0000        0.0000        0.0000        0.0000       0.000000       0.00000



 Wavenumbers:   820. -  2600. cm-1, ATM      1
 LEVEL PRESSURE   UPWARD FLUX   DIFDOWN FLUX  DIRDOWN FLUX  DOWNWARD FLUX   NET FLUX    HEATING RATE
          mb          W/m2          W/m2          W/m2        W/m2          W/m2       degree/day
  51    .06700        0.1026        0.0000        2.2967        2.2967       2.194140       0.00000
  50    .07753        0.1026        0.0000        2.2949        2.2949       2.192277       1.49329
  49    .09103        0.1026        0.0000        2.2941        2.2941       2.191539       0.46106
  48    0.1069        0.1026        0.0000        2.2934        2.2934       2.190783       0.40229
  47    0.1255        0.1026        0.0000        2.2926        2.2926       2.190024       0.34417
  46    0.1487        0.1026        0.0000        2.2918        2.2918       2.189199       0.30081
  45    0.1794        0.1026        0.0000        2.2908        2.2908       2.188238       0.26368
  44    0.2165        0.1026        0.0000        2.2898        2.2898       2.187225       0.23052
  43    0.2613        0.1026        0.0000        2.2887        2.2887       2.186081       0.21563
  42    0.3336        0.1026        0.0000        2.2868        2.2868       2.184199       0.21943
  41    0.4307        0.1026        0.0000        2.2843        2.2843       2.181693       0.21789
  40    0.5894        0.1026        0.0000        2.2803        2.2803       2.177659       0.21450
  39     1.339        0.1026        0.0000        2.2624        2.2624       2.159782       0.20126
  38     1.782        0.1026        0.0000        2.2527        2.2527       2.150079       0.18473
  37     2.292        0.1026        0.0000        2.2423        2.2423       2.139705       0.17184
  36     2.964        0.1026        0.0000        2.2298        2.2298       2.127162       0.15745
  35     3.853        0.1026        0.0000        2.2144        2.2144       2.111765       0.14611
  34     5.035        0.1026        0.0000        2.1956        2.1956       2.092960       0.13434
  33     6.613        0.1026        0.0000        2.1737        2.1737       2.071148       0.11660
  32     8.786        0.1026        0.0000        2.1507        2.1507       2.048150       0.08932
  31     11.80        0.1026        0.0000        2.1283        2.1283       2.025683       0.06290
  30     15.07        0.1026        0.0000        2.1117        2.1117       2.009080       0.04286
  29     18.79        0.1026        0.0000        2.0963        2.0963       1.993671       0.03494
  28     23.16        0.1026        0.0000        2.0794        2.0794       1.976836       0.03255
  27     28.12        0.1026        0.0000        2.0607        2.0607       1.958135       0.03179
  26     33.73        0.1026        0.0000        2.0405        2.0405       1.937915       0.03040
  25     40.54        0.1026        0.0000        2.0175        2.0175       1.914891       0.02856
  24     48.69        0.1026        0.0000        1.9916        1.9916       1.889031       0.02676
  23     57.69        0.1026        0.0000        1.9656        1.9656       1.863041       0.02436
  22     68.43        0.1026        0.0000        1.9379        1.9379       1.835255       0.02184
  21     81.20        0.1026        0.0000        1.9088        1.9088       1.806160       0.01923
  20     96.49        0.1026        0.0000        1.8786        1.8786       1.775959       0.01667
  19     114.6        0.1026        0.0000        1.8470        1.8471       1.744447       0.01471
  18     136.5        0.1026        0.0000        1.8127        1.8127       1.710052       0.01323
  17     162.9        0.1026        0.0000        1.7695        1.7695       1.666849       0.01381
  16     196.4        0.1026        0.0000        1.7086        1.7086       1.605947       0.01533
  15     218.7        0.1027        0.0000        1.6700        1.6701       1.567419       0.01463
  14     243.0        0.1027        0.0000        1.6163        1.6163       1.513673       0.01864
  13     269.0        0.1027        0.0000        1.5258        1.5258       1.423138       0.02937
  12     297.5        0.1028        0.0000        1.4002        1.4002       1.297458       0.03728
  11     328.5        0.1029        0.0000        1.2681        1.2682       1.165266       0.03594
  10     361.9        0.1031        0.0000        1.1643        1.1643       1.061222       0.02632
   9     398.1        0.1033        0.0000        1.0895        1.0896       0.986239       0.01747
   8     437.6        0.1037        0.0000        1.0193        1.0193       0.915621       0.01510
   7     480.5        0.1043        0.0000        0.9444        0.9445       0.840152       0.01482
   6     533.0        0.1053        0.0000        0.8606        0.8606       0.755326       0.01365
   5     589.8        0.1068        0.0000        0.7834        0.7834       0.676658       0.01168
   4     651.6        0.1090        0.0000        0.7081        0.7081       0.599137       0.01060
   3     718.7        0.1119        0.0000        0.6350        0.6351       0.523142       0.00955
   2     792.3        0.1155        0.0000        0.5656        0.5656       0.450123       0.00837
   1     891.5        0.1215        0.0000        0.4781        0.4782       0.356664       0.00795
   0    1013.0        0.1321        0.0000        0.3714        0.3715       0.239389       0.00814

  Modules and versions used in this calculation:

       rrtmg_sw.1col.f90:  $Revision$                    rrtmg_sw_init.f90:  $Revision$        
     rrtmgsw_cldprop.f90:  $Revision$                  rrtmgsw_cldprmc.f90:  NOT USED          
     rrtmg_sw_reftra.f90:  $Revision$                  rrtmg_sw_spcvrt.f90:  NOT USED          
     rrtmg_sw_spcvmc.f90:  NOT USED                    rrtmgsw_setcoef.f90:  NOT USED          
     rrtmg_sw_taumol.f90:  $Revision$                  rrtmg_sw_vrtqdr.f90:  NOT USED          
                rrtatm.f:  NOT USED                             util_xxx.f:  NOT USED          
                 extra.f:  NOT USED                       rrtmg_sw_k_g.f90:  $Revision$        

