

 Wavenumbers:   820. - 50000. cm-1, ATM      1
 LEVEL PRESSURE   UPWARD FLUX   DIFDOWN FLUX  DIRDOWN FLUX  DOWNWARD FLUX   NET FLUX    HEATING RATE
          mb          W/m2          W/m2          W/m2        W/m2          W/m2       degree/day
  51    .06700      389.0930        0.0000      617.8126      617.8126     228.719535       0.00000
  50    .07753      389.0927        0.0013      617.7948      617.7962     228.703521      12.83564
  49    .09103      389.0922        0.0030      617.7782      617.7812     228.688979       9.08941
  48    0.1069      389.0917        0.0050      617.7588      617.7638     228.672073       8.99908
  47    0.1255      389.0912        0.0072      617.7352      617.7424     228.651150       9.48521
  46    0.1487      389.0906        0.0100      617.7026      617.7126     228.622005      10.62366
  45    0.1794      389.0899        0.0138      617.6545      617.6684     228.578508      11.94095
  44    0.2165      389.0891        0.0184      617.5928      617.6112     228.522063      12.84038
  43    0.2613      389.0884        0.0237      617.5133      617.5370     228.448616      13.84443
  42    0.3336      389.0875        0.0325      617.3703      617.4029     228.315362      15.53607
  41    0.4307      389.0867        0.0441      617.1679      617.2120     228.125241      16.53061
  40    0.5894      389.0865        0.0628      616.8134      616.8762     227.789726      17.84226
  39     1.339      389.1037        0.1473      614.9754      615.1227     226.018971      19.93549
  38     1.782      389.1269        0.1949      614.0075      614.2024     225.075547      17.96125
  37     2.292      389.1708        0.4457      595.1374      595.5831     206.412351     309.11122
  36     2.964      389.2426        0.5758      592.4799      593.0557     203.813084      32.62865
  35     3.853      389.3563        0.6962      590.5169      591.2131     201.856792      18.56557
  34     5.035      389.5270        0.8323      588.7645      589.5968     200.069750      12.76589
  33     6.613      389.7650        1.0011      587.0823      588.0834     198.318408       9.36268
  32     8.786      390.0732        1.2208      585.3958      586.6166     196.543439       6.89334
  31     11.80      390.4708        1.5294      583.5532      585.0827     194.611828       5.40790
  30     15.07      390.8483        1.8579      581.9518      583.8097     192.961366       4.26117
  29     18.79      391.2309        2.2266      580.3995      582.6260     191.395184       3.55102
  28     23.16      391.6272        2.6550      578.8025      581.4575     189.830317       3.02595
  27     28.12      392.0214        3.1428      577.1706      580.3133     188.291898       2.61521
  26     33.73      392.3765        3.6866      575.5575      579.2441     186.867653       2.14139
  25     40.54      392.7053        4.3419      573.7872      578.1291     185.423768       1.79130
  24     48.69      393.0044        5.1281      571.8666      576.9947     183.990274       1.48344
  23     57.69      393.2386        5.9877      569.9528      575.9405     182.701909       1.20765
  22     68.43      393.4150        7.0060      567.8760      574.8820     181.467031       0.97078
  21     81.20      393.4829        8.2135      565.6559      573.8694     180.386558       0.71396
  20     96.49      393.4317        9.6433      563.2473      572.8906     179.458847       0.51203
  19     114.6      393.3278       11.3252      560.2155      571.5407     178.212964       0.58174
  18     136.5      393.1588       13.2946      556.8520      570.1465     176.987746       0.47113
  17     162.9      392.9175       15.6055      553.0625      568.6681     175.750558       0.39546
  16     196.4      392.5154       18.5533      548.3930      566.9462     174.430811       0.33220
  15     218.7      392.2229       20.4586      545.2618      565.7203     173.497445       0.35436
  14     243.0      391.8932       22.5022      541.9432      564.4454     172.552167       0.32785
  13     269.0      391.5278       24.6858      538.1631      562.8489     171.321091       0.39936
  12     297.5      391.1283       27.0099      533.7811      560.7910     169.662694       0.49186
  11     328.5      390.7047       29.4805      528.6066      558.0871     167.382394       0.62001
  10     361.9      390.2631       32.0942      522.4317      554.5258     164.262747       0.78930
   9     398.1      389.8116       34.8541      515.0784      549.9324     160.120800       0.96498
   8     437.6      389.3655       37.7593      506.4584      544.2177     154.852220       1.12646
   7     480.5      388.9444       40.8076      496.6223      537.4299     148.485441       1.25041
   6     533.0      388.5333       44.4702      484.1298      528.6000     140.066630       1.35432
   5     589.8      388.2569       48.3116      470.6902      519.0018     130.744902       1.38365
   4     651.6      388.2153       52.3218      456.4346      508.7564     120.541141       1.39539
   3     718.7      388.5234       56.4933      441.6823      498.1756     109.652234       1.36843
   2     792.3      389.4121       60.8068      426.2607      487.0675      97.655436       1.37590
   1     891.5      391.8079       66.3884      406.4876      472.8760      81.068075       1.41150
   0    1013.0      397.1987       72.7575      384.9800      457.7375      60.538711       1.42546



 Wavenumbers:  2600. -  3250. cm-1, ATM      1
 LEVEL PRESSURE   UPWARD FLUX   DIFDOWN FLUX  DIRDOWN FLUX  DOWNWARD FLUX   NET FLUX    HEATING RATE
          mb          W/m2          W/m2          W/m2        W/m2          W/m2       degree/day
  51    .06700        1.0572        0.0000        5.4450        5.4450       4.387860       0.00000
  50    .07753        1.0572        0.0000        5.4450        5.4450       4.387852       0.00640
  49    .09103        1.0572        0.0000        5.4450        5.4450       4.387842       0.00627
  48    0.1069        1.0572        0.0000        5.4450        5.4450       4.387830       0.00613
  47    0.1255        1.0572        0.0000        5.4450        5.4450       4.387817       0.00599
  46    0.1487        1.0572        0.0000        5.4450        5.4450       4.387801       0.00608
  45    0.1794        1.0572        0.0000        5.4450        5.4450       4.387778       0.00625
  44    0.2165        1.0572        0.0000        5.4449        5.4449       4.387751       0.00612
  43    0.2613        1.0572        0.0000        5.4449        5.4449       4.387719       0.00600
  42    0.3336        1.0572        0.0000        5.4448        5.4448       4.387666       0.00617
  41    0.4307        1.0572        0.0000        5.4448        5.4448       4.387595       0.00620
  40    0.5894        1.0572        0.0000        5.4446        5.4446       4.387475       0.00637
  39     1.339        1.0572        0.0000        5.4439        5.4439       4.386768       0.00797
  38     1.782        1.0572        0.0000        5.4434        5.4434       4.386225       0.01034
  37     2.292        1.0572        0.0000        5.4427        5.4427       4.385509       0.01186
  36     2.964        1.0572        0.0000        5.4416        5.4416       4.384470       0.01304
  35     3.853        1.0572        0.0000        5.4402        5.4402       4.382993       0.01402
  34     5.035        1.0572        0.0000        5.4381        5.4381       4.380937       0.01468
  33     6.613        1.0572        0.0000        5.4353        5.4353       4.378156       0.01487
  32     8.786        1.0572        0.0000        5.4317        5.4317       4.374524       0.01411
  31     11.80        1.0572        0.0000        5.4269        5.4269       4.369743       0.01338
  30     15.07        1.0572        0.0000        5.4224        5.4224       4.365216       0.01169
  29     18.79        1.0572        0.0000        5.4180        5.4180       4.360804       0.01000
  28     23.16        1.0572        0.0000        5.4135        5.4135       4.356317       0.00868
  27     28.12        1.0572        0.0000        5.4088        5.4088       4.351667       0.00790
  26     33.73        1.0572        0.0000        5.4036        5.4036       4.346424       0.00788
  25     40.54        1.0572        0.0000        5.3966        5.3967       4.339479       0.00862
  24     48.69        1.0572        0.0000        5.3872        5.3872       4.329997       0.00981
  23     57.69        1.0572        0.0000        5.3754        5.3754       4.318204       0.01105
  22     68.43        1.0572        0.0000        5.3599        5.3599       4.302705       0.01218
  21     81.20        1.0572        0.0000        5.3401        5.3401       4.282854       0.01312
  20     96.49        1.0573        0.0000        5.3155        5.3155       4.258263       0.01357
  19     114.6        1.0574        0.0000        5.2584        5.2584       4.200991       0.02674
  18     136.5        1.0577        0.0001        5.2027        5.2027       4.145073       0.02150
  17     162.9        1.0580        0.0001        5.1494        5.1494       4.091443       0.01714
  16     196.4        1.0584        0.0001        5.0924        5.0925       4.034084       0.01444
  15     218.7        1.0588        0.0001        5.0540        5.0541       3.995223       0.01475
  14     243.0        1.0593        0.0001        5.0172        5.0173       3.958023       0.01290
  13     269.0        1.0600        0.0001        4.9731        4.9732       3.913189       0.01454
  12     297.5        1.0610        0.0001        4.9182        4.9183       3.857335       0.01657
  11     328.5        1.0623        0.0001        4.8471        4.8473       3.784949       0.01968
  10     361.9        1.0642        0.0001        4.7522        4.7523       3.688062       0.02451
   9     398.1        1.0669        0.0001        4.6248        4.6250       3.558018       0.03030
   8     437.6        1.0708        0.0002        4.4596        4.4598       3.389006       0.03614
   7     480.5        1.0762        0.0002        4.2559        4.2561       3.179882       0.04107
   6     533.0        1.0853        0.0002        3.9883        3.9885       2.903227       0.04451
   5     589.8        1.0987        0.0002        3.7091        3.7093       2.610626       0.04343
   4     651.6        1.1186        0.0002        3.4175        3.4176       2.299003       0.04262
   3     718.7        1.1480        0.0002        3.1124        3.1126       1.964594       0.04203
   2     792.3        1.1919        0.0002        2.7915        2.7917       1.599786       0.04184
   1     891.5        1.2789        0.0002        2.4004        2.4006       1.121680       0.04068
   0    1013.0        1.4486        0.0002        2.0171        2.0173       0.568652       0.03840



 Wavenumbers:  3250. -  4000. cm-1, ATM      1
 LEVEL PRESSURE   UPWARD FLUX   DIFDOWN FLUX  DIRDOWN FLUX  DOWNWARD FLUX   NET FLUX    HEATING RATE
          mb          W/m2          W/m2          W/m2        W/m2          W/m2       degree/day
  51    .06700        0.0003        0.0000        9.1795        9.1795       9.179254       0.00000
  50    .07753        0.0003        0.0000        9.1747        9.1747       9.174384       3.90287
  49    .09103        0.0003        0.0000        9.1713        9.1713       9.171065       2.07468
  48    0.1069        0.0003        0.0000        9.1689        9.1689       9.168658       1.28112
  47    0.1255        0.0003        0.0000        9.1668        9.1668       9.166538       0.96122
  46    0.1487        0.0003        0.0000        9.1645        9.1645       9.164266       0.82829
  45    0.1794        0.0003        0.0000        9.1619        9.1619       9.161596       0.73288
  44    0.2165        0.0003        0.0000        9.1592        9.1592       9.158907       0.61167
  43    0.2613        0.0003        0.0000        9.1565        9.1565       9.156210       0.50841
  42    0.3336        0.0003        0.0000        9.1528        9.1528       9.152513       0.43101
  41    0.4307        0.0003        0.0000        9.1487        9.1487       9.148415       0.35634
  40    0.5894        0.0003        0.0000        9.1428        9.1428       9.142523       0.31334
  39     1.339        0.0003        0.0000        9.1196        9.1196       9.119341       0.26099
  38     1.782        0.0003        0.0000        9.1090        9.1090       9.108757       0.20149
  37     2.292        0.0003        0.0000        5.2680        5.2680       5.267749      63.61711
  36     2.964        0.0003        0.0000        4.8969        4.8969       4.896579       4.65930
  35     3.853        0.0003        0.0000        4.6981        4.6981       4.697850       1.88598
  34     5.035        0.0003        0.0000        4.5663        4.5663       4.566035       0.94164
  33     6.613        0.0003        0.0000        4.4720        4.4720       4.471667       0.50449
  32     8.786        0.0003        0.0000        4.4020        4.4020       4.401727       0.27162
  31     11.80        0.0003        0.0000        4.3463        4.3463       4.345993       0.15604
  30     15.07        0.0003        0.0000        4.3093        4.3094       4.309063       0.09534
  29     18.79        0.0003        0.0000        4.2815        4.2815       4.281201       0.06317
  28     23.16        0.0003        0.0000        4.2575        4.2576       4.257266       0.04628
  27     28.12        0.0003        0.0000        4.2354        4.2354       4.235111       0.03766
  26     33.73        0.0003        0.0000        4.2145        4.2146       4.214270       0.03133
  25     40.54        0.0003        0.0000        4.1818        4.1818       4.181514       0.04064
  24     48.69        0.0003        0.0000        4.1481        4.1481       4.147821       0.03487
  23     57.69        0.0003        0.0000        4.1162        4.1163       4.116023       0.02981
  22     68.43        0.0003        0.0000        4.0837        4.0838       4.083516       0.02555
  21     81.20        0.0003        0.0001        4.0511        4.0512       4.050901       0.02155
  20     96.49        0.0002        0.0001        4.0177        4.0178       4.017518       0.01843
  19     114.6        0.0002        0.0001        3.9798        3.9799       3.979669       0.01767
  18     136.5        0.0002        0.0001        3.9363        3.9364       3.936140       0.01674
  17     162.9        0.0002        0.0001        3.8867        3.8868       3.886574       0.01584
  16     196.4        0.0002        0.0001        3.8187        3.8188       3.818664       0.01709
  15     218.7        0.0002        0.0001        3.7481        3.7482       3.748046       0.02681
  14     243.0        0.0002        0.0001        3.6724        3.6726       3.672433       0.02622
  13     269.0        0.0001        0.0002        3.5551        3.5553       3.555154       0.03804
  12     297.5        0.0001        0.0002        3.3845        3.3847       3.384533       0.05060
  11     328.5        0.0001        0.0002        3.1574        3.1575       3.157429       0.06175
  10     361.9        0.0001        0.0002        2.8758        2.8760       2.875850       0.07124
   9     398.1        0.0001        0.0002        2.5555        2.5557       2.555560       0.07462
   8     437.6        0.0001        0.0002        2.2091        2.2092       2.209141       0.07407
   7     480.5        0.0001        0.0001        1.8499        1.8501       1.850025       0.07053
   6     533.0        0.0001        0.0001        1.4403        1.4405       1.440414       0.06589
   5     589.8        0.0001        0.0001        1.0459        1.0460       1.045982       0.05855
   4     651.6        0.0001        0.0001        0.6915        0.6915       0.691470       0.04848
   3     718.7        0.0001        0.0001        0.4140        0.4140       0.413927       0.03488
   2     792.3        0.0002        0.0000        0.2058        0.2058       0.205611       0.02389
   1     891.5        0.0006        0.0000        0.0559        0.0559       0.055321       0.01279
   0    1013.0        0.0045        0.0000        0.0062        0.0062       0.001748       0.00372



 Wavenumbers:  4000. -  4650. cm-1, ATM      1
 LEVEL PRESSURE   UPWARD FLUX   DIFDOWN FLUX  DIRDOWN FLUX  DOWNWARD FLUX   NET FLUX    HEATING RATE
          mb          W/m2          W/m2          W/m2        W/m2          W/m2       degree/day
  51    .06700        4.4000        0.0000       10.7795       10.7795       6.379585       0.00000
  50    .07753        4.4000        0.0000       10.7795       10.7795       6.379584       0.00079
  49    .09103        4.4000        0.0000       10.7795       10.7795       6.379583       0.00078
  48    0.1069        4.4000        0.0000       10.7795       10.7795       6.379581       0.00076
  47    0.1255        4.4000        0.0000       10.7795       10.7795       6.379579       0.00074
  46    0.1487        4.4000        0.0000       10.7795       10.7795       6.379577       0.00075
  45    0.1794        4.4000        0.0000       10.7795       10.7795       6.379575       0.00077
  44    0.2165        4.4000        0.0000       10.7795       10.7795       6.379571       0.00076
  43    0.2613        4.4000        0.0000       10.7795       10.7795       6.379567       0.00074
  42    0.3336        4.4000        0.0000       10.7795       10.7795       6.379561       0.00076
  41    0.4307        4.4000        0.0000       10.7795       10.7795       6.379552       0.00077
  40    0.5894        4.4000        0.0000       10.7795       10.7795       6.379537       0.00079
  39     1.339        4.4000        0.0000       10.7794       10.7794       6.379448       0.00100
  38     1.782        4.4000        0.0000       10.7793       10.7793       6.379379       0.00132
  37     2.292        4.3999        0.0000       10.7792       10.7792       6.379285       0.00155
  36     2.964        4.3999        0.0000       10.7791       10.7791       6.379145       0.00175
  35     3.853        4.3999        0.0000       10.7788       10.7789       6.378938       0.00196
  34     5.035        4.3999        0.0000       10.7785       10.7786       6.378633       0.00218
  33     6.613        4.3999        0.0000       10.7781       10.7781       6.378184       0.00240
  32     8.786        4.3999        0.0001       10.7774       10.7774       6.377520       0.00258
  31     11.80        4.3999        0.0001       10.7763       10.7764       6.376478       0.00292
  30     15.07        4.3999        0.0001       10.7751       10.7752       6.375255       0.00316
  29     18.79        4.3999        0.0001       10.7736       10.7737       6.373777       0.00335
  28     23.16        4.3999        0.0001       10.7717       10.7718       6.371942       0.00355
  27     28.12        4.3999        0.0001       10.7695       10.7696       6.369721       0.00378
  26     33.73        4.3999        0.0002       10.7667       10.7669       6.366983       0.00412
  25     40.54        4.3999        0.0002       10.7630       10.7632       6.363271       0.00461
  24     48.69        4.3999        0.0002       10.7580       10.7582       6.358326       0.00512
  23     57.69        4.3999        0.0003       10.7521       10.7524       6.352467       0.00549
  22     68.43        4.3999        0.0003       10.7448       10.7451       6.345128       0.00577
  21     81.20        4.4000        0.0004       10.7357       10.7361       6.336096       0.00597
  20     96.49        4.4001        0.0004       10.7247       10.7252       6.325111       0.00606
  19     114.6        4.4005        0.0005       10.6958       10.6964       6.295847       0.01366
  18     136.5        4.4011        0.0006       10.6680       10.6686       6.267526       0.01089
  17     162.9        4.4018        0.0007       10.6386       10.6394       6.237567       0.00958
  16     196.4        4.4029        0.0009       10.6019       10.6028       6.199836       0.00950
  15     218.7        4.4040        0.0010       10.5737       10.5747       6.170700       0.01106
  14     243.0        4.4052        0.0011       10.5434       10.5445       6.139290       0.01089
  13     269.0        4.4069        0.0012       10.5040       10.5052       6.098305       0.01330
  12     297.5        4.4093        0.0013       10.4511       10.4524       6.043108       0.01637
  11     328.5        4.4126        0.0014       10.3789       10.3804       5.967741       0.02049
  10     361.9        4.4168        0.0016       10.2813       10.2829       5.866033       0.02573
   9     398.1        4.4223        0.0017       10.1537       10.1554       5.733095       0.03097
   8     437.6        4.4294        0.0019        9.9970        9.9989       5.569420       0.03499
   7     480.5        4.4387        0.0020        9.8184        9.8204       5.381671       0.03687
   6     533.0        4.4535        0.0022        9.5905        9.5927       5.139138       0.03902
   5     589.8        4.4752        0.0024        9.3186        9.3210       4.845843       0.04353
   4     651.6        4.5076        0.0026        8.9713        8.9738       4.466229       0.05191
   3     718.7        4.5554        0.0027        8.5610        8.5637       4.008311       0.05755
   2     792.3        4.6271        0.0029        8.1157        8.1186       3.491491       0.05927
   1     891.5        4.7684        0.0031        7.5727        7.5758       2.807401       0.05821
   0    1013.0        5.0368        0.0033        7.0104        7.0137       1.976925       0.05766



 Wavenumbers:  4650. -  5150. cm-1, ATM      1
 LEVEL PRESSURE   UPWARD FLUX   DIFDOWN FLUX  DIRDOWN FLUX  DOWNWARD FLUX   NET FLUX    HEATING RATE
          mb          W/m2          W/m2          W/m2        W/m2          W/m2       degree/day
  51    .06700        3.0660        0.0000       10.2033       10.2033       7.137300       0.00000
  50    .07753        3.0660        0.0000       10.2031       10.2031       7.137064       0.18910
  49    .09103        3.0660        0.0000       10.2028       10.2028       7.136769       0.18437
  48    0.1069        3.0660        0.0000       10.2025       10.2025       7.136432       0.17940
  47    0.1255        3.0660        0.0000       10.2021       10.2021       7.136047       0.17434
  46    0.1487        3.0660        0.0000       10.2016       10.2016       7.135566       0.17545
  45    0.1794        3.0660        0.0000       10.2010       10.2010       7.134915       0.17859
  44    0.2165        3.0660        0.0000       10.2002       10.2002       7.134155       0.17286
  43    0.2613        3.0660        0.0000       10.1993       10.1993       7.133270       0.16699
  42    0.3336        3.0660        0.0000       10.1979       10.1979       7.131836       0.16711
  41    0.4307        3.0660        0.0000       10.1960       10.1960       7.129995       0.16011
  40    0.5894        3.0660        0.0000       10.1932       10.1932       7.127119       0.15291
  39     1.339        3.0660        0.0000       10.1816       10.1816       7.115521       0.13057
  38     1.782        3.0660        0.0000       10.1760       10.1760       7.109989       0.10532
  37     2.292        3.0660        0.0000       10.1705       10.1706       7.104530       0.09043
  36     2.964        3.0660        0.0000       10.1646       10.1646       7.098603       0.07440
  35     3.853        3.0660        0.0000       10.1584       10.1584       7.092384       0.05901
  34     5.035        3.0660        0.0001       10.1520       10.1521       7.086044       0.04529
  33     6.613        3.0660        0.0001       10.1455       10.1456       7.079582       0.03455
  32     8.786        3.0660        0.0001       10.1385       10.1386       7.072565       0.02725
  31     11.80        3.0660        0.0001       10.1294       10.1295       7.063515       0.02534
  30     15.07        3.0660        0.0001       10.1195       10.1196       7.053626       0.02553
  29     18.79        3.0660        0.0001       10.1075       10.1076       7.041605       0.02725
  28     23.16        3.0660        0.0002       10.0921       10.0923       7.026283       0.02963
  27     28.12        3.0660        0.0002       10.0730       10.0732       7.007166       0.03250
  26     33.73        3.0661        0.0002       10.0499       10.0501       6.984044       0.03476
  25     40.54        3.0661        0.0003       10.0199       10.0202       6.954103       0.03714
  24     48.69        3.0662        0.0003        9.9817        9.9820       6.915882       0.03955
  23     57.69        3.0662        0.0004        9.9381        9.9385       6.872285       0.04087
  22     68.43        3.0664        0.0005        9.8854        9.8858       6.819478       0.04151
  21     81.20        3.0666        0.0005        9.8230        9.8235       6.756993       0.04129
  20     96.49        3.0668        0.0006        9.7512        9.7519       6.685060       0.03970
  19     114.6        3.0674        0.0007        9.6648        9.6655       6.598159       0.04058
  18     136.5        3.0681        0.0009        9.5732        9.5741       6.505993       0.03544
  17     162.9        3.0690        0.0010        9.4770        9.4780       6.408993       0.03100
  16     196.4        3.0705        0.0012        9.3663        9.3675       6.297031       0.02818
  15     218.7        3.0718        0.0014        9.2953        9.2966       6.224871       0.02740
  14     243.0        3.0733        0.0015        9.2203        9.2218       6.148523       0.02648
  13     269.0        3.0754        0.0016        9.1344        9.1360       6.060607       0.02852
  12     297.5        3.0782        0.0018        9.0343        9.0361       5.957851       0.03048
  11     328.5        3.0820        0.0020        8.9158        8.9178       5.835794       0.03319
  10     361.9        3.0870        0.0021        8.7739        8.7760       5.689050       0.03713
   9     398.1        3.0937        0.0023        8.6026        8.6049       5.511216       0.04143
   8     437.6        3.1026        0.0025        8.3970        8.3995       5.296962       0.04581
   7     480.5        3.1144        0.0027        8.1536        8.1562       5.041827       0.05011
   6     533.0        3.1331        0.0029        7.8280        7.8309       4.697737       0.05535
   5     589.8        3.1594        0.0031        7.4625        7.4655       4.306168       0.05812
   4     651.6        3.1971        0.0032        7.0647        7.0679       3.870834       0.05953
   3     718.7        3.2501        0.0034        6.6594        6.6628       3.412724       0.05757
   2     792.3        3.3261        0.0036        6.2498        6.2533       2.927292       0.05567
   1     891.5        3.4703        0.0038        5.7389        5.7427       2.272332       0.05573
   0    1013.0        3.7335        0.0040        5.1948        5.1987       1.465226       0.05604



 Wavenumbers:  5150. -  6150. cm-1, ATM      1
 LEVEL PRESSURE   UPWARD FLUX   DIFDOWN FLUX  DIRDOWN FLUX  DOWNWARD FLUX   NET FLUX    HEATING RATE
          mb          W/m2          W/m2          W/m2        W/m2          W/m2       degree/day
  51    .06700        7.9330        0.0000       25.5798       25.5798      17.646799       0.00000
  50    .07753        7.9330        0.0000       25.5798       25.5798      17.646799       0.00021
  49    .09103        7.9330        0.0000       25.5798       25.5798      17.646798       0.00021
  48    0.1069        7.9330        0.0000       25.5798       25.5798      17.646798       0.00020
  47    0.1255        7.9330        0.0000       25.5798       25.5798      17.646797       0.00020
  46    0.1487        7.9330        0.0000       25.5798       25.5798      17.646797       0.00020
  45    0.1794        7.9330        0.0000       25.5798       25.5798      17.646796       0.00021
  44    0.2165        7.9330        0.0000       25.5798       25.5798      17.646795       0.00020
  43    0.2613        7.9330        0.0000       25.5798       25.5798      17.646794       0.00020
  42    0.3336        7.9330        0.0000       25.5798       25.5798      17.646792       0.00020
  41    0.4307        7.9330        0.0000       25.5798       25.5798      17.646790       0.00021
  40    0.5894        7.9330        0.0000       25.5798       25.5798      17.646786       0.00021
  39     1.339        7.9330        0.0000       25.5797       25.5798      17.646762       0.00027
  38     1.782        7.9330        0.0001       25.5797       25.5797      17.646744       0.00036
  37     2.292        7.9353        0.0001       22.1777       22.1778      14.242488      56.38335
  36     2.964        7.9364        0.0001       21.7466       21.7467      13.810339       5.42478
  35     3.853        7.9371        0.0002       21.5186       21.5187      13.581601       2.17077
  34     5.035        7.9377        0.0002       21.3703       21.3705      13.432823       1.06280
  33     6.613        7.9382        0.0002       21.2658       21.2660      13.327867       0.56110
  32     8.786        7.9385        0.0003       21.1892       21.1895      13.250924       0.29882
  31     11.80        7.9389        0.0004       21.1287       21.1291      13.190191       0.17003
  30     15.07        7.9391        0.0005       21.0889       21.0894      13.150311       0.10296
  29     18.79        7.9393        0.0006       21.0593       21.0599      13.120577       0.06742
  28     23.16        7.9395        0.0007       21.0343       21.0349      13.095460       0.04857
  27     28.12        7.9397        0.0008       21.0115       21.0123      13.072655       0.03877
  26     33.73        7.9399        0.0009       20.9905       20.9914      13.051575       0.03169
  25     40.54        7.9402        0.0011       20.9562       20.9573      13.017132       0.04273
  24     48.69        7.9406        0.0013       20.9211       20.9224      12.981816       0.03655
  23     57.69        7.9411        0.0016       20.8883       20.8899      12.948805       0.03094
  22     68.43        7.9416        0.0018       20.8551       20.8569      12.915369       0.02629
  21     81.20        7.9422        0.0021       20.8216       20.8237      12.881564       0.02234
  20     96.49        7.9428        0.0025       20.7875       20.7901      12.847236       0.01895
  19     114.6        7.9436        0.0030       20.7502       20.7532      12.809581       0.01758
  18     136.5        7.9445        0.0035       20.7083       20.7119      12.767333       0.01625
  17     162.9        7.9456        0.0042       20.6628       20.6670      12.721456       0.01466
  16     196.4        7.9469        0.0050       20.6046       20.6097      12.662791       0.01477
  15     218.7        7.9478        0.0056       20.5469       20.5525      12.604709       0.02205
  14     243.0        7.9487        0.0062       20.4841       20.4902      12.541544       0.02191
  13     269.0        7.9498        0.0068       20.3779       20.3847      12.434888       0.03460
  12     297.5        7.9512        0.0075       20.2006       20.2081      12.256848       0.05280
  11     328.5        7.9531        0.0081       19.9184       19.9266      11.973457       0.07705
  10     361.9        7.9556        0.0088       19.4929       19.5017      11.546188       0.10810
   9     398.1        7.9589        0.0095       18.9000       18.9095      10.950582       0.13876
   8     437.6        7.9634        0.0101       18.1482       18.1583      10.194914       0.16157
   7     480.5        7.9697        0.0107       17.2972       17.3079       9.338144       0.16827
   6     533.0        7.9804        0.0113       16.3150       16.3263       8.345891       0.15962
   5     589.8        7.9969        0.0120       15.4374       15.4494       7.452564       0.13260
   4     651.6        8.0229        0.0128       14.6976       14.7104       6.687531       0.10462
   3     718.7        8.0630        0.0136       14.0788       14.0924       6.029375       0.08271
   2     792.3        8.1267        0.0146       13.4757       13.4902       5.363504       0.07637
   1     891.5        8.2626        0.0157       12.6949       12.7106       4.447995       0.07791
   0    1013.0        8.5671        0.0170       11.9114       11.9284       3.361331       0.07545



 Wavenumbers:  6150. -  7700. cm-1, ATM      1
 LEVEL PRESSURE   UPWARD FLUX   DIFDOWN FLUX  DIRDOWN FLUX  DOWNWARD FLUX   NET FLUX    HEATING RATE
          mb          W/m2          W/m2          W/m2        W/m2          W/m2       degree/day
  51    .06700       11.6103        0.0000       47.3109       47.3109      35.700579       0.00000
  50    .07753       11.6103        0.0000       47.3108       47.3108      35.700563       0.01303
  49    .09103       11.6103        0.0000       47.3108       47.3108      35.700543       0.01277
  48    0.1069       11.6103        0.0000       47.3108       47.3108      35.700519       0.01250
  47    0.1255       11.6103        0.0000       47.3108       47.3108      35.700492       0.01223
  46    0.1487       11.6103        0.0000       47.3107       47.3107      35.700458       0.01241
  45    0.1794       11.6103        0.0000       47.3107       47.3107      35.700412       0.01276
  44    0.2165       11.6103        0.0000       47.3106       47.3106      35.700357       0.01252
  43    0.2613       11.6103        0.0000       47.3105       47.3106      35.700291       0.01228
  42    0.3336       11.6103        0.0000       47.3104       47.3104      35.700184       0.01256
  41    0.4307       11.6102        0.0000       47.3102       47.3103      35.700041       0.01242
  40    0.5894       11.6102        0.0001       47.3100       47.3100      35.699808       0.01240
  39     1.339       11.6102        0.0002       47.3087       47.3089      35.698706       0.01240
  38     1.782       11.6101        0.0002       47.3080       47.3082      35.698060       0.01230
  37     2.292       11.6119        0.0004       41.6732       41.6736      30.061747      93.35205
  36     2.964       11.6127        0.0006       41.0026       41.0032      29.390467       8.42659
  35     3.853       11.6133        0.0007       40.6514       40.6521      29.038748       3.33788
  34     5.035       11.6138        0.0008       40.4275       40.4283      28.814560       1.60151
  33     6.613       11.6141        0.0010       40.2726       40.2736      28.659555       0.82865
  32     8.786       11.6142        0.0012       40.1611       40.1624      28.548143       0.43268
  31     11.80       11.6143        0.0016       40.0749       40.0765      28.462263       0.24044
  30     15.07       11.6142        0.0019       40.0194       40.0214      28.407160       0.14227
  29     18.79       11.6141        0.0023       39.9787       39.9810      28.366942       0.09119
  28     23.16       11.6138        0.0028       39.9447       39.9475      28.333633       0.06441
  27     28.12       11.6136        0.0033       39.9142       39.9176      28.303974       0.05042
  26     33.73       11.6133        0.0039       39.8867       39.8906      28.277288       0.04012
  25     40.54       11.6129        0.0046       39.8429       39.8475      28.234593       0.05297
  24     48.69       11.6125        0.0055       39.7993       39.8047      28.192243       0.04382
  23     57.69       11.6120        0.0064       39.7594       39.7658      28.153813       0.03602
  22     68.43       11.6113        0.0075       39.7197       39.7272      28.115860       0.02984
  21     81.20       11.6106        0.0089       39.6799       39.6888      28.078214       0.02488
  20     96.49       11.6096        0.0105       39.6395       39.6500      28.040350       0.02090
  19     114.6       11.6085        0.0124       39.5939       39.6063      27.997781       0.01988
  18     136.5       11.6072        0.0147       39.5409       39.5555      27.948333       0.01901
  17     162.9       11.6057        0.0174       39.4790       39.4963      27.890652       0.01844
  16     196.4       11.6037        0.0208       39.3906       39.4115      27.807810       0.02085
  15     218.7       11.6025        0.0231       39.2917       39.3148      27.712283       0.03627
  14     243.0       11.6013        0.0256       39.1800       39.2056      27.604274       0.03746
  13     269.0       11.6003        0.0282       38.9870       39.0152      27.414934       0.06142
  12     297.5       11.5996        0.0310       38.6630       38.6940      27.094420       0.09506
  11     328.5       11.5995        0.0338       38.1445       38.1784      26.578831       0.14019
  10     361.9       11.6007        0.0367       37.3537       37.3904      25.789719       0.19965
   9     398.1       11.6037        0.0393       36.2290       36.2684      24.664665       0.26211
   8     437.6       11.6099        0.0418       34.7497       34.7915      23.181609       0.31709
   7     480.5       11.6209        0.0439       32.9702       33.0141      21.393224       0.35123
   6     533.0       11.6432        0.0461       30.7382       30.7843      19.141162       0.36229
   5     589.8       11.6820        0.0480       28.4847       28.5328      16.850795       0.33997
   4     651.6       11.7482        0.0498       26.2832       26.3330      14.584792       0.30988
   3     718.7       11.8552        0.0516       24.2466       24.2982      12.442984       0.26917
   2     792.3       12.0289        0.0534       22.3612       22.4147      10.385732       0.23594
   1     891.5       12.4005        0.0558       20.2738       20.3296       7.929068       0.20905
   0    1013.0       13.2006        0.0587       18.3178       18.3765       5.175872       0.19117



 Wavenumbers:  7700. -  8050. cm-1, ATM      1
 LEVEL PRESSURE   UPWARD FLUX   DIFDOWN FLUX  DIRDOWN FLUX  DOWNWARD FLUX   NET FLUX    HEATING RATE
          mb          W/m2          W/m2          W/m2        W/m2          W/m2       degree/day
  51    .06700        6.2904        0.0000       11.1810       11.1810       4.890543       0.00000
  50    .07753        6.2904        0.0000       11.1809       11.1809       4.890522       0.01752
  49    .09103        6.2904        0.0000       11.1809       11.1809       4.890494       0.01717
  48    0.1069        6.2904        0.0000       11.1809       11.1809       4.890462       0.01681
  47    0.1255        6.2904        0.0000       11.1809       11.1809       4.890426       0.01645
  46    0.1487        6.2904        0.0000       11.1808       11.1808       4.890380       0.01669
  45    0.1794        6.2905        0.0000       11.1808       11.1808       4.890318       0.01717
  44    0.2165        6.2905        0.0000       11.1807       11.1807       4.890244       0.01685
  43    0.2613        6.2905        0.0000       11.1806       11.1806       4.890156       0.01653
  42    0.3336        6.2905        0.0000       11.1805       11.1805       4.890011       0.01691
  41    0.4307        6.2905        0.0000       11.1803       11.1804       4.889819       0.01673
  40    0.5894        6.2906        0.0000       11.1801       11.1801       4.889504       0.01671
  39     1.339        6.2909        0.0001       11.1788       11.1789       4.888018       0.01674
  38     1.782        6.2910        0.0001       11.1781       11.1782       4.887144       0.01663
  37     2.292        6.2912        0.0002       11.1771       11.1773       4.886133       0.01674
  36     2.964        6.2914        0.0003       11.1759       11.1762       4.884806       0.01666
  35     3.853        6.2917        0.0004       11.1744       11.1747       4.883053       0.01664
  34     5.035        6.2921        0.0004       11.1724       11.1728       4.880724       0.01664
  33     6.613        6.2926        0.0005       11.1697       11.1703       4.877613       0.01663
  32     8.786        6.2934        0.0007       11.1661       11.1668       4.873423       0.01627
  31     11.80        6.2945        0.0008       11.1611       11.1619       4.867432       0.01677
  30     15.07        6.2956        0.0010       11.1556       11.1566       4.861006       0.01659
  29     18.79        6.2969        0.0012       11.1494       11.1507       4.853753       0.01644
  28     23.16        6.2984        0.0015       11.1423       11.1437       4.845293       0.01636
  27     28.12        6.3002        0.0017       11.1341       11.1358       4.835634       0.01642
  26     33.73        6.3022        0.0021       11.1249       11.1270       4.824845       0.01622
  25     40.54        6.3045        0.0024       11.1140       11.1164       4.811840       0.01613
  24     48.69        6.3074        0.0029       11.1008       11.1036       4.796208       0.01618
  23     57.69        6.3106        0.0034       11.0863       11.0897       4.779095       0.01604
  22     68.43        6.3145        0.0040       11.0693       11.0733       4.758796       0.01596
  21     81.20        6.3191        0.0047       11.0491       11.0538       4.734728       0.01590
  20     96.49        6.3246        0.0055       11.0253       11.0308       4.706215       0.01574
  19     114.6        6.3313        0.0065       10.9972       11.0037       4.672452       0.01577
  18     136.5        6.3392        0.0077       10.9643       10.9720       4.632774       0.01526
  17     162.9        6.3489        0.0091       10.9257       10.9348       4.585976       0.01496
  16     196.4        6.3616        0.0109       10.8766       10.8875       4.525944       0.01511
  15     218.7        6.3701        0.0121       10.8447       10.8569       4.486792       0.01486
  14     243.0        6.3794        0.0134       10.8105       10.8240       4.444531       0.01466
  13     269.0        6.3898        0.0148       10.7738       10.7887       4.398895       0.01480
  12     297.5        6.4012        0.0163       10.7345       10.7509       4.349638       0.01461
  11     328.5        6.4139        0.0180       10.6922       10.7102       4.296300       0.01450
  10     361.9        6.4281        0.0197       10.6468       10.6666       4.238449       0.01464
   9     398.1        6.4441        0.0216       10.5978       10.6194       4.175317       0.01471
   8     437.6        6.4621        0.0237       10.5446       10.5683       4.106133       0.01479
   7     480.5        6.4827        0.0258       10.4866       10.5124       4.029687       0.01501
   6     533.0        6.5101        0.0285       10.4128       10.4413       3.931224       0.01584
   5     589.8        6.5428        0.0314       10.3298       10.3612       3.818399       0.01675
   4     651.6        6.5823        0.0344       10.2351       10.2695       3.687181       0.01794
   3     718.7        6.6306        0.0377       10.1266       10.1643       3.533645       0.01930
   2     792.3        6.6902        0.0411       10.0017       10.0428       3.352565       0.02077
   1     891.5        6.7852        0.0456        9.8195        9.8651       3.079869       0.02321
   0    1013.0        6.9229        0.0509        9.5843        9.6352       2.712303       0.02552



 Wavenumbers:  8050. - 12850. cm-1, ATM      1
 LEVEL PRESSURE   UPWARD FLUX   DIFDOWN FLUX  DIRDOWN FLUX  DOWNWARD FLUX   NET FLUX    HEATING RATE
          mb          W/m2          W/m2          W/m2        W/m2          W/m2       degree/day
  51    .06700       76.0966        0.0000      156.5418      156.5418      80.445167       0.00000
  50    .07753       76.0966        0.0000      156.5417      156.5417      80.445167       0.00000
  49    .09103       76.0966        0.0001      156.5417      156.5417      80.445167       0.00000
  48    0.1069       76.0965        0.0001      156.5416      156.5417      80.445167      -0.00000
  47    0.1255       76.0965        0.0002      156.5415      156.5417      80.445167      -0.00000
  46    0.1487       76.0965        0.0002      156.5414      156.5416      80.445167       0.00000
  45    0.1794       76.0964        0.0003      156.5413      156.5416      80.445167       0.00000
  44    0.2165       76.0964        0.0004      156.5412      156.5416      80.445167       0.00000
  43    0.2613       76.0963        0.0005      156.5410      156.5415      80.445167       0.00000
  42    0.3336       76.0962        0.0007      156.5407      156.5414      80.445167      -0.00000
  41    0.4307       76.0961        0.0010      156.5403      156.5413      80.445167       0.00000
  40    0.5894       76.0959        0.0014      156.5397      156.5411      80.445167       0.00000
  39     1.339       76.0950        0.0034      156.5367      156.5401      80.445167      -0.00000
  38     1.782       76.0944        0.0046      156.5350      156.5396      80.445167       0.00000
  37     2.292       76.0915        0.0107      156.5260      156.5367      80.445167      -0.00000
  36     2.964       76.0900        0.0140      156.5211      156.5351      80.445167      -0.00000
  35     3.853       76.0885        0.0171      156.5165      156.5336      80.445167       0.00000
  34     5.035       76.0868        0.0207      156.5112      156.5319      80.445167      -0.00000
  33     6.613       76.0846        0.0252      156.5046      156.5298      80.445167       0.00000
  32     8.786       76.0819        0.0311      156.4960      156.5271      80.445167       0.00000
  31     11.80       76.0780        0.0393      156.4839      156.5232      80.445167      -0.00000
  30     15.07       76.0738        0.0481      156.4709      156.5190      80.445167       0.00000
  29     18.79       76.0691        0.0580      156.4563      156.5143      80.445167       0.00000
  28     23.16       76.0636        0.0696      156.4392      156.5088      80.445167       0.00000
  27     28.12       76.0574        0.0828      156.4197      156.5025      80.445167      -0.00000
  26     33.73       76.0503        0.0977      156.3979      156.4955      80.445167       0.00000
  25     40.54       76.0418        0.1156      156.3714      156.4870      80.445167       0.00000
  24     48.69       76.0316        0.1373      156.3395      156.4768      80.445167      -0.00000
  23     57.69       76.0203        0.1611      156.3044      156.4655      80.445167       0.00000
  22     68.43       76.0068        0.1895      156.2625      156.4520      80.445167      -0.00000
  21     81.20       75.9908        0.2234      156.2125      156.4359      80.445167       0.00000
  20     96.49       75.9716        0.2639      156.1529      156.4167      80.445167       0.00000
  19     114.6       75.9556        0.3118      155.8251      156.1369      80.181311       0.12320
  18     136.5       75.9348        0.3687      155.5273      155.8960      79.961124       0.08467
  17     162.9       75.9077        0.4366      155.2427      155.6793      79.771542       0.06060
  16     196.4       75.8700        0.5249      154.9126      155.4374      79.567439       0.05138
  15     218.7       75.8448        0.5828      154.6409      155.2237      79.378938       0.07157
  14     243.0       75.8167        0.6459      154.3710      155.0169      79.200162       0.06201
  13     269.0       75.7873        0.7142      153.9994      154.7137      78.926361       0.08882
  12     297.5       75.7574        0.7878      153.4892      154.2770      78.519573       0.12065
  11     328.5       75.7284        0.8669      152.7860      153.6530      77.924572       0.16178
  10     361.9       75.7027        0.9513      151.8173      152.7687      77.066024       0.21722
   9     398.1       75.6839        1.0410      150.5073      151.5482      75.864317       0.27997
   8     437.6       75.6781        1.1356      148.7907      149.9263      74.248184       0.34554
   7     480.5       75.6943        1.2345      146.6027      147.8372      72.142926       0.41346
   6     533.0       75.7570        1.3524      143.4847      144.8372      69.080147       0.49270
   5     589.8       75.8942        1.4750      139.7687      141.2436      65.349453       0.55376
   4     651.6       76.1544        1.6007      135.5001      137.1008      60.946397       0.60213
   3     718.7       76.5937        1.7301      130.8319      132.5620      55.968256       0.62561
   2     792.3       77.3250        1.8608      125.7086      127.5693      50.244346       0.65647
   1     891.5       78.8860        2.0261      118.9819      121.0080      42.121979       0.69117
   0    1013.0       82.0195        2.2146      111.7687      113.9834      31.963821       0.70533



 Wavenumbers: 12850. - 16000. cm-1, ATM      1
 LEVEL PRESSURE   UPWARD FLUX   DIFDOWN FLUX  DIRDOWN FLUX  DOWNWARD FLUX   NET FLUX    HEATING RATE
          mb          W/m2          W/m2          W/m2        W/m2          W/m2       degree/day
  51    .06700       71.1785        0.0000       98.0872       98.0872      26.908786       0.00000
  50    .07753       71.1784        0.0001       98.0864       98.0864      26.907996       0.63293
  49    .09103       71.1784        0.0002       98.0853       98.0854      26.907005       0.61964
  48    0.1069       71.1784        0.0003       98.0841       98.0843      26.905866       0.60607
  47    0.1255       71.1784        0.0004       98.0826       98.0830      26.904559       0.59275
  46    0.1487       71.1784        0.0005       98.0809       98.0814      26.902910       0.60112
  45    0.1794       71.1785        0.0007       98.0784       98.0791      26.900668       0.61547
  44    0.2165       71.1785        0.0009       98.0756       98.0766      26.898033       0.59948
  43    0.2613       71.1786        0.0012       98.0723       98.0735      26.894936       0.58365
  42    0.3336       71.1788        0.0017       98.0670       98.0687      26.889888       0.58857
  41    0.4307       71.1791        0.0023       98.0602       98.0624      26.883368       0.56689
  40    0.5894       71.1797        0.0032       98.0496       98.0528      26.873114       0.54531
  39     1.339       71.1852        0.0079       98.0043       98.0122      26.826975       0.51944
  38     1.782       71.1904        0.0106       97.9793       97.9899      26.799489       0.52330
  37     2.292       71.1942        0.0246       97.9350       97.9596      26.765402       0.56456
  36     2.964       71.2058        0.0322       97.8893       97.9216      26.715711       0.62377
  35     3.853       71.2260        0.0395       97.8284       97.8679      26.641881       0.70066
  34     5.035       71.2570        0.0478       97.7446       97.7924      26.535374       0.76084
  33     6.613       71.3006        0.0580       97.6320       97.6900      26.389381       0.78048
  32     8.786       71.3575        0.0714       97.4859       97.5573      26.199803       0.73625
  31     11.80       71.4316        0.0902       97.2928       97.3830      25.951383       0.69550
  30     15.07       71.5025        0.1102       97.1030       97.2133      25.710810       0.62111
  29     18.79       71.5748        0.1328       96.9046       97.0374      25.462633       0.56270
  28     23.16       71.6502        0.1591       96.6911       96.8501      25.199912       0.50802
  27     28.12       71.7260        0.1891       96.4679       96.6570      24.930989       0.45715
  26     33.73       71.7958        0.2227       96.2475       96.4701      24.674332       0.38589
  25     40.54       71.8627        0.2633       96.0151       96.2783      24.415630       0.32095
  24     48.69       71.9264        0.3122       95.7688       96.0810      24.154550       0.27018
  23     57.69       71.9800        0.3659       95.5315       95.8974      23.917343       0.22235
  22     68.43       72.0261        0.4299       95.2848       95.7147      23.688618       0.17981
  21     81.20       72.0566        0.5063       95.0385       95.5448      23.488208       0.13243
  20     96.49       72.0704        0.5974       94.7894       95.3868      23.316456       0.09480
  19     114.6       72.0890        0.7068       94.5109       95.2176      23.128609       0.08771
  18     136.5       72.1007        0.8364       94.1977       95.0340      22.933372       0.07507
  17     162.9       72.1048        0.9906       93.8371       94.8277      22.722933       0.06726
  16     196.4       72.0897        1.1906       93.3918       94.5825      22.492759       0.05794
  15     218.7       72.0728        1.3220       93.1038       94.4258      22.353047       0.05304
  14     243.0       72.0508        1.4648       92.7933       94.2581      22.207238       0.05057
  13     269.0       72.0242        1.6194       92.4566       94.0760      22.051799       0.05042
  12     297.5       71.9931        1.7865       92.0903       93.8768      21.883646       0.04987
  11     328.5       71.9599        1.9671       91.6881       93.6552      21.695270       0.05122
  10     361.9       71.9258        2.1614       91.2445       93.4060      21.480112       0.05444
   9     398.1       71.8931        2.3705       90.7513       93.1218      21.228671       0.05858
   8     437.6       71.8655        2.5948       90.1963       92.7911      20.925618       0.06479
   7     480.5       71.8481        2.8349       89.5649       92.3998      20.551712       0.07343
   6     533.0       71.8503        3.1294       88.7260       91.8554      20.005062       0.08794
   5     589.8       71.8870        3.4448       87.7477       91.1925      19.305571       0.10383
   4     651.6       71.9744        3.7801       86.6126       90.3927      18.418280       0.12134
   3     718.7       72.1334        4.1349       85.3150       89.4499      17.316545       0.13846
   2     792.3       72.4057        4.5071       83.8352       88.3423      15.936647       0.15826
   1     891.5       72.9765        4.9975       81.7400       86.7375      13.760983       0.18514
   0    1013.0       74.0024        5.5707       79.2090       84.7798      10.777318       0.20717



 Wavenumbers: 16000. - 22650. cm-1, ATM      1
 LEVEL PRESSURE   UPWARD FLUX   DIFDOWN FLUX  DIRDOWN FLUX  DOWNWARD FLUX   NET FLUX    HEATING RATE
          mb          W/m2          W/m2          W/m2        W/m2          W/m2       degree/day
  51    .06700      140.0603        0.0000      156.3892      156.3892      16.328944       0.00000
  50    .07753      140.0603        0.0004      156.3887      156.3891      16.328797       0.11777
  49    .09103      140.0603        0.0009      156.3879      156.3888      16.328584       0.13358
  48    0.1069      140.0602        0.0015      156.3871      156.3885      16.328297       0.15233
  47    0.1255      140.0603        0.0021      156.3861      156.3882      16.327914       0.17363
  46    0.1487      140.0603        0.0029      156.3847      156.3877      16.327350       0.20575
  45    0.1794      140.0604        0.0041      156.3828      156.3869      16.326468       0.24226
  44    0.2165      140.0606        0.0054      156.3805      156.3859      16.325271       0.27227
  43    0.2613      140.0610        0.0070      156.3776      156.3846      16.323647       0.30609
  42    0.3336      140.0617        0.0096      156.3726      156.3823      16.320559       0.35996
  41    0.4307      140.0629        0.0131      156.3657      156.3788      16.315906       0.40463
  40    0.5894      140.0655        0.0188      156.3537      156.3725      16.307030       0.47199
  39     1.339      140.0877        0.0457      156.2834      156.3292      16.241457       0.73823
  38     1.782      140.1083        0.0616      156.2324      156.2939      16.185597       1.06349
  37     2.292      140.1246        0.1432      156.0862      156.2293      16.104743       1.33915
  36     2.964      140.1713        0.1875      155.9576      156.1451      15.973768       1.64413
  35     3.853      140.2520        0.2296      155.7884      156.0180      15.765949       1.97224
  34     5.035      140.3761        0.2776      155.5544      155.8320      15.455907       2.21481
  33     6.613      140.5506        0.3372      155.2385      155.5756      15.025049       2.30337
  32     8.786      140.7784        0.4147      154.8281      155.2428      14.464417       2.17729
  31     11.80      141.0752        0.5237      154.2844      154.8082      13.732958       2.04785
  30     15.07      141.3596        0.6399      153.7491      154.3890      13.029339       1.81661
  29     18.79      141.6500        0.7706      153.1877      153.9582      12.308216       1.63501
  28     23.16      141.9535        0.9228      152.5812      153.5040      11.550524       1.46513
  27     28.12      142.2587        1.0965      151.9444      153.0408      10.782122       1.30623
  26     33.73      142.5403        1.2906      151.3101      152.6007      10.060385       1.08515
  25     40.54      142.8110        1.5250      150.6331      152.1581       9.347072       0.88495
  24     48.69      143.0700        1.8073      149.9036      151.7109       8.640905       0.73077
  23     57.69      143.2891        2.1169      149.1853      151.3022       8.013072       0.58850
  22     68.43      143.4798        2.4853      148.4182      150.9036       7.423720       0.46331
  21     81.20      143.6106        2.9239      147.6228      150.5468       6.936204       0.32214
  20     96.49      143.6769        3.4461      146.7845      150.2305       6.553638       0.21115
  19     114.6      143.7104        4.0642      145.8482      149.9124       6.201986       0.16420
  18     136.5      143.7189        4.7940      144.7809      149.5750       5.856050       0.13302
  17     162.9      143.7007        5.6591      143.5511      149.2102       5.509563       0.11075
  16     196.4      143.6158        6.7753      142.0382      148.8135       5.197647       0.07851
  15     218.7      143.5379        7.5047      141.0766      148.5813       5.043417       0.05856
  14     243.0      143.4426        8.2941      140.0490      148.3431       4.900450       0.04959
  13     269.0      143.3287        9.1458      138.9536      148.0994       4.770620       0.04212
  12     297.5      143.1956       10.0617      137.7882      147.8499       4.654314       0.03450
  11     328.5      143.0472       11.0462      136.5414      147.5876       4.540365       0.03098
  10     361.9      142.8837       12.1002      135.2117      147.3119       4.428226       0.02837
   9     398.1      142.7048       13.2278      133.7931      147.0209       4.316108       0.02612
   8     437.6      142.5119       14.4310      132.2807      146.7117       4.199783       0.02487
   7     480.5      142.3053       15.7120      130.6701      146.3821       4.076846       0.02414
   6     533.0      142.0541       17.2769      128.6987      145.9756       3.921501       0.02499
   5     589.8      141.7909       18.9490      126.5827      145.5317       3.740740       0.02683
   4     651.6      141.5213       20.7297      124.3133      145.0431       3.521812       0.02994
   3     718.7      141.2494       22.6206      121.8851      144.5058       3.256356       0.03336
   2     792.3      140.9885       24.6191      119.2890      143.9081       2.919612       0.03862
   1     891.5      140.6970       27.2708      115.7923      143.0632       2.366159       0.04710
   0    1013.0      140.4239       30.3866      111.6401      142.0267       1.602787       0.05300



 Wavenumbers: 22650. - 29000. cm-1, ATM      1
 LEVEL PRESSURE   UPWARD FLUX   DIFDOWN FLUX  DIRDOWN FLUX  DOWNWARD FLUX   NET FLUX    HEATING RATE
          mb          W/m2          W/m2          W/m2        W/m2          W/m2       degree/day
  51    .06700       58.3822        0.0000       59.0156       59.0156       0.633455       0.00000
  50    .07753       58.3821        0.0005       59.0151       59.0155       0.633455      -0.00000
  49    .09103       58.3820        0.0010       59.0144       59.0154       0.633455       0.00000
  48    0.1069       58.3818        0.0017       59.0136       59.0153       0.633455      -0.00000
  47    0.1255       58.3817        0.0025       59.0127       59.0151       0.633455       0.00000
  46    0.1487       58.3815        0.0034       59.0115       59.0149       0.633455       0.00000
  45    0.1794       58.3812        0.0048       59.0099       59.0147       0.633455      -0.00000
  44    0.2165       58.3809        0.0063       59.0080       59.0144       0.633455       0.00000
  43    0.2613       58.3806        0.0082       59.0058       59.0140       0.633455      -0.00000
  42    0.3336       58.3800        0.0113       59.0022       59.0134       0.633455       0.00000
  41    0.4307       58.3792        0.0153       58.9973       59.0126       0.633455       0.00000
  40    0.5894       58.3779        0.0220       58.9894       59.0113       0.633455      -0.00000
  39     1.339       58.3717        0.0534       58.9518       59.0052       0.633455       0.00000
  38     1.782       58.3681        0.0719       58.9297       59.0016       0.633455       0.00000
  37     2.292       58.3496        0.1671       58.8160       58.9830       0.633455       0.00000
  36     2.964       58.3395        0.2188       58.7542       58.9729       0.633455       0.00000
  35     3.853       58.3299        0.2679       58.6954       58.9634       0.633455       0.00000
  34     5.035       58.3190        0.3240       58.6284       58.9524       0.633455       0.00000
  33     6.613       58.3054        0.3937       58.5451       58.9388       0.633455       0.00000
  32     8.786       58.2877        0.4844       58.4367       58.9211       0.633455      -0.00000
  31     11.80       58.2628        0.6120       58.2842       58.8963       0.633455       0.00000
  30     15.07       58.2363        0.7479       58.1219       58.8698       0.633455       0.00000
  29     18.79       58.2065        0.9006       57.9394       58.8400       0.633455       0.00000
  28     23.16       58.1718        1.0783       57.7270       58.8053       0.633455       0.00000
  27     28.12       58.1323        1.2808       57.4850       58.7658       0.633455      -0.00000
  26     33.73       58.0883        1.5065       57.2152       58.7218       0.633455       0.00000
  25     40.54       58.0353        1.7781       56.8906       58.6687       0.633455       0.00000
  24     48.69       57.9717        2.1037       56.5015       58.6052       0.633455      -0.00000
  23     57.69       57.9023        2.4592       56.0766       58.5358       0.633455       0.00000
  22     68.43       57.8203        2.8794       55.5744       58.4537       0.633455       0.00000
  21     81.20       57.7233        3.3756       54.9812       58.3568       0.633455       0.00000
  20     96.49       57.6090        3.9605       54.2819       58.2425       0.633455      -0.00000
  19     114.6       57.4750        4.6461       53.4623       58.1084       0.633455       0.00000
  18     136.5       57.3185        5.4462       52.5057       57.9519       0.633455      -0.00000
  17     162.9       57.1354        6.3815       51.3873       57.7688       0.633455       0.00000
  16     196.4       56.9032        7.5665       49.9702       57.5367       0.633455      -0.00000
  15     218.7       56.7539        8.3279       49.0595       57.3874       0.633455      -0.00000
  14     243.0       56.5945        9.1408       48.0871       57.2279       0.633455       0.00000
  13     269.0       56.4248       10.0047       47.0536       57.0583       0.633455       0.00000
  12     297.5       56.2452       10.9188       45.9598       56.8786       0.633455       0.00000
  11     328.5       56.0552       11.8846       44.8041       56.6887       0.633455       0.00000
  10     361.9       55.8554       12.8994       43.5895       56.4889       0.633455       0.00000
   9     398.1       55.6457       13.9634       42.3157       56.2791       0.633455       0.00000
   8     437.6       55.4263       15.0747       40.9851       56.0598       0.633455       0.00000
   7     480.5       55.1978       16.2308       39.6005       55.8313       0.633455       0.00000
   6     533.0       54.9255       17.6060       37.9530       55.5590       0.633455       0.00000
   5     589.8       54.6427       19.0315       36.2446       55.2761       0.633455       0.00000
   4     651.6       54.3504       20.5013       34.4826       54.9839       0.633455       0.00000
   3     718.7       54.0498       22.0089       32.6744       54.6833       0.633455      -0.00000
   2     792.3       53.7427       23.5445       30.8317       54.3761       0.633455      -0.00000
   1     891.5       53.3513       25.4935       28.4913       53.9848       0.633455       0.00000
   0    1013.0       52.9143       27.6580       25.8898       53.5478       0.633455      -0.00000



 Wavenumbers: 29000. - 38000. cm-1, ATM      1
 LEVEL PRESSURE   UPWARD FLUX   DIFDOWN FLUX  DIRDOWN FLUX  DOWNWARD FLUX   NET FLUX    HEATING RATE
          mb          W/m2          W/m2          W/m2        W/m2          W/m2       degree/day
  51    .06700        8.7601        0.0000       20.8114       20.8114      12.051289       0.00000
  50    .07753        8.7599        0.0003       20.8070       20.8074      12.047480       3.05309
  49    .09103        8.7597        0.0007       20.8009       20.8016      12.041940       3.46260
  48    0.1069        8.7594        0.0012       20.7928       20.7939      12.034527       3.94629
  47    0.1255        8.7591        0.0017       20.7820       20.7837      12.024617       4.49263
  46    0.1487        8.7588        0.0024       20.7665       20.7688      12.010046       5.31117
  45    0.1794        8.7583        0.0033       20.7424       20.7457      11.987370       6.22527
  44    0.2165        8.7578        0.0044       20.7103       20.7147      11.956831       6.94706
  43    0.2613        8.7573        0.0056       20.6675       20.6731      11.915814       7.73147
  42    0.3336        8.7564        0.0077       20.5880       20.5957      11.839211       8.93117
  41    0.4307        8.7554        0.0104       20.4722       20.4826      11.727194       9.73964
  40    0.5894        8.7540        0.0147       20.2637       20.2784      11.524384      10.78517
  39     1.339        8.7516        0.0331       19.0984       19.1315      10.379861      12.88525
  38     1.782        8.7532        0.0427       18.4394       18.4821       9.728848      12.39425
  37     2.292        8.7325        0.0947       17.7062       17.8009       9.068338      10.93976
  36     2.964        8.7322        0.1183       16.9606       17.0790       8.346732       9.05833
  35     3.853        8.7418        0.1379       16.1822       16.3201       7.578310       7.29246
  34     5.035        8.7612        0.1587       15.3953       15.5540       6.792815       5.61125
  33     6.613        8.7908        0.1836       14.6333       14.8169       6.026084       4.09895
  32     8.786        8.8307        0.2159       13.9142       14.1301       5.299431       2.82206
  31     11.80        8.8831        0.2607       13.2085       13.4691       4.586032       1.99729
  30     15.07        8.9337        0.3078       12.6669       12.9748       4.041060       1.40701
  29     18.79        8.9861        0.3600       12.1973       12.5573       3.571192       1.06534
  28     23.16        9.0417        0.4199       11.7635       12.1834       3.141665       0.83057
  27     28.12        9.0988        0.4873       11.3639       11.8512       2.752452       0.66164
  26     33.73        9.1514        0.5618       11.0078       11.5696       2.418210       0.50254
  25     40.54        9.2013        0.6511       10.6613       11.3125       2.111206       0.38087
  24     48.69        9.2483        0.7573       10.3167       11.0741       1.825730       0.29542
  23     57.69        9.2869        0.8725        9.9994       10.8718       1.584882       0.22576
  22     68.43        9.3181        1.0077        9.6791       10.6868       1.368665       0.16998
  21     81.20        9.3329        1.1676        9.3616       10.5292       1.196256       0.11393
  20     96.49        9.3294        1.3557        9.0388       10.3944       1.065014       0.07244
  19     114.6        9.3157        1.5731        8.6908       10.2639       0.948194       0.05455
  18     136.5        9.2946        1.8217        8.3091       10.1308       0.836105       0.04310
  17     162.9        9.2664        2.1051        7.8877        9.9928       0.726361       0.03508
  16     196.4        9.2190        2.4569        7.3918        9.8487       0.629728       0.02432
  15     218.7        9.1849        2.6778        7.0897        9.7675       0.582621       0.01789
  14     243.0        9.1475        2.9086        6.7780        9.6867       0.539123       0.01509
  13     269.0        9.1067        3.1487        6.4581        9.6068       0.500067       0.01267
  12     297.5        9.0625        3.3968        6.1313        9.5282       0.465638       0.01021
  11     328.5        9.0164        3.6521        5.7969        9.4490       0.432678       0.00896
  10     361.9        8.9686        3.9126        5.4574        9.3699       0.401322       0.00793
   9     398.1        8.9195        4.1765        5.1146        9.2911       0.371620       0.00692
   8     437.6        8.8696        4.4430        4.7696        9.2126       0.342990       0.00612
   7     480.5        8.8191        4.7100        4.4250        9.1350       0.315813       0.00534
   6     533.0        8.7612        5.0142        4.0332        9.0474       0.286194       0.00476
   5     589.8        8.7040        5.3142        3.6474        8.9615       0.257520       0.00426
   4     651.6        8.6484        5.6069        3.2710        8.8778       0.229468       0.00384
   3     718.7        8.5950        5.8894        2.9075        8.7969       0.201995       0.00345
   2     792.3        8.5444        6.1595        2.5600        8.7195       0.175107       0.00308
   1     891.5        8.4862        6.4763        2.1519        8.6281       0.141915       0.00282
   0    1013.0        8.4303        6.7934        1.7421        8.5355       0.105266       0.00254



 Wavenumbers: 38000. - 50000. cm-1, ATM      1
 LEVEL PRESSURE   UPWARD FLUX   DIFDOWN FLUX  DIRDOWN FLUX  DOWNWARD FLUX   NET FLUX    HEATING RATE
          mb          W/m2          W/m2          W/m2        W/m2          W/m2       degree/day
  51    .06700        0.0076        0.0000        1.2836        1.2836       1.276005       0.00000
  50    .07753        0.0076        0.0001        1.2812        1.2812       1.273669       1.87256
  49    .09103        0.0075        0.0002        1.2777        1.2778       1.270335       2.08357
  48    0.1069        0.0074        0.0002        1.2731        1.2734       1.265955       2.33176
  47    0.1255        0.0073        0.0004        1.2672        1.2675       1.260197       2.61031
  46    0.1487        0.0072        0.0005        1.2586        1.2591       1.251867       3.03636
  45    0.1794        0.0071        0.0007        1.2455        1.2462       1.239093       3.50672
  44    0.2165        0.0069        0.0009        1.2282        1.2291       1.222160       3.85201
  43    0.2613        0.0067        0.0011        1.2054        1.2065       1.199802       4.21437
  42    0.3336        0.0064        0.0015        1.1639        1.1654       1.158961       4.76172
  41    0.4307        0.0061        0.0020        1.1051        1.1071       1.100976       5.04165
  40    0.5894        0.0056        0.0026        1.0039        1.0064       1.000886       5.32265
  39     1.339        0.0043        0.0035        0.5438        0.5473       0.543064       5.15425
  38     1.782        0.0042        0.0032        0.3635        0.3667       0.362484       3.43795
  37     2.292        0.0017        0.0047        0.2317        0.2364       0.234606       2.11799
  36     2.964        0.0010        0.0039        0.1422        0.1461       0.145075       1.12389
  35     3.853        0.0006        0.0028        0.0837        0.0865       0.085866       0.56191
  34     5.035        0.0004        0.0020        0.0475        0.0495       0.049102       0.26262
  33     6.613        0.0003        0.0014        0.0265        0.0279       0.027639       0.11474
  32     8.786        0.0002        0.0009        0.0140        0.0149       0.014757       0.05003
  31     11.80        0.0001        0.0006        0.0064        0.0069       0.006829       0.02220
  30     15.07        0.0000        0.0003        0.0030        0.0033       0.003297       0.00912
  29     18.79        0.0000        0.0002        0.0014        0.0016       0.001570       0.00392
  28     23.16        0.0000        0.0001        0.0006        0.0007       0.000715       0.00165
  27     28.12        0.0000        0.0001        0.0003        0.0003       0.000315       0.00068
  26     33.73        0.0000        0.0000        0.0001        0.0001       0.000139       0.00027
  25     40.54        0.0000        0.0000        0.0000        0.0001       0.000057       0.00010
  24     48.69        0.0000        0.0000        0.0000        0.0000       0.000021       0.00004
  23     57.69        0.0000        0.0000        0.0000        0.0000       0.000008       0.00001
  22     68.43        0.0000        0.0000        0.0000        0.0000       0.000003       0.00000
  21     81.20        0.0000        0.0000        0.0000        0.0000       0.000001       0.00000
  20     96.49        0.0000        0.0000        0.0000        0.0000       0.000000       0.00000
  19     114.6        0.0000        0.0000        0.0000        0.0000       0.000000       0.00000
  18     136.5        0.0000        0.0000        0.0000        0.0000       0.000000       0.00000
  17     162.9        0.0000        0.0000        0.0000        0.0000       0.000000       0.00000
  16     196.4        0.0000        0.0000        0.0000        0.0000       0.000000       0.00000
  15     218.7        0.0000        0.0000        0.0000        0.0000       0.000000       0.00000
  14     243.0        0.0000        0.0000        0.0000        0.0000       0.000000       0.00000
  13     269.0        0.0000        0.0000        0.0000        0.0000       0.000000       0.00000
  12     297.5        0.0000        0.0000        0.0000        0.0000       0.000000       0.00000
  11     328.5        0.0000        0.0000        0.0000        0.0000       0.000000       0.00000
  10     361.9        0.0000        0.0000        0.0000        0.0000       0.000000       0.00000
   9     398.1        0.0000        0.0000        0.0000        0.0000       0.000000       0.00000
   8     437.6        0.0000        0.0000        0.0000        0.0000       0.000000       0.00000
   7     480.5        0.0000        0.0000        0.0000        0.0000       0.000000       0.00000
   6     533.0        0.0000        0.0000        0.0000        0.0000       0.000000       0.00000
   5     589.8        0.0000        0.0000        0.0000        0.0000       0.000000       0.00000
   4     651.6        0.0000        0.0000        0.0000        0.0000       0.000000       0.00000
   3     718.7        0.0000        0.0000        0.0000        0.0000       0.000000       0.00000
   2     792.3        0.0000        0.0000        0.0000        0.0000       0.000000       0.00000
   1     891.5        0.0000        0.0000        0.0000        0.0000       0.000000       0.00000
   0    1013.0        0.0000        0.0000        0.0000        0.0000       0.000000       0.00000



 Wavenumbers:   820. -  2600. cm-1, ATM      1
 LEVEL PRESSURE   UPWARD FLUX   DIFDOWN FLUX  DIRDOWN FLUX  DOWNWARD FLUX   NET FLUX    HEATING RATE
          mb          W/m2          W/m2          W/m2        W/m2          W/m2       degree/day
  51    .06700        0.2507        0.0000        6.0047        6.0047       5.753968       0.00000
  50    .07753        0.2507        0.0000        6.0009        6.0009       5.750189       3.02937
  49    .09103        0.2507        0.0000        6.0001        6.0001       5.749399       0.49378
  48    0.1069        0.2507        0.0000        5.9992        5.9992       5.748524       0.46572
  47    0.1255        0.2507        0.0000        5.9982        5.9982       5.747543       0.44470
  46    0.1487        0.2507        0.0000        5.9970        5.9970       5.746365       0.42941
  45    0.1794        0.2507        0.0000        5.9956        5.9956       5.744898       0.40259
  44    0.2165        0.2507        0.0000        5.9940        5.9940       5.743366       0.34860
  43    0.2613        0.2507        0.0000        5.9925        5.9925       5.741786       0.29770
  42    0.3336        0.2507        0.0000        5.9902        5.9902       5.739557       0.25991
  41    0.4307        0.2507        0.0000        5.9877        5.9877       5.736969       0.22503
  40    0.5894        0.2507        0.0000        5.9836        5.9836       5.732937       0.21442
  39     1.339        0.2507        0.0000        5.9651        5.9651       5.714427       0.20839
  38     1.782        0.2507        0.0000        5.9549        5.9549       5.704210       0.19451
  37     2.292        0.3148        0.0000        1.1480        1.1480       0.833199      80.67666
  36     2.964        0.3388        0.0000        1.0476        1.0476       0.708766       1.56200
  35     3.853        0.3519        0.0000        1.0025        1.0025       0.650597       0.55204
  34     5.035        0.3596        0.0000        0.9778        0.9778       0.618173       0.23162
  33     6.613        0.3644        0.0000        0.9634        0.9634       0.599009       0.10245
  32     8.786        0.3673        0.0000        0.9549        0.9549       0.587582       0.04438
  31     11.80        0.3691        0.0000        0.9495        0.9495       0.580388       0.02014
  30     15.07        0.3701        0.0000        0.9467        0.9467       0.576600       0.00978
  29     18.79        0.3707        0.0000        0.9450        0.9450       0.574293       0.00523
  28     23.16        0.3711        0.0000        0.9438        0.9438       0.572684       0.00311
  27     28.12        0.3714        0.0000        0.9429        0.9429       0.571470       0.00206
  26     33.73        0.3717        0.0000        0.9422        0.9422       0.570535       0.00141
  25     40.54        0.3720        0.0000        0.9413        0.9413       0.569249       0.00160
  24     48.69        0.3723        0.0000        0.9405        0.9405       0.568151       0.00114
  23     57.69        0.3725        0.0000        0.9398        0.9398       0.567289       0.00081
  22     68.43        0.3727        0.0000        0.9393        0.9393       0.566551       0.00058
  21     81.20        0.3729        0.0000        0.9388        0.9388       0.565916       0.00042
  20     96.49        0.3730        0.0000        0.9384        0.9384       0.565363       0.00031
  19     114.6        0.3731        0.0000        0.9381        0.9381       0.564926       0.00020
  18     136.5        0.3733        0.0000        0.9377        0.9377       0.564469       0.00018
  17     162.9        0.3734        0.0000        0.9374        0.9374       0.564042       0.00014
  16     196.4        0.3735        0.0000        0.9371        0.9371       0.563620       0.00011
  15     218.7        0.3736        0.0000        0.9369        0.9369       0.563343       0.00011
  14     243.0        0.3736        0.0000        0.9367        0.9367       0.563120       0.00008
  13     269.0        0.3737        0.0000        0.9365        0.9365       0.562817       0.00010
  12     297.5        0.3738        0.0000        0.9362        0.9362       0.562334       0.00014
  11     328.5        0.3740        0.0000        0.9356        0.9356       0.561554       0.00021
  10     361.9        0.3744        0.0000        0.9346        0.9346       0.560257       0.00033
   9     398.1        0.3749        0.0000        0.9331        0.9331       0.558175       0.00048
   8     437.6        0.3758        0.0000        0.9308        0.9308       0.555005       0.00068
   7     480.5        0.3771        0.0000        0.9273        0.9273       0.550227       0.00094
   6     533.0        0.3794        0.0000        0.9209        0.9209       0.541478       0.00141
   5     589.8        0.3832        0.0000        0.9110        0.9110       0.527785       0.00203
   4     651.6        0.3896        0.0000        0.8943        0.8943       0.504690       0.00316
   3     718.7        0.3996        0.0000        0.8697        0.8697       0.470065       0.00435
   2     792.3        0.4147        0.0000        0.8350        0.8350       0.420288       0.00571
   1     891.5        0.4441        0.0000        0.7740        0.7741       0.329916       0.00769
   0    1013.0        0.4942        0.0000        0.6882        0.6882       0.194007       0.00944

  Modules and versions used in this calculation:

       rrtmg_sw.1col.f90:  $Revision$                    rrtmg_sw_init.f90:  $Revision$        
     rrtmgsw_cldprop.f90:  $Revision$                  rrtmgsw_cldprmc.f90:  NOT USED          
     rrtmg_sw_reftra.f90:  $Revision$                  rrtmg_sw_spcvrt.f90:  NOT USED          
     rrtmg_sw_spcvmc.f90:  NOT USED                    rrtmgsw_setcoef.f90:  NOT USED          
     rrtmg_sw_taumol.f90:  $Revision$                  rrtmg_sw_vrtqdr.f90:  NOT USED          
                rrtatm.f:  NOT USED                             util_xxx.f:  NOT USED          
                 extra.f:  NOT USED                       rrtmg_sw_k_g.f90:  $Revision$        

