

 Wavenumbers:   820. - 50000. cm-1, ATM      1
 LEVEL PRESSURE   UPWARD FLUX   DIFDOWN FLUX  DIRDOWN FLUX  DOWNWARD FLUX   NET FLUX    HEATING RATE
          mb          W/m2          W/m2          W/m2        W/m2          W/m2       degree/day
  51    .06700      408.5469        0.0000      617.8126      617.8126     209.265668       0.00000
  50    .07753      408.5465        0.0013      617.7948      617.7962     209.249655      12.83533
  49    .09103      408.5461        0.0030      617.7782      617.7812     209.235113       9.08924
  48    0.1069      408.5456        0.0050      617.7588      617.7638     209.218207       8.99907
  47    0.1255      408.5451        0.0072      617.7352      617.7424     209.197284       9.48538
  46    0.1487      408.5445        0.0100      617.7026      617.7126     209.168138      10.62404
  45    0.1794      408.5438        0.0139      617.6546      617.6684     209.124639      11.94156
  44    0.2165      408.5431        0.0184      617.5928      617.6112     209.068189      12.84122
  43    0.2613      408.5423        0.0238      617.5133      617.5371     208.994737      13.84551
  42    0.3336      408.5415        0.0326      617.3704      617.4030     208.861471      15.53747
  41    0.4307      408.5408        0.0442      617.1679      617.2121     208.671331      16.53228
  40    0.5894      408.5406        0.0629      616.8135      616.8764     208.335778      17.84426
  39     1.339      408.5583        0.1477      614.9755      615.1231     206.564799      19.93800
  38     1.782      408.5817        0.1953      614.0077      614.2030     205.621370      17.96138
  37     2.292      408.6682        0.3285      599.0017      599.3302     190.661980     247.76652
  36     2.964      408.7556        0.4230      596.7743      597.1973     188.441665      27.87166
  35     3.853      408.8801        0.5268      595.0246      595.5514     186.671248      16.80158
  34     5.035      409.0606        0.6545      593.4076      594.0621     185.001452      11.92833
  33     6.613      409.3090        0.8192      591.8192      592.6384     183.329411       8.93873
  32     8.786      409.6291        1.0376      590.2000      591.2376     181.608427       6.68368
  31     11.80      410.0416        1.3467      588.4077      589.7544     179.712831       5.30707
  30     15.07      410.4331        1.6766      586.8374      588.5139     178.080893       4.21335
  29     18.79      410.8299        2.0471      585.3063      587.3534     176.523548       3.53098
  28     23.16      411.2413        2.4778      583.7254      586.2032     174.961863       3.01979
  27     28.12      411.6511        2.9680      582.1063      585.0743     173.423220       2.61559
  26     33.73      412.0211        3.5145      580.5035      584.0180     171.996978       2.14439
  25     40.54      412.3651        4.1727      578.7526      582.9253     170.560193       1.78249
  24     48.69      412.6799        4.9626      576.8509      581.8134     169.133576       1.47632
  23     57.69      412.9286        5.8260      574.9541      580.7801     167.851518       1.20174
  22     68.43      413.1195        6.8488      572.8932      579.7420     166.622490       0.96618
  21     81.20      413.2009        8.0616      570.6875      578.7491     165.548274       0.70983
  20     96.49      413.1622        9.4976      568.2924      577.7901     164.627867       0.50800
  19     114.6      413.0644       11.1868      565.4528      576.6396     163.575162       0.49154
  18     136.5      412.9034       13.1647      562.2413      575.4061     162.502677       0.41240
  17     162.9      412.6725       15.4859      558.5767      574.0626     161.390139       0.35561
  16     196.4      412.2843       18.4467      554.0399      572.4865     160.202239       0.29901
  15     218.7      412.0010       20.3605      551.0403      571.4007     159.399697       0.30470
  14     243.0      411.6820       22.4133      547.8491      570.2625     158.580439       0.28415
  13     269.0      411.3278       24.6068      544.2814      568.8882     157.560392       0.33090
  12     297.5      410.9399       26.9417      540.2410      567.1827     156.242855       0.39077
  11     328.5      410.5279       29.4241      535.5981      565.0222     154.494318       0.47542
  10     361.9      410.0974       32.0501      530.2195      562.2696     152.172246       0.58751
   9     398.1      409.6551       34.8244      523.9484      558.7729     149.117745       0.71163
   8     437.6      409.2141       37.7458      516.6523      554.3981     145.183954       0.84107
   7     480.5      408.7910       40.8120      508.2803      549.0924     140.301366       0.95892
   6     533.0      408.3624       44.4977      497.4813      541.9791     133.616650       1.07536
   5     589.8      408.0468       48.3645      485.6268      533.9912     125.944481       1.13880
   4     651.6      407.9349       52.4049      472.8674      525.2724     117.337478       1.17703
   3     718.7      408.1289       56.6107      459.6108      516.2215     108.092614       1.16182
   2     792.3      408.8231       60.9648      445.9055      506.8703      98.047239       1.15209
   1     891.5      410.7750       66.6116      428.3909      495.0026      84.227530       1.17599
   0    1013.0      415.2327       73.0686      408.9048      481.9734      66.740674       1.21420



 Wavenumbers:  2600. -  3250. cm-1, ATM      1
 LEVEL PRESSURE   UPWARD FLUX   DIFDOWN FLUX  DIRDOWN FLUX  DOWNWARD FLUX   NET FLUX    HEATING RATE
          mb          W/m2          W/m2          W/m2        W/m2          W/m2       degree/day
  51    .06700        1.5037        0.0000        5.4450        5.4450       3.941293       0.00000
  50    .07753        1.5037        0.0000        5.4450        5.4450       3.941285       0.00640
  49    .09103        1.5037        0.0000        5.4450        5.4450       3.941275       0.00627
  48    0.1069        1.5037        0.0000        5.4450        5.4450       3.941264       0.00613
  47    0.1255        1.5037        0.0000        5.4450        5.4450       3.941250       0.00599
  46    0.1487        1.5037        0.0000        5.4450        5.4450       3.941234       0.00608
  45    0.1794        1.5037        0.0000        5.4450        5.4450       3.941211       0.00625
  44    0.2165        1.5037        0.0000        5.4449        5.4449       3.941184       0.00612
  43    0.2613        1.5037        0.0000        5.4449        5.4449       3.941152       0.00600
  42    0.3336        1.5037        0.0000        5.4448        5.4448       3.941099       0.00617
  41    0.4307        1.5037        0.0000        5.4448        5.4448       3.941028       0.00620
  40    0.5894        1.5037        0.0000        5.4446        5.4446       3.940908       0.00637
  39     1.339        1.5037        0.0000        5.4439        5.4439       3.940201       0.00797
  38     1.782        1.5037        0.0000        5.4434        5.4434       3.939658       0.01034
  37     2.292        1.5037        0.0000        5.4427        5.4427       3.938942       0.01186
  36     2.964        1.5037        0.0000        5.4416        5.4416       3.937903       0.01304
  35     3.853        1.5037        0.0000        5.4402        5.4402       3.936426       0.01402
  34     5.035        1.5037        0.0000        5.4381        5.4381       3.934370       0.01468
  33     6.613        1.5037        0.0000        5.4353        5.4353       3.931589       0.01487
  32     8.786        1.5037        0.0000        5.4317        5.4317       3.927956       0.01411
  31     11.80        1.5037        0.0000        5.4269        5.4269       3.923175       0.01339
  30     15.07        1.5037        0.0000        5.4224        5.4224       3.918647       0.01169
  29     18.79        1.5037        0.0000        5.4180        5.4180       3.914232       0.01001
  28     23.16        1.5037        0.0000        5.4135        5.4135       3.909743       0.00868
  27     28.12        1.5038        0.0000        5.4088        5.4088       3.905090       0.00791
  26     33.73        1.5038        0.0000        5.4036        5.4036       3.899842       0.00789
  25     40.54        1.5038        0.0000        5.3966        5.3967       3.892890       0.00863
  24     48.69        1.5038        0.0000        5.3872        5.3872       3.883395       0.00983
  23     57.69        1.5038        0.0000        5.3754        5.3754       3.871587       0.01107
  22     68.43        1.5039        0.0000        5.3599        5.3599       3.856064       0.01220
  21     81.20        1.5039        0.0000        5.3401        5.3401       3.836180       0.01314
  20     96.49        1.5040        0.0000        5.3155        5.3155       3.811541       0.01360
  19     114.6        1.5042        0.0001        5.2727        5.2727       3.768476       0.02011
  18     136.5        1.5046        0.0001        5.2276        5.2276       3.723060       0.01746
  17     162.9        1.5050        0.0001        5.1815        5.1816       3.676591       0.01485
  16     196.4        1.5056        0.0001        5.1303        5.1304       3.624723       0.01306
  15     218.7        1.5062        0.0001        5.0969        5.0970       3.590746       0.01290
  14     243.0        1.5069        0.0001        5.0645        5.0646       3.557709       0.01146
  13     269.0        1.5078        0.0001        5.0282        5.0283       3.520494       0.01207
  12     297.5        1.5091        0.0001        4.9862        4.9864       3.477279       0.01282
  11     328.5        1.5108        0.0001        4.9363        4.9364       3.425577       0.01406
  10     361.9        1.5132        0.0001        4.8743        4.8744       3.361203       0.01629
   9     398.1        1.5165        0.0002        4.7943        4.7944       3.277910       0.01941
   8     437.6        1.5211        0.0002        4.6896        4.6898       3.168637       0.02336
   7     480.5        1.5275        0.0002        4.5547        4.5549       3.027358       0.02775
   6     533.0        1.5380        0.0002        4.3602        4.3604       2.822431       0.03297
   5     589.8        1.5533        0.0002        4.1330        4.1332       2.579898       0.03600
   4     651.6        1.5759        0.0002        3.8818        3.8820       2.306072       0.03745
   3     718.7        1.6089        0.0002        3.6238        3.6241       2.015135       0.03656
   2     792.3        1.6565        0.0002        3.3645        3.3647       1.708235       0.03520
   1     891.5        1.7475        0.0002        3.0335        3.0338       1.286287       0.03591
   0    1013.0        1.9190        0.0003        2.6720        2.6723       0.753298       0.03701



 Wavenumbers:  3250. -  4000. cm-1, ATM      1
 LEVEL PRESSURE   UPWARD FLUX   DIFDOWN FLUX  DIRDOWN FLUX  DOWNWARD FLUX   NET FLUX    HEATING RATE
          mb          W/m2          W/m2          W/m2        W/m2          W/m2       degree/day
  51    .06700        0.0175        0.0000        9.1795        9.1795       9.162023       0.00000
  50    .07753        0.0175        0.0000        9.1747        9.1747       9.157153       3.90285
  49    .09103        0.0175        0.0000        9.1713        9.1713       9.153834       2.07466
  48    0.1069        0.0175        0.0000        9.1689        9.1689       9.151427       1.28111
  47    0.1255        0.0175        0.0000        9.1668        9.1668       9.149307       0.96121
  46    0.1487        0.0175        0.0000        9.1645        9.1645       9.147035       0.82828
  45    0.1794        0.0175        0.0000        9.1619        9.1619       9.144365       0.73288
  44    0.2165        0.0175        0.0000        9.1592        9.1592       9.141676       0.61167
  43    0.2613        0.0175        0.0000        9.1565        9.1565       9.138979       0.50840
  42    0.3336        0.0175        0.0000        9.1528        9.1528       9.135282       0.43101
  41    0.4307        0.0175        0.0000        9.1487        9.1487       9.131184       0.35634
  40    0.5894        0.0175        0.0000        9.1428        9.1428       9.125292       0.31334
  39     1.339        0.0175        0.0000        9.1196        9.1196       9.102110       0.26099
  38     1.782        0.0175        0.0000        9.1090        9.1090       9.091526       0.20149
  37     2.292        0.0175        0.0000        6.2382        6.2382       6.220654      47.54913
  36     2.964        0.0176        0.0000        5.8665        5.8665       5.848960       4.66589
  35     3.853        0.0176        0.0000        5.6756        5.6756       5.658007       1.81218
  34     5.035        0.0176        0.0000        5.5538        5.5538       5.536197       0.87015
  33     6.613        0.0176        0.0000        5.4684        5.4684       5.450840       0.45632
  32     8.786        0.0176        0.0000        5.4056        5.4056       5.388017       0.24398
  31     11.80        0.0176        0.0000        5.3551        5.3551       5.337545       0.14131
  30     15.07        0.0176        0.0000        5.3208        5.3209       5.303262       0.08851
  29     18.79        0.0176        0.0000        5.2938        5.2938       5.276223       0.06131
  28     23.16        0.0176        0.0000        5.2692        5.2692       5.251633       0.04755
  27     28.12        0.0176        0.0000        5.2450        5.2450       5.227435       0.04114
  26     33.73        0.0176        0.0000        5.2210        5.2210       5.203413       0.03612
  25     40.54        0.0176        0.0000        5.1845        5.1845       5.166915       0.04528
  24     48.69        0.0176        0.0000        5.1467        5.1468       5.129179       0.03905
  23     57.69        0.0176        0.0000        5.1110        5.1111       5.093517       0.03343
  22     68.43        0.0176        0.0001        5.0739        5.0739       5.056365       0.02921
  21     81.20        0.0176        0.0001        5.0355        5.0356       5.018043       0.02532
  20     96.49        0.0176        0.0001        4.9959        4.9960       4.978462       0.02185
  19     114.6        0.0175        0.0001        4.9514        4.9515       4.933912       0.02080
  18     136.5        0.0175        0.0001        4.9006        4.9007       4.883151       0.01952
  17     162.9        0.0175        0.0001        4.8427        4.8429       4.825352       0.01847
  16     196.4        0.0175        0.0002        4.7652        4.7654       4.747887       0.01950
  15     218.7        0.0175        0.0002        4.6888        4.6890       4.671474       0.02901
  14     243.0        0.0175        0.0002        4.6064        4.6066       4.589082       0.02858
  13     269.0        0.0175        0.0002        4.4802        4.4804       4.462897       0.04093
  12     297.5        0.0175        0.0002        4.2969        4.2971       4.279657       0.05435
  11     328.5        0.0175        0.0002        4.0489        4.0491       4.031622       0.06744
  10     361.9        0.0176        0.0002        3.7394        3.7396       3.722051       0.07832
   9     398.1        0.0177        0.0002        3.3823        3.3825       3.364867       0.08322
   8     437.6        0.0178        0.0002        2.9977        2.9979       2.980052       0.08228
   7     480.5        0.0182        0.0002        2.6032        2.6034       2.585265       0.07753
   6     533.0        0.0188        0.0002        2.1626        2.1628       2.143975       0.07099
   5     589.8        0.0200        0.0002        1.7434        1.7436       1.723631       0.06239
   4     651.6        0.0221        0.0001        1.3457        1.3459       1.323805       0.05468
   3     718.7        0.0258        0.0001        0.9833        0.9834       0.957598       0.04602
   2     792.3        0.0328        0.0001        0.6717        0.6718       0.638931       0.03655
   1     891.5        0.0520        0.0001        0.3761        0.3762       0.324167       0.02678
   0    1013.0        0.1131        0.0000        0.1575        0.1575       0.044398       0.01943



 Wavenumbers:  4000. -  4650. cm-1, ATM      1
 LEVEL PRESSURE   UPWARD FLUX   DIFDOWN FLUX  DIRDOWN FLUX  DOWNWARD FLUX   NET FLUX    HEATING RATE
          mb          W/m2          W/m2          W/m2        W/m2          W/m2       degree/day
  51    .06700        5.1180        0.0000       10.7795       10.7795       5.661586       0.00000
  50    .07753        5.1180        0.0000       10.7795       10.7795       5.661585       0.00080
  49    .09103        5.1180        0.0000       10.7795       10.7795       5.661584       0.00079
  48    0.1069        5.1180        0.0000       10.7795       10.7795       5.661583       0.00077
  47    0.1255        5.1180        0.0000       10.7795       10.7795       5.661581       0.00075
  46    0.1487        5.1180        0.0000       10.7795       10.7795       5.661579       0.00076
  45    0.1794        5.1180        0.0000       10.7795       10.7795       5.661576       0.00078
  44    0.2165        5.1180        0.0000       10.7795       10.7795       5.661573       0.00077
  43    0.2613        5.1180        0.0000       10.7795       10.7795       5.661569       0.00075
  42    0.3336        5.1180        0.0000       10.7795       10.7795       5.661562       0.00077
  41    0.4307        5.1180        0.0000       10.7795       10.7795       5.661553       0.00078
  40    0.5894        5.1180        0.0000       10.7795       10.7795       5.661538       0.00080
  39     1.339        5.1180        0.0000       10.7794       10.7794       5.661448       0.00101
  38     1.782        5.1180        0.0000       10.7793       10.7793       5.661378       0.00134
  37     2.292        5.1180        0.0000       10.7792       10.7792       5.661283       0.00157
  36     2.964        5.1179        0.0000       10.7791       10.7791       5.661142       0.00177
  35     3.853        5.1179        0.0000       10.7789       10.7789       5.660932       0.00199
  34     5.035        5.1179        0.0000       10.7785       10.7786       5.660624       0.00221
  33     6.613        5.1179        0.0000       10.7781       10.7781       5.660169       0.00243
  32     8.786        5.1179        0.0000       10.7774       10.7774       5.659498       0.00261
  31     11.80        5.1179        0.0001       10.7763       10.7764       5.658443       0.00295
  30     15.07        5.1179        0.0001       10.7751       10.7751       5.657205       0.00320
  29     18.79        5.1179        0.0001       10.7735       10.7736       5.655707       0.00340
  28     23.16        5.1179        0.0001       10.7717       10.7718       5.653847       0.00360
  27     28.12        5.1179        0.0001       10.7694       10.7695       5.651594       0.00383
  26     33.73        5.1179        0.0002       10.7666       10.7668       5.648815       0.00418
  25     40.54        5.1180        0.0002       10.7628       10.7630       5.645042       0.00468
  24     48.69        5.1180        0.0002       10.7578       10.7580       5.640012       0.00521
  23     57.69        5.1181        0.0003       10.7518       10.7521       5.634043       0.00559
  22     68.43        5.1181        0.0003       10.7444       10.7447       5.626556       0.00589
  21     81.20        5.1183        0.0004       10.7352       10.7356       5.617327       0.00610
  20     96.49        5.1185        0.0005       10.7241       10.7246       5.606082       0.00621
  19     114.6        5.1190        0.0005       10.7034       10.7040       5.584936       0.00987
  18     136.5        5.1198        0.0006       10.6809       10.6815       5.561746       0.00892
  17     162.9        5.1208        0.0008       10.6556       10.6563       5.535578       0.00836
  16     196.4        5.1223        0.0009       10.6233       10.6242       5.501910       0.00847
  15     218.7        5.1235        0.0010       10.5995       10.6005       5.476957       0.00947
  14     243.0        5.1250        0.0011       10.5739       10.5750       5.449961       0.00936
  13     269.0        5.1271        0.0012       10.5426       10.5438       5.416740       0.01078
  12     297.5        5.1298        0.0014       10.5040       10.5054       5.375544       0.01222
  11     328.5        5.1336        0.0015       10.4555       10.4570       5.323421       0.01417
  10     361.9        5.1386        0.0016       10.3930       10.3946       5.256026       0.01705
   9     398.1        5.1454        0.0018       10.3105       10.3123       5.166926       0.02076
   8     437.6        5.1539        0.0020       10.2030       10.2049       5.051042       0.02478
   7     480.5        5.1646        0.0021       10.0678       10.0699       4.905333       0.02862
   6     533.0        5.1808        0.0023        9.8838        9.8861       4.705323       0.03218
   5     589.8        5.2030        0.0025        9.6785        9.6811       4.478071       0.03373
   4     651.6        5.2342        0.0028        9.4489        9.4516       4.217444       0.03564
   3     718.7        5.2780        0.0030        9.1832        9.1862       3.908226       0.03886
   2     792.3        5.3410        0.0032        8.8653        8.8685       3.527468       0.04367
   1     891.5        5.4615        0.0035        8.4174        8.4209       2.959382       0.04834
   0    1013.0        5.6909        0.0038        7.9208        7.9246       2.233654       0.05039



 Wavenumbers:  4650. -  5150. cm-1, ATM      1
 LEVEL PRESSURE   UPWARD FLUX   DIFDOWN FLUX  DIRDOWN FLUX  DOWNWARD FLUX   NET FLUX    HEATING RATE
          mb          W/m2          W/m2          W/m2        W/m2          W/m2       degree/day
  51    .06700        3.5372        0.0000       10.2033       10.2033       6.666180       0.00000
  50    .07753        3.5372        0.0000       10.2031       10.2031       6.665945       0.18807
  49    .09103        3.5372        0.0000       10.2028       10.2028       6.665652       0.18337
  48    0.1069        3.5372        0.0000       10.2025       10.2025       6.665316       0.17842
  47    0.1255        3.5372        0.0000       10.2021       10.2021       6.664934       0.17340
  46    0.1487        3.5372        0.0000       10.2016       10.2016       6.664455       0.17450
  45    0.1794        3.5372        0.0000       10.2010       10.2010       6.663808       0.17763
  44    0.2165        3.5372        0.0000       10.2002       10.2002       6.663052       0.17193
  43    0.2613        3.5372        0.0000       10.1993       10.1993       6.662171       0.16609
  42    0.3336        3.5372        0.0000       10.1979       10.1979       6.660746       0.16621
  41    0.4307        3.5372        0.0000       10.1961       10.1961       6.658914       0.15925
  40    0.5894        3.5372        0.0000       10.1932       10.1932       6.656054       0.15210
  39     1.339        3.5372        0.0000       10.1817       10.1817       6.644516       0.12989
  38     1.782        3.5372        0.0000       10.1762       10.1762       6.639013       0.10478
  37     2.292        3.5372        0.0000       10.1707       10.1707       6.633581       0.08997
  36     2.964        3.5371        0.0000       10.1648       10.1648       6.627684       0.07403
  35     3.853        3.5371        0.0000       10.1586       10.1586       6.621495       0.05873
  34     5.035        3.5371        0.0000       10.1523       10.1523       6.615183       0.04509
  33     6.613        3.5371        0.0001       10.1458       10.1459       6.608747       0.03441
  32     8.786        3.5371        0.0001       10.1388       10.1389       6.601753       0.02716
  31     11.80        3.5371        0.0001       10.1298       10.1299       6.592729       0.02526
  30     15.07        3.5372        0.0001       10.1199       10.1200       6.582864       0.02547
  29     18.79        3.5372        0.0001       10.1079       10.1080       6.570870       0.02719
  28     23.16        3.5372        0.0002       10.0926       10.0928       6.555579       0.02957
  27     28.12        3.5373        0.0002       10.0736       10.0738       6.536499       0.03244
  26     33.73        3.5373        0.0002       10.0505       10.0507       6.513417       0.03470
  25     40.54        3.5374        0.0003       10.0207       10.0209       6.483523       0.03709
  24     48.69        3.5376        0.0003        9.9826        9.9829       6.445354       0.03950
  23     57.69        3.5378        0.0004        9.9392        9.9396       6.401803       0.04082
  22     68.43        3.5380        0.0005        9.8866        9.8871       6.349035       0.04148
  21     81.20        3.5384        0.0005        9.8244        9.8250       6.286566       0.04128
  20     96.49        3.5389        0.0006        9.7529        9.7535       6.214603       0.03972
  19     114.6        3.5398        0.0008        9.6706        9.6714       6.131629       0.03874
  18     136.5        3.5409        0.0009        9.5826        9.5835       6.042601       0.03423
  17     162.9        3.5425        0.0010        9.4895        9.4905       5.948063       0.03022
  16     196.4        3.5448        0.0013        9.3823        9.3836       5.838741       0.02752
  15     218.7        3.5467        0.0014        9.3156        9.3170       5.770274       0.02599
  14     243.0        3.5490        0.0015        9.2453        9.2468       5.697818       0.02513
  13     269.0        3.5520        0.0017        9.1679        9.1696       5.617614       0.02602
  12     297.5        3.5558        0.0018        9.0802        9.0820       5.526199       0.02711
  11     328.5        3.5609        0.0020        8.9784        8.9804       5.419504       0.02901
  10     361.9        3.5676        0.0022        8.8590        8.8612       5.293593       0.03186
   9     398.1        3.5762        0.0024        8.7193        8.7217       5.145476       0.03451
   8     437.6        3.5874        0.0026        8.5547        8.5572       4.969800       0.03756
   7     480.5        3.6020        0.0028        8.3632        8.3660       4.763919       0.04043
   6     533.0        3.6243        0.0030        8.1077        8.1107       4.486353       0.04465
   5     589.8        3.6545        0.0033        7.8160        7.8193       4.164762       0.04773
   4     651.6        3.6959        0.0035        7.4915        7.4950       3.799044       0.05001
   3     718.7        3.7525        0.0037        7.1466        7.1503       3.397788       0.05043
   2     792.3        3.8304        0.0039        6.7901        6.7940       2.963638       0.04979
   1     891.5        3.9710        0.0042        6.3440        6.3482       2.377226       0.04990
   0    1013.0        4.2136        0.0045        5.8628        5.8673       1.653641       0.05024



 Wavenumbers:  5150. -  6150. cm-1, ATM      1
 LEVEL PRESSURE   UPWARD FLUX   DIFDOWN FLUX  DIRDOWN FLUX  DOWNWARD FLUX   NET FLUX    HEATING RATE
          mb          W/m2          W/m2          W/m2        W/m2          W/m2       degree/day
  51    .06700        8.8328        0.0000       25.5798       25.5798      16.747066       0.00000
  50    .07753        8.8328        0.0000       25.5798       25.5798      16.747066       0.00023
  49    .09103        8.8328        0.0000       25.5798       25.5798      16.747065       0.00022
  48    0.1069        8.8328        0.0000       25.5798       25.5798      16.747065       0.00022
  47    0.1255        8.8328        0.0000       25.5798       25.5798      16.747064       0.00021
  46    0.1487        8.8328        0.0000       25.5798       25.5798      16.747064       0.00022
  45    0.1794        8.8328        0.0000       25.5798       25.5798      16.747063       0.00022
  44    0.2165        8.8328        0.0000       25.5798       25.5798      16.747062       0.00022
  43    0.2613        8.8328        0.0000       25.5798       25.5798      16.747061       0.00021
  42    0.3336        8.8328        0.0000       25.5798       25.5798      16.747059       0.00022
  41    0.4307        8.8328        0.0000       25.5798       25.5798      16.747056       0.00022
  40    0.5894        8.8327        0.0000       25.5798       25.5798      16.747052       0.00023
  39     1.339        8.8327        0.0000       25.5797       25.5798      16.747026       0.00029
  38     1.782        8.8327        0.0001       25.5797       25.5797      16.747006       0.00038
  37     2.292        8.8351        0.0001       23.1477       23.1478      14.312678      40.31882
  36     2.964        8.8362        0.0001       22.8424       22.8425      14.006341       3.84546
  35     3.853        8.8369        0.0001       22.6732       22.6733      13.836361       1.61314
  34     5.035        8.8375        0.0002       22.5624       22.5626      13.725083       0.79492
  33     6.613        8.8379        0.0002       22.4847       22.4849      13.647008       0.41739
  32     8.786        8.8383        0.0003       22.4284       22.4287      13.590426       0.21974
  31     11.80        8.8386        0.0004       22.3845       22.3849      13.546291       0.12357
  30     15.07        8.8388        0.0004       22.3560       22.3564      13.517582       0.07412
  29     18.79        8.8390        0.0006       22.3348       22.3354      13.496337       0.04817
  28     23.16        8.8392        0.0007       22.3170       22.3177      13.478497       0.03450
  27     28.12        8.8394        0.0008       22.3010       22.3018      13.462381       0.02740
  26     33.73        8.8396        0.0010       22.2862       22.2872      13.447517       0.02235
  25     40.54        8.8400        0.0011       22.2623       22.2634      13.423448       0.02986
  24     48.69        8.8405        0.0014       22.2379       22.2392      13.398781       0.02553
  23     57.69        8.8410        0.0016       22.2151       22.2167      13.375727       0.02161
  22     68.43        8.8416        0.0019       22.1920       22.1939      13.352363       0.01837
  21     81.20        8.8423        0.0023       22.1687       22.1710      13.328697       0.01564
  20     96.49        8.8431        0.0027       22.1450       22.1477      13.304562       0.01332
  19     114.6        8.8441        0.0032       22.1190       22.1222      13.278081       0.01236
  18     136.5        8.8453        0.0038       22.0898       22.0935      13.248214       0.01148
  17     162.9        8.8467        0.0044       22.0575       22.0620      13.215267       0.01053
  16     196.4        8.8485        0.0054       22.0153       22.0206      13.172123       0.01086
  15     218.7        8.8498        0.0060       21.9727       21.9786      13.128857       0.01643
  14     243.0        8.8511        0.0066       21.9256       21.9322      13.081100       0.01656
  13     269.0        8.8527        0.0073       21.8462       21.8535      13.000823       0.02604
  12     297.5        8.8546        0.0080       21.7136       21.7216      12.866953       0.03970
  11     328.5        8.8570        0.0088       21.5004       21.5092      12.652197       0.05839
  10     361.9        8.8601        0.0096       21.1724       21.1820      12.321855       0.08358
   9     398.1        8.8642        0.0104       20.6984       20.7087      11.844493       0.11121
   8     437.6        8.8698        0.0111       20.0605       20.0716      11.201779       0.13742
   7     480.5        8.8776        0.0118       19.2678       19.2797      10.402082       0.15706
   6     533.0        8.8907        0.0126       18.2357       18.2483       9.357571       0.16803
   5     589.8        8.9110        0.0133       17.1848       17.1981       8.287119       0.15889
   4     651.6        8.9433        0.0141       16.2041       16.2182       7.274891       0.13842
   3     718.7        8.9935        0.0149       15.3802       15.3952       6.401700       0.10974
   2     792.3        9.0730        0.0159       14.7040       14.7199       5.646962       0.08656
   1     891.5        9.2382        0.0172       14.0104       14.0276       4.789453       0.07297
   0    1013.0        9.5708        0.0189       13.3070       13.3259       3.755139       0.07182



 Wavenumbers:  6150. -  7700. cm-1, ATM      1
 LEVEL PRESSURE   UPWARD FLUX   DIFDOWN FLUX  DIRDOWN FLUX  DOWNWARD FLUX   NET FLUX    HEATING RATE
          mb          W/m2          W/m2          W/m2        W/m2          W/m2       degree/day
  51    .06700       14.0381        0.0000       47.3109       47.3109      33.272715       0.00000
  50    .07753       14.0381        0.0000       47.3108       47.3108      33.272699       0.01303
  49    .09103       14.0381        0.0000       47.3108       47.3108      33.272679       0.01277
  48    0.1069       14.0381        0.0000       47.3108       47.3108      33.272655       0.01250
  47    0.1255       14.0381        0.0000       47.3108       47.3108      33.272628       0.01223
  46    0.1487       14.0381        0.0000       47.3107       47.3107      33.272594       0.01241
  45    0.1794       14.0381        0.0000       47.3107       47.3107      33.272548       0.01276
  44    0.2165       14.0381        0.0000       47.3106       47.3106      33.272493       0.01252
  43    0.2613       14.0381        0.0000       47.3105       47.3106      33.272428       0.01228
  42    0.3336       14.0381        0.0000       47.3104       47.3104      33.272320       0.01256
  41    0.4307       14.0381        0.0000       47.3102       47.3103      33.272177       0.01242
  40    0.5894       14.0381        0.0001       47.3100       47.3100      33.271944       0.01240
  39     1.339       14.0380        0.0002       47.3087       47.3089      33.270843       0.01240
  38     1.782       14.0380        0.0002       47.3080       47.3082      33.270196       0.01230
  37     2.292       14.0403        0.0003       43.1292       43.1295      29.089175      69.24862
  36     2.964       14.0414        0.0004       42.7133       42.7138      28.672356       5.23234
  35     3.853       14.0421        0.0006       42.4836       42.4841      28.442019       2.18594
  34     5.035       14.0426        0.0007       42.3341       42.3348      28.292266       1.06977
  33     6.613       14.0429        0.0009       42.2301       42.2309      28.188070       0.55703
  32     8.786       14.0430        0.0011       42.1551       42.1563      28.113233       0.29064
  31     11.80       14.0431        0.0015       42.0972       42.0987      28.055622       0.16129
  30     15.07       14.0430        0.0019       42.0599       42.0617      28.018728       0.09525
  29     18.79       14.0429        0.0023       42.0324       42.0347      27.991845       0.06095
  28     23.16       14.0427        0.0028       42.0095       42.0123      27.969605       0.04301
  27     28.12       14.0424        0.0034       41.9889       41.9922      27.949812       0.03365
  26     33.73       14.0421        0.0040       41.9701       41.9741      27.931997       0.02679
  25     40.54       14.0417        0.0048       41.9405       41.9453      27.903564       0.03527
  24     48.69       14.0413        0.0057       41.9109       41.9166      27.875298       0.02925
  23     57.69       14.0408        0.0067       41.8836       41.8903      27.849564       0.02412
  22     68.43       14.0401        0.0079       41.8562       41.8642      27.824037       0.02007
  21     81.20       14.0393        0.0094       41.8285       41.8379      27.798558       0.01684
  20     96.49       14.0384        0.0111       41.8000       41.8111      27.772726       0.01426
  19     114.6       14.0373        0.0132       41.7672       41.7804      27.743120       0.01382
  18     136.5       14.0360        0.0156       41.7288       41.7445      27.708465       0.01333
  17     162.9       14.0345        0.0185       41.6836       41.7021      27.667659       0.01304
  16     196.4       14.0326        0.0223       41.6192       41.6415      27.608994       0.01477
  15     218.7       14.0315        0.0248       41.5500       41.5748      27.543339       0.02493
  14     243.0       14.0303        0.0275       41.4716       41.4991      27.468779       0.02586
  13     269.0       14.0293        0.0304       41.3388       41.3692      27.339862       0.04182
  12     297.5       14.0288        0.0335       41.1171       41.1506      27.121779       0.06468
  11     328.5       14.0290        0.0367       40.7586       40.7953      26.766357       0.09664
  10     361.9       14.0305        0.0400       40.1998       40.2398      26.209313       0.14094
   9     398.1       14.0343        0.0433       39.3745       39.4178      25.383570       0.19238
   8     437.6       14.0417        0.0465       38.2366       38.2832      24.241487       0.24418
   7     480.5       14.0549        0.0495       36.7854       36.8349      22.780041       0.28702
   6     533.0       14.0814        0.0526       34.8167       34.8694      20.788015       0.32045
   5     589.8       14.1270        0.0555       32.6611       32.7166      18.589592       0.32632
   4     651.6       14.2044        0.0580       30.4428       30.5008      16.296456       0.31359
   3     718.7       14.3288        0.0606       28.3323       28.3929      14.064093       0.28055
   2     792.3       14.5295        0.0631       26.3491       26.4121      11.882631       0.25019
   1     891.5       14.9543        0.0663       24.1138       24.1801       9.225833       0.22608
   0    1013.0       15.8460        0.0703       21.9889       22.0592       6.213142       0.20919



 Wavenumbers:  7700. -  8050. cm-1, ATM      1
 LEVEL PRESSURE   UPWARD FLUX   DIFDOWN FLUX  DIRDOWN FLUX  DOWNWARD FLUX   NET FLUX    HEATING RATE
          mb          W/m2          W/m2          W/m2        W/m2          W/m2       degree/day
  51    .06700        6.4842        0.0000       11.1810       11.1810       4.696726       0.00000
  50    .07753        6.4842        0.0000       11.1809       11.1810       4.696704       0.01776
  49    .09103        6.4843        0.0000       11.1809       11.1809       4.696676       0.01741
  48    0.1069        6.4843        0.0000       11.1809       11.1809       4.696644       0.01704
  47    0.1255        6.4843        0.0000       11.1809       11.1809       4.696607       0.01668
  46    0.1487        6.4843        0.0000       11.1808       11.1808       4.696561       0.01692
  45    0.1794        6.4843        0.0000       11.1808       11.1808       4.696497       0.01741
  44    0.2165        6.4843        0.0000       11.1807       11.1807       4.696422       0.01708
  43    0.2613        6.4843        0.0000       11.1806       11.1806       4.696333       0.01676
  42    0.3336        6.4843        0.0000       11.1805       11.1805       4.696186       0.01715
  41    0.4307        6.4844        0.0000       11.1804       11.1804       4.695991       0.01696
  40    0.5894        6.4844        0.0000       11.1801       11.1801       4.695673       0.01694
  39     1.339        6.4847        0.0001       11.1788       11.1789       4.694165       0.01697
  38     1.782        6.4849        0.0001       11.1781       11.1782       4.693280       0.01686
  37     2.292        6.4851        0.0002       11.1772       11.1773       4.692255       0.01698
  36     2.964        6.4853        0.0002       11.1760       11.1762       4.690909       0.01689
  35     3.853        6.4856        0.0003       11.1745       11.1748       4.689131       0.01687
  34     5.035        6.4861        0.0003       11.1725       11.1729       4.686770       0.01687
  33     6.613        6.4867        0.0004       11.1699       11.1703       4.683615       0.01686
  32     8.786        6.4875        0.0006       11.1663       11.1669       4.679366       0.01650
  31     11.80        6.4886        0.0007       11.1612       11.1619       4.673291       0.01701
  30     15.07        6.4899        0.0009       11.1557       11.1567       4.666773       0.01683
  29     18.79        6.4913        0.0011       11.1496       11.1507       4.659418       0.01668
  28     23.16        6.4929        0.0014       11.1424       11.1438       4.650836       0.01659
  27     28.12        6.4948        0.0017       11.1342       11.1359       4.641038       0.01666
  26     33.73        6.4969        0.0020       11.1251       11.1270       4.630092       0.01646
  25     40.54        6.4995        0.0023       11.1141       11.1164       4.616897       0.01637
  24     48.69        6.5026        0.0028       11.1009       11.1037       4.601034       0.01642
  23     57.69        6.5061        0.0033       11.0865       11.0898       4.583665       0.01628
  22     68.43        6.5102        0.0039       11.0694       11.0733       4.563058       0.01620
  21     81.20        6.5152        0.0046       11.0492       11.0538       4.538619       0.01615
  20     96.49        6.5212        0.0055       11.0254       11.0308       4.509659       0.01598
  19     114.6        6.5284        0.0065       10.9973       11.0038       4.475440       0.01598
  18     136.5        6.5370        0.0077       10.9645       10.9722       4.435196       0.01547
  17     162.9        6.5474        0.0091       10.9260       10.9350       4.387691       0.01518
  16     196.4        6.5611        0.0109       10.8769       10.8878       4.326712       0.01535
  15     218.7        6.5703        0.0121       10.8451       10.8572       4.286976       0.01509
  14     243.0        6.5804        0.0134       10.8110       10.8244       4.244068       0.01488
  13     269.0        6.5915        0.0149       10.7745       10.7893       4.197814       0.01500
  12     297.5        6.6038        0.0164       10.7354       10.7518       4.148040       0.01476
  11     328.5        6.6173        0.0180       10.6937       10.7117       4.094403       0.01458
  10     361.9        6.6323        0.0198       10.6492       10.6690       4.036670       0.01461
   9     398.1        6.6489        0.0217       10.6015       10.6233       3.974362       0.01452
   8     437.6        6.6674        0.0238       10.5506       10.5744       3.906936       0.01442
   7     480.5        6.6882        0.0260       10.4959       10.5219       3.833660       0.01439
   6     533.0        6.7152        0.0287       10.4280       10.4567       3.741456       0.01483
   5     589.8        6.7463        0.0316       10.3540       10.3855       3.639195       0.01518
   4     651.6        6.7826        0.0347       10.2724       10.3071       3.524508       0.01568
   3     718.7        6.8249        0.0380       10.1823       10.2203       3.395437       0.01622
   2     792.3        6.8748        0.0416       10.0823       10.1239       3.249050       0.01679
   1     891.5        6.9503        0.0463        9.9415        9.9878       3.037489       0.01800
   0    1013.0        7.0535        0.0519        9.7650        9.8169       2.763451       0.01903



 Wavenumbers:  8050. - 12850. cm-1, ATM      1
 LEVEL PRESSURE   UPWARD FLUX   DIFDOWN FLUX  DIRDOWN FLUX  DOWNWARD FLUX   NET FLUX    HEATING RATE
          mb          W/m2          W/m2          W/m2        W/m2          W/m2       degree/day
  51    .06700       85.9786        0.0000      156.5418      156.5418      70.563142       0.00000
  50    .07753       85.9786        0.0000      156.5417      156.5417      70.563142       0.00000
  49    .09103       85.9786        0.0001      156.5417      156.5417      70.563142      -0.00000
  48    0.1069       85.9786        0.0001      156.5416      156.5417      70.563142       0.00000
  47    0.1255       85.9785        0.0002      156.5415      156.5417      70.563142       0.00000
  46    0.1487       85.9785        0.0002      156.5414      156.5417      70.563142       0.00000
  45    0.1794       85.9785        0.0003      156.5413      156.5416      70.563142      -0.00000
  44    0.2165       85.9784        0.0004      156.5412      156.5416      70.563142       0.00000
  43    0.2613       85.9784        0.0005      156.5410      156.5415      70.563142       0.00000
  42    0.3336       85.9783        0.0007      156.5407      156.5414      70.563142       0.00000
  41    0.4307       85.9782        0.0010      156.5403      156.5413      70.563142      -0.00000
  40    0.5894       85.9780        0.0014      156.5397      156.5411      70.563142      -0.00000
  39     1.339       85.9771        0.0035      156.5367      156.5402      70.563142      -0.00000
  38     1.782       85.9766        0.0047      156.5350      156.5397      70.563142       0.00000
  37     2.292       85.9751        0.0081      156.5302      156.5383      70.563142       0.00000
  36     2.964       85.9741        0.0105      156.5267      156.5372      70.563142      -0.00000
  35     3.853       85.9729        0.0133      156.5227      156.5360      70.563142       0.00000
  34     5.035       85.9714        0.0167      156.5178      156.5345      70.563142       0.00000
  33     6.613       85.9695        0.0212      156.5114      156.5326      70.563142      -0.00000
  32     8.786       85.9669        0.0271      156.5030      156.5301      70.563142       0.00000
  31     11.80       85.9633        0.0355      156.4909      156.5264      70.563142      -0.00000
  30     15.07       85.9594        0.0445      156.4780      156.5225      70.563142       0.00000
  29     18.79       85.9550        0.0547      156.4635      156.5181      70.563142       0.00000
  28     23.16       85.9499        0.0666      156.4464      156.5130      70.563142      -0.00000
  27     28.12       85.9440        0.0802      156.4269      156.5071      70.563142       0.00000
  26     33.73       85.9374        0.0955      156.4051      156.5005      70.563142      -0.00000
  25     40.54       85.9294        0.1139      156.3786      156.4926      70.563142       0.00000
  24     48.69       85.9198        0.1362      156.3467      156.4829      70.563142       0.00000
  23     57.69       85.9092        0.1607      156.3116      156.4723      70.563142       0.00000
  22     68.43       85.8966        0.1900      156.2697      156.4597      70.563142      -0.00000
  21     81.20       85.8815        0.2249      156.2198      156.4446      70.563142       0.00000
  20     96.49       85.8635        0.2665      156.1601      156.4266      70.563142      -0.00000
  19     114.6       85.8458        0.3160      155.9801      156.2960      70.450263       0.05271
  18     136.5       85.8238        0.3747      155.7950      156.1697      70.345880       0.04014
  17     162.9       85.7964        0.4448      155.6002      156.0449      70.248574       0.03110
  16     196.4       85.7593        0.5359      155.3600      155.8958      70.136513       0.02821
  15     218.7       85.7350        0.5957      155.1659      155.7616      70.026580       0.04174
  14     243.0       85.7084        0.6610      154.9664      155.6274      69.918968       0.03732
  13     269.0       85.6805        0.7317      154.7007      155.4323      69.751833       0.05422
  12     297.5       85.6522        0.8081      154.3494      155.1575      69.505329       0.07311
  11     328.5       85.6246        0.8905      153.8924      154.7829      69.158299       0.09436
  10     361.9       85.5999        0.9791      153.3001      154.2792      68.679266       0.12120
   9     398.1       85.5817        1.0739      152.5228      153.5967      68.014991       0.15476
   8     437.6       85.5754        1.1750      151.4942      152.6692      67.093847       0.19695
   7     480.5       85.5895        1.2821      150.1521      151.4342      65.844696       0.24533
   6     533.0       85.6464        1.4116      148.1838      149.5954      63.948941       0.30497
   5     589.8       85.7718        1.5483      145.7191      147.2674      61.495524       0.36417
   4     651.6       86.0097        1.6907      142.7039      144.3945      58.384819       0.42540
   3     718.7       86.4099        1.8390      139.2577      141.0967      54.686815       0.46474
   2     792.3       87.0694        1.9925      135.4135      137.4060      50.336542       0.49893
   1     891.5       88.4569        2.1911      130.2205      132.4116      43.954678       0.54307
   0    1013.0       91.1531        2.4201      124.2606      126.6807      35.527612       0.58513



 Wavenumbers: 12850. - 16000. cm-1, ATM      1
 LEVEL PRESSURE   UPWARD FLUX   DIFDOWN FLUX  DIRDOWN FLUX  DOWNWARD FLUX   NET FLUX    HEATING RATE
          mb          W/m2          W/m2          W/m2        W/m2          W/m2       degree/day
  51    .06700       74.2482        0.0000       98.0872       98.0872      23.839019       0.00000
  50    .07753       74.2482        0.0001       98.0864       98.0864      23.838228       0.63421
  49    .09103       74.2482        0.0002       98.0853       98.0854      23.837234       0.62110
  48    0.1069       74.2482        0.0003       98.0841       98.0843      23.836092       0.60773
  47    0.1255       74.2482        0.0004       98.0826       98.0830      23.834781       0.59465
  46    0.1487       74.2482        0.0005       98.0809       98.0814      23.833125       0.60337
  45    0.1794       74.2483        0.0007       98.0784       98.0792      23.830874       0.61812
  44    0.2165       74.2484        0.0009       98.0756       98.0766      23.828225       0.60245
  43    0.2613       74.2485        0.0012       98.0723       98.0736      23.825111       0.58700
  42    0.3336       74.2487        0.0017       98.0670       98.0687      23.820029       0.59251
  41    0.4307       74.2490        0.0023       98.0602       98.0625      23.813459       0.57132
  40    0.5894       74.2498        0.0033       98.0496       98.0529      23.803107       0.55047
  39     1.339       74.2561        0.0080       98.0043       98.0124      23.756251       0.52752
  38     1.782       74.2619        0.0108       97.9793       97.9901      23.728152       0.53495
  37     2.292       74.2691        0.0184       97.9439       97.9623      23.693179       0.57925
  36     2.964       74.2830        0.0241       97.9010       97.9251      23.642049       0.64183
  35     3.853       74.3060        0.0303       97.8416       97.8719      23.565934       0.72235
  34     5.035       74.3408        0.0381       97.7586       97.7968      23.456013       0.78523
  33     6.613       74.3895        0.0482       97.6465       97.6947      23.305262       0.80591
  32     8.786       74.4529        0.0616       97.5008       97.5624      23.109474       0.76037
  31     11.80       74.5356        0.0806       97.3078       97.3885      22.852918       0.71828
  30     15.07       74.6147        0.1010       97.1182       97.2192      22.604481       0.64141
  29     18.79       74.6956        0.1240       96.9199       97.0438      22.348204       0.58106
  28     23.16       74.7802        0.1507       96.7064       96.8571      22.076928       0.52456
  27     28.12       74.8653        0.1813       96.4833       96.6646      21.799277       0.47199
  26     33.73       74.9440        0.2155       96.2628       96.4784      21.534369       0.39830
  25     40.54       75.0200        0.2569       96.0305       96.2874      21.267450       0.33114
  24     48.69       75.0929        0.3068       95.7843       96.0910      20.998152       0.27868
  23     57.69       75.1550        0.3615       95.5470       95.9085      20.753528       0.22930
  22     68.43       75.2094        0.4268       95.3003       95.7271      20.517695       0.18540
  21     81.20       75.2475        0.5047       95.0540       95.5587      20.311215       0.13644
  20     96.49       75.2681        0.5975       94.8049       95.4025      20.134421       0.09758
  19     114.6       75.2909        0.7088       94.5291       95.2379      19.946993       0.08752
  18     136.5       75.3074        0.8408       94.2186       95.0593      19.751956       0.07500
  17     162.9       75.3172        0.9978       93.8604       94.8582      19.541049       0.06741
  16     196.4       75.3093        1.2015       93.4182       94.6197      19.310363       0.05807
  15     218.7       75.2969        1.3352       93.1336       94.4688      19.171926       0.05256
  14     243.0       75.2800        1.4806       92.8266       94.3071      19.027105       0.05023
  13     269.0       75.2587        1.6380       92.4957       94.1337      18.875059       0.04932
  12     297.5       75.2330        1.8082       92.1393       93.9474      18.714434       0.04764
  11     328.5       75.2049        1.9920       91.7529       93.7448      18.539924       0.04745
  10     361.9       75.1753        2.1898       91.3341       93.5240      18.348684       0.04839
   9     398.1       75.1453        2.4027       90.8792       93.2819      18.136632       0.04940
   8     437.6       75.1172        2.6312       90.3820       93.0133      17.896046       0.05144
   7     480.5       75.0940        2.8759       89.8362       92.7121      17.618140       0.05458
   6     533.0       75.0788        3.1767       89.1400       92.3167      17.237846       0.06118
   5     589.8       75.0845        3.5002       88.3529       91.8532      16.768621       0.06965
   4     651.6       75.1251        3.8465       87.4568       91.3034      16.178240       0.08074
   3     718.7       75.2150        4.2161       86.4429       90.6590      15.444046       0.09227
   2     792.3       75.3811        4.6081       85.2934       89.9015      14.520354       0.10594
   1     891.5       75.7293        5.1300       83.6821       88.8122      13.082827       0.12233
   0    1013.0       76.3534        5.7475       81.7257       87.4731      11.119713       0.13631



 Wavenumbers: 16000. - 22650. cm-1, ATM      1
 LEVEL PRESSURE   UPWARD FLUX   DIFDOWN FLUX  DIRDOWN FLUX  DOWNWARD FLUX   NET FLUX    HEATING RATE
          mb          W/m2          W/m2          W/m2        W/m2          W/m2       degree/day
  51    .06700      141.0181        0.0000      156.3892      156.3892      15.371151       0.00000
  50    .07753      141.0181        0.0004      156.3887      156.3891      15.371003       0.11853
  49    .09103      141.0181        0.0009      156.3879      156.3888      15.370788       0.13444
  48    0.1069      141.0180        0.0015      156.3871      156.3885      15.370500       0.15331
  47    0.1255      141.0181        0.0021      156.3861      156.3882      15.370114       0.17475
  46    0.1487      141.0181        0.0030      156.3847      156.3877      15.369546       0.20708
  45    0.1794      141.0183        0.0041      156.3828      156.3869      15.368658       0.24382
  44    0.2165      141.0185        0.0054      156.3805      156.3859      15.367454       0.27402
  43    0.2613      141.0188        0.0070      156.3776      156.3846      15.365819       0.30807
  42    0.3336      141.0196        0.0097      156.3726      156.3823      15.362712       0.36228
  41    0.4307      141.0208        0.0131      156.3657      156.3789      15.358028       0.40725
  40    0.5894      141.0234        0.0188      156.3537      156.3725      15.349095       0.47504
  39     1.339      141.0461        0.0458      156.2834      156.3292      15.283099       0.74300
  38     1.782      141.0671        0.0617      156.2324      156.2940      15.226877       1.07036
  37     2.292      141.0928        0.1054      156.1329      156.2383      15.145498       1.34786
  36     2.964      141.1432        0.1376      156.0193      156.1569      15.013665       1.65489
  35     3.853      141.2268        0.1735      155.8578      156.0313      14.804481       1.98520
  34     5.035      141.3538        0.2180      155.6282      155.8462      14.492394       2.22942
  33     6.613      141.5317        0.2757      155.3147      155.5904      14.058684       2.31862
  32     8.786      141.7637        0.3522      154.9058      155.2580      13.494324       2.19177
  31     11.80      142.0657        0.4607      154.3629      154.8237      12.757973       2.06155
  30     15.07      142.3551        0.5768      153.8278      154.4047      12.049619       1.82883
  29     18.79      142.6506        0.7077      153.2665      153.9742      11.323614       1.64608
  28     23.16      142.9594        0.8602      152.6600      153.5202      10.560760       1.47511
  27     28.12      143.2702        1.0343      152.0230      153.0573       9.787088       1.31519
  26     33.73      143.5571        1.2289      151.3886      152.6175       9.060368       1.09264
  25     40.54      143.8332        1.4639      150.7114      152.1753       8.342098       0.89109
  24     48.69      144.0975        1.7468      149.9817      151.7285       7.630991       0.73588
  23     57.69      144.3217        2.0572      149.2632      151.3204       6.998737       0.59264
  22     68.43      144.5172        2.4265      148.4958      150.9224       6.405209       0.46659
  21     81.20      144.6521        2.8662      147.7001      150.5664       5.914218       0.32444
  20     96.49      144.7221        3.3897      146.8614      150.2510       5.528910       0.21266
  19     114.6      144.7585        4.0094      145.9251      149.9344       5.175963       0.16480
  18     136.5      144.7700        4.7411      144.8576      149.5988       4.828754       0.13351
  17     162.9      144.7551        5.6084      143.6276      149.2360       4.480972       0.11117
  16     196.4      144.6738        6.7275      142.1144      148.8419       4.168102       0.07875
  15     218.7      144.5978        7.4588      141.1528      148.6116       4.013823       0.05857
  14     243.0      144.5046        8.2503      140.1252      148.3755       3.870862       0.04958
  13     269.0      144.3928        9.1041      139.0303      148.1344       3.741624       0.04192
  12     297.5      144.2614       10.0224      137.8659      147.8883       3.626829       0.03405
  11     328.5      144.1147       11.0093      136.6211      147.6304       3.515699       0.03022
  10     361.9      143.9524       12.0659      135.2949      147.3608       3.408386       0.02715
   9     398.1      143.7740       13.1961      133.8820      147.0781       3.304121       0.02429
   8     437.6      143.5803       14.4020      132.3784      146.7804       3.200093       0.02224
   7     480.5      143.3711       15.6856      130.7813      146.4669       3.095891       0.02046
   6     533.0      143.1135       17.2535      128.8330      146.0864       2.972976       0.01977
   5     589.8      142.8387       18.9285      126.7507      145.6792       2.840519       0.01966
   4     651.6      142.5494       20.7121      124.5294      145.2416       2.692196       0.02028
   3     718.7      142.2473       22.6060      122.1653      144.7713       2.523985       0.02114
   2     792.3      141.9383       24.6082      119.6551      144.2633       2.324994       0.02282
   1     891.5      141.5494       27.2671      116.3005      143.5676       2.018142       0.02611
   0    1013.0      141.1186       30.3943      112.3348      142.7290       1.610456       0.02831



 Wavenumbers: 22650. - 29000. cm-1, ATM      1
 LEVEL PRESSURE   UPWARD FLUX   DIFDOWN FLUX  DIRDOWN FLUX  DOWNWARD FLUX   NET FLUX    HEATING RATE
          mb          W/m2          W/m2          W/m2        W/m2          W/m2       degree/day
  51    .06700       58.3821        0.0000       59.0156       59.0156       0.633490       0.00000
  50    .07753       58.3820        0.0005       59.0151       59.0155       0.633490       0.00000
  49    .09103       58.3819        0.0010       59.0144       59.0154       0.633490       0.00000
  48    0.1069       58.3818        0.0017       59.0136       59.0153       0.633490       0.00000
  47    0.1255       58.3816        0.0025       59.0127       59.0151       0.633490       0.00000
  46    0.1487       58.3814        0.0034       59.0115       59.0149       0.633490       0.00000
  45    0.1794       58.3812        0.0048       59.0099       59.0147       0.633490      -0.00000
  44    0.2165       58.3809        0.0063       59.0080       59.0144       0.633490       0.00000
  43    0.2613       58.3805        0.0082       59.0058       59.0140       0.633490       0.00000
  42    0.3336       58.3799        0.0113       59.0022       59.0134       0.633490      -0.00000
  41    0.4307       58.3791        0.0153       58.9973       59.0126       0.633490       0.00000
  40    0.5894       58.3778        0.0220       58.9894       59.0113       0.633490       0.00000
  39     1.339       58.3717        0.0534       58.9518       59.0052       0.633490       0.00000
  38     1.782       58.3681        0.0719       58.9297       59.0016       0.633490       0.00000
  37     2.292       58.3582        0.1228       58.8689       58.9917       0.633490      -0.00000
  36     2.964       58.3509        0.1603       58.8240       58.9843       0.633490       0.00000
  35     3.853       58.3427        0.2022       58.7740       58.9762       0.633490      -0.00000
  34     5.035       58.3326        0.2542       58.7119       58.9660       0.633490       0.00000
  33     6.613       58.3194        0.3215       58.6315       58.9529       0.633490       0.00000
  32     8.786       58.3020        0.4108       58.5247       58.9355       0.633490       0.00000
  31     11.80       58.2773        0.5376       58.3731       58.9108       0.633490      -0.00000
  30     15.07       58.2508        0.6732       58.2111       58.8843       0.633490      -0.00000
  29     18.79       58.2211        0.8259       58.0286       58.8545       0.633490       0.00000
  28     23.16       58.1864        1.0037       57.8162       58.8199       0.633490       0.00000
  27     28.12       58.1468        1.2064       57.5740       58.7803       0.633490      -0.00000
  26     33.73       58.1027        1.4323       57.3039       58.7362       0.633490       0.00000
  25     40.54       58.0497        1.7042       56.9789       58.6832       0.633490       0.00000
  24     48.69       57.9860        2.0303       56.5893       58.6195       0.633490      -0.00000
  23     57.69       57.9165        2.3862       56.1639       58.5500       0.633490       0.00000
  22     68.43       57.8344        2.8070       55.6608       58.4679       0.633490       0.00000
  21     81.20       57.7373        3.3040       55.0668       58.3708       0.633490      -0.00000
  20     96.49       57.6228        3.8899       54.3664       58.2563       0.633490       0.00000
  19     114.6       57.4885        4.5766       53.5455       58.1220       0.633490      -0.00000
  18     136.5       57.3318        5.3780       52.5873       57.9653       0.633490       0.00000
  17     162.9       57.1484        6.3148       51.4671       57.7819       0.633490       0.00000
  16     196.4       56.9159        7.5017       50.0477       57.5494       0.633490       0.00000
  15     218.7       56.7664        8.2643       49.1356       57.3999       0.633490      -0.00000
  14     243.0       56.6066        9.0785       48.1616       57.2401       0.633490       0.00000
  13     269.0       56.4368        9.9437       47.1265       57.0703       0.633490       0.00000
  12     297.5       56.2569       10.8592       46.0312       56.8904       0.633490       0.00000
  11     328.5       56.0667       11.8263       44.8739       56.7002       0.633490      -0.00000
  10     361.9       55.8666       12.8423       43.6578       56.5001       0.633490       0.00000
   9     398.1       55.6567       13.9075       42.3826       56.2901       0.633490       0.00000
   8     437.6       55.4372       15.0196       41.0511       56.0707       0.633490       0.00000
   7     480.5       55.2086       16.1762       39.6659       55.8421       0.633490      -0.00000
   6     533.0       54.9362       17.5517       38.0180       55.5697       0.633490      -0.00000
   5     589.8       54.6537       18.9759       36.3112       55.2872       0.633490       0.00000
   4     651.6       54.3617       20.4443       34.5509       54.9952       0.633490      -0.00000
   3     718.7       54.0618       21.9484       32.7469       54.6953       0.633490       0.00000
   2     792.3       53.7560       23.4776       30.9119       54.3895       0.633490      -0.00000
   1     891.5       53.3663       25.4189       28.5809       53.9998       0.633490       0.00000
   0    1013.0       52.9314       27.5732       25.9917       53.5649       0.633490      -0.00000



 Wavenumbers: 29000. - 38000. cm-1, ATM      1
 LEVEL PRESSURE   UPWARD FLUX   DIFDOWN FLUX  DIRDOWN FLUX  DOWNWARD FLUX   NET FLUX    HEATING RATE
          mb          W/m2          W/m2          W/m2        W/m2          W/m2       degree/day
  51    .06700        8.7459        0.0000       20.8114       20.8114      12.065458       0.00000
  50    .07753        8.7457        0.0003       20.8070       20.8074      12.061650       3.05215
  49    .09103        8.7455        0.0007       20.8009       20.8016      12.056112       3.46153
  48    0.1069        8.7452        0.0012       20.7928       20.7939      12.048701       3.94506
  47    0.1255        8.7450        0.0017       20.7820       20.7837      12.038794       4.49123
  46    0.1487        8.7446        0.0024       20.7665       20.7688      12.024228       5.30949
  45    0.1794        8.7442        0.0033       20.7424       20.7457      12.001559       6.22329
  44    0.2165        8.7436        0.0044       20.7103       20.7147      11.971030       6.94481
  43    0.2613        8.7431        0.0056       20.6675       20.6731      11.930027       7.72892
  42    0.3336        8.7422        0.0077       20.5880       20.5956      11.853449       8.92815
  41    0.4307        8.7411        0.0104       20.4722       20.4826      11.741472       9.73619
  40    0.5894        8.7396        0.0147       20.2637       20.2784      11.538739      10.78105
  39     1.339        8.7366        0.0331       19.0984       19.1315      10.394857      12.87804
  38     1.782        8.7375        0.0427       18.4394       18.4821       9.744508      12.38160
  37     2.292        8.7308        0.0697       17.7454       17.8151       9.084237      10.93582
  36     2.964        8.7346        0.0868       17.0095       17.0963       8.361677       9.07031
  35     3.853        8.7461        0.1042       16.2334       16.3376       7.591531       7.30882
  34     5.035        8.7664        0.1246       15.4463       15.5709       6.804474       5.62241
  33     6.613        8.7966        0.1499       14.6832       14.8331       6.036440       4.10591
  32     8.786        8.8368        0.1830       13.9626       14.1456       5.308750       2.82608
  31     11.80        8.8894        0.2290       13.2541       13.4831       4.593720       2.00186
  30     15.07        8.9401        0.2773       12.7105       12.9877       4.047594       1.40999
  29     18.79        8.9926        0.3305       12.2389       12.5694       3.576787       1.06746
  28     23.16        9.0483        0.3913       11.8034       12.1948       3.146440       0.83215
  27     28.12        9.1054        0.4596       11.4023       11.8619       2.756513       0.66285
  26     33.73        9.1581        0.5349       11.0448       11.5797       2.421679       0.50343
  25     40.54        9.2080        0.6250       10.6971       11.3221       2.114144       0.38153
  24     48.69        9.2551        0.7320       10.3512       11.0833       1.828191       0.29592
  23     57.69        9.2937        0.8479       10.0327       10.8806       1.586951       0.22613
  22     68.43        9.3248        0.9839        9.7113       10.6952       1.370392       0.17024
  21     81.20        9.3396        1.1446        9.3927       10.5373       1.197717       0.11410
  20     96.49        9.3360        1.3335        9.0688       10.4023       1.066277       0.07255
  19     114.6        9.3222        1.5519        8.7196       10.2715       0.949285       0.05463
  18     136.5        9.3010        1.8015        8.3366       10.1380       0.837035       0.04316
  17     162.9        9.2726        2.0860        7.9138        9.9998       0.727137       0.03513
  16     196.4        9.2250        2.4392        7.4162        9.8553       0.630372       0.02436
  15     218.7        9.1907        2.6608        7.1131        9.7739       0.583202       0.01791
  14     243.0        9.1533        2.8925        6.8004        9.6929       0.539648       0.01511
  13     269.0        9.1123        3.1334        6.4794        9.6128       0.500542       0.01269
  12     297.5        9.0680        3.3824        6.1516        9.5340       0.466071       0.01022
  11     328.5        9.0216        3.6386        5.8161        9.4547       0.433069       0.00897
  10     361.9        8.9738        3.8993        5.4762        9.3755       0.401686       0.00794
   9     398.1        8.9246        4.1642        5.1324        9.2965       0.371947       0.00693
   8     437.6        8.8745        4.4317        4.7861        9.2178       0.343281       0.00613
   7     480.5        8.8239        4.6996        4.4403        9.1400       0.316073       0.00534
   6     533.0        8.7658        5.0046        4.0476        9.0523       0.286424       0.00477
   5     589.8        8.7086        5.3050        3.6614        8.9663       0.257713       0.00426
   4     651.6        8.6530        5.5978        3.2848        8.8826       0.229629       0.00384
   3     718.7        8.5996        5.8805        2.9212        8.8017       0.202126       0.00346
   2     792.3        8.5491        6.1504        2.5740        8.7243       0.175208       0.00309
   1     891.5        8.4911        6.4667        2.1664        8.6331       0.141979       0.00283
   0    1013.0        8.4353        6.7839        1.7567        8.5406       0.105304       0.00255



 Wavenumbers: 38000. - 50000. cm-1, ATM      1
 LEVEL PRESSURE   UPWARD FLUX   DIFDOWN FLUX  DIRDOWN FLUX  DOWNWARD FLUX   NET FLUX    HEATING RATE
          mb          W/m2          W/m2          W/m2        W/m2          W/m2       degree/day
  51    .06700        0.0067        0.0000        1.2836        1.2836       1.276909       0.00000
  50    .07753        0.0067        0.0001        1.2812        1.2812       1.274574       1.87193
  49    .09103        0.0066        0.0002        1.2777        1.2778       1.271241       2.08291
  48    0.1069        0.0065        0.0002        1.2731        1.2734       1.266862       2.33106
  47    0.1255        0.0064        0.0004        1.2672        1.2675       1.261106       2.60958
  46    0.1487        0.0063        0.0005        1.2586        1.2591       1.252778       3.03554
  45    0.1794        0.0062        0.0007        1.2455        1.2462       1.240008       3.50581
  44    0.2165        0.0060        0.0009        1.2282        1.2291       1.223079       3.85103
  43    0.2613        0.0058        0.0011        1.2054        1.2065       1.200726       4.21332
  42    0.3336        0.0055        0.0015        1.1639        1.1654       1.159895       4.76051
  41    0.4307        0.0051        0.0020        1.1051        1.1071       1.101926       5.04032
  40    0.5894        0.0046        0.0026        1.0039        1.0064       1.001865       5.32110
  39     1.339        0.0030        0.0035        0.5438        0.5473       0.544284       5.15153
  38     1.782        0.0027        0.0032        0.3635        0.3667       0.363992       3.43247
  37     2.292        0.0014        0.0035        0.2340        0.2375       0.236084       2.11848
  36     2.964        0.0009        0.0029        0.1442        0.1470       0.146094       1.12965
  35     3.853        0.0006        0.0022        0.0849        0.0871       0.086498       0.56558
  34     5.035        0.0004        0.0016        0.0483        0.0499       0.049462       0.26457
  33     6.613        0.0003        0.0011        0.0270        0.0281       0.027841       0.11558
  32     8.786        0.0002        0.0008        0.0142        0.0150       0.014859       0.05042
  31     11.80        0.0001        0.0005        0.0065        0.0070       0.006875       0.02235
  30     15.07        0.0000        0.0003        0.0031        0.0034       0.003317       0.00918
  29     18.79        0.0000        0.0002        0.0014        0.0016       0.001578       0.00394
  28     23.16        0.0000        0.0001        0.0006        0.0007       0.000718       0.00166
  27     28.12        0.0000        0.0001        0.0003        0.0003       0.000317       0.00068
  26     33.73        0.0000        0.0000        0.0001        0.0001       0.000139       0.00027
  25     40.54        0.0000        0.0000        0.0000        0.0001       0.000057       0.00010
  24     48.69        0.0000        0.0000        0.0000        0.0000       0.000021       0.00004
  23     57.69        0.0000        0.0000        0.0000        0.0000       0.000008       0.00001
  22     68.43        0.0000        0.0000        0.0000        0.0000       0.000003       0.00000
  21     81.20        0.0000        0.0000        0.0000        0.0000       0.000001       0.00000
  20     96.49        0.0000        0.0000        0.0000        0.0000       0.000000       0.00000
  19     114.6        0.0000        0.0000        0.0000        0.0000       0.000000       0.00000
  18     136.5        0.0000        0.0000        0.0000        0.0000       0.000000       0.00000
  17     162.9        0.0000        0.0000        0.0000        0.0000       0.000000       0.00000
  16     196.4        0.0000        0.0000        0.0000        0.0000       0.000000       0.00000
  15     218.7        0.0000        0.0000        0.0000        0.0000       0.000000       0.00000
  14     243.0        0.0000        0.0000        0.0000        0.0000       0.000000       0.00000
  13     269.0        0.0000        0.0000        0.0000        0.0000       0.000000       0.00000
  12     297.5        0.0000        0.0000        0.0000        0.0000       0.000000       0.00000
  11     328.5        0.0000        0.0000        0.0000        0.0000       0.000000       0.00000
  10     361.9        0.0000        0.0000        0.0000        0.0000       0.000000       0.00000
   9     398.1        0.0000        0.0000        0.0000        0.0000       0.000000       0.00000
   8     437.6        0.0000        0.0000        0.0000        0.0000       0.000000       0.00000
   7     480.5        0.0000        0.0000        0.0000        0.0000       0.000000       0.00000
   6     533.0        0.0000        0.0000        0.0000        0.0000       0.000000       0.00000
   5     589.8        0.0000        0.0000        0.0000        0.0000       0.000000       0.00000
   4     651.6        0.0000        0.0000        0.0000        0.0000       0.000000       0.00000
   3     718.7        0.0000        0.0000        0.0000        0.0000       0.000000       0.00000
   2     792.3        0.0000        0.0000        0.0000        0.0000       0.000000       0.00000
   1     891.5        0.0000        0.0000        0.0000        0.0000       0.000000       0.00000
   0    1013.0        0.0000        0.0000        0.0000        0.0000       0.000000       0.00000



 Wavenumbers:   820. -  2600. cm-1, ATM      1
 LEVEL PRESSURE   UPWARD FLUX   DIFDOWN FLUX  DIRDOWN FLUX  DOWNWARD FLUX   NET FLUX    HEATING RATE
          mb          W/m2          W/m2          W/m2        W/m2          W/m2       degree/day
  51    .06700        0.6357        0.0000        6.0047        6.0047       5.368910       0.00000
  50    .07753        0.6357        0.0000        6.0009        6.0009       5.365131       3.02937
  49    .09103        0.6357        0.0000        6.0001        6.0001       5.364341       0.49378
  48    0.1069        0.6357        0.0000        5.9992        5.9992       5.363466       0.46572
  47    0.1255        0.6357        0.0000        5.9982        5.9982       5.362485       0.44470
  46    0.1487        0.6357        0.0000        5.9970        5.9970       5.361307       0.42941
  45    0.1794        0.6357        0.0000        5.9956        5.9956       5.359841       0.40259
  44    0.2165        0.6357        0.0000        5.9940        5.9940       5.358308       0.34860
  43    0.2613        0.6357        0.0000        5.9925        5.9925       5.356729       0.29770
  42    0.3336        0.6357        0.0000        5.9902        5.9902       5.354499       0.25991
  41    0.4307        0.6357        0.0000        5.9877        5.9877       5.351911       0.22503
  40    0.5894        0.6357        0.0000        5.9836        5.9836       5.347879       0.21442
  39     1.339        0.6357        0.0000        5.9651        5.9651       5.329369       0.20839
  38     1.782        0.6357        0.0000        5.9549        5.9549       5.319152       0.19451
  37     2.292        0.7038        0.0000        1.4616        1.4616       0.757784      75.54817
  36     2.964        0.7296        0.0000        1.3658        1.3658       0.636254       1.52556
  35     3.853        0.7440        0.0000        1.3258        1.3258       0.581804       0.51675
  34     5.035        0.7527        0.0000        1.3047        1.3047       0.551986       0.21300
  33     6.613        0.7581        0.0000        1.2926        1.2926       0.534515       0.09340
  32     8.786        0.7614        0.0000        1.2856        1.2856       0.524139       0.04030
  31     11.80        0.7635        0.0000        1.2812        1.2812       0.517619       0.01825
  30     15.07        0.7647        0.0000        1.2789        1.2789       0.514189       0.00886
  29     18.79        0.7654        0.0000        1.2775        1.2775       0.512101       0.00473
  28     23.16        0.7659        0.0000        1.2765        1.2765       0.510645       0.00282
  27     28.12        0.7662        0.0000        1.2758        1.2758       0.509546       0.00187
  26     33.73        0.7665        0.0000        1.2752        1.2752       0.508699       0.00127
  25     40.54        0.7669        0.0000        1.2744        1.2744       0.507534       0.00145
  24     48.69        0.7672        0.0000        1.2738        1.2738       0.506538       0.00103
  23     57.69        0.7675        0.0000        1.2733        1.2733       0.505756       0.00073
  22     68.43        0.7677        0.0000        1.2728        1.2728       0.505083       0.00053
  21     81.20        0.7679        0.0000        1.2724        1.2724       0.504503       0.00038
  20     96.49        0.7681        0.0000        1.2721        1.2721       0.503994       0.00028
  19     114.6        0.7682        0.0000        1.2718        1.2718       0.503573       0.00020
  18     136.5        0.7684        0.0000        1.2715        1.2715       0.503131       0.00017
  17     162.9        0.7685        0.0000        1.2712        1.2712       0.502717       0.00013
  16     196.4        0.7687        0.0000        1.2710        1.2710       0.502310       0.00010
  15     218.7        0.7688        0.0000        1.2708        1.2708       0.502053       0.00010
  14     243.0        0.7688        0.0000        1.2707        1.2707       0.501849       0.00007
  13     269.0        0.7689        0.0000        1.2705        1.2705       0.501601       0.00008
  12     297.5        0.7690        0.0000        1.2703        1.2703       0.501252       0.00010
  11     328.5        0.7692        0.0000        1.2699        1.2700       0.500756       0.00013
  10     361.9        0.7694        0.0000        1.2695        1.2695       0.500023       0.00019
   9     398.1        0.7698        0.0000        1.2688        1.2688       0.498960       0.00025
   8     437.6        0.7703        0.0000        1.2678        1.2678       0.497466       0.00032
   7     480.5        0.7711        0.0000        1.2665        1.2665       0.495418       0.00040
   6     533.0        0.7723        0.0000        1.2641        1.2642       0.491850       0.00057
   5     589.8        0.7743        0.0000        1.2606        1.2606       0.486347       0.00082
   4     651.6        0.7776        0.0000        1.2545        1.2545       0.476882       0.00129
   3     718.7        0.7829        0.0000        1.2451        1.2451       0.462175       0.00185
   2     792.3        0.7911        0.0000        1.2308        1.2309       0.439735       0.00257
   1     891.5        0.8072        0.0000        1.2038        1.2038       0.396577       0.00367
   0    1013.0        0.8340        0.0000        1.1613        1.1613       0.327378       0.00480

  Modules and versions used in this calculation:

       rrtmg_sw.1col.f90:  $Revision$                    rrtmg_sw_init.f90:  $Revision$        
     rrtmgsw_cldprop.f90:  $Revision$                  rrtmgsw_cldprmc.f90:  NOT USED          
     rrtmg_sw_reftra.f90:  $Revision$                  rrtmg_sw_spcvrt.f90:  NOT USED          
     rrtmg_sw_spcvmc.f90:  NOT USED                    rrtmgsw_setcoef.f90:  NOT USED          
     rrtmg_sw_taumol.f90:  $Revision$                  rrtmg_sw_vrtqdr.f90:  NOT USED          
                rrtatm.f:  NOT USED                             util_xxx.f:  NOT USED          
                 extra.f:  NOT USED                       rrtmg_sw_k_g.f90:  $Revision$        

