

 Wavenumbers:   820. - 50000. cm-1, ATM      1
 LEVEL PRESSURE   UPWARD FLUX   DIFDOWN FLUX  DIRDOWN FLUX  DOWNWARD FLUX   NET FLUX    HEATING RATE
          mb          W/m2          W/m2          W/m2        W/m2          W/m2       degree/day
  51    .06700      414.1521        0.0000      617.8126      617.8126     203.660450       0.00000
  50    .07753      414.1518        0.0014      617.7948      617.7962     203.644436      12.83552
  49    .09103      414.1513        0.0031      617.7782      617.7812     203.629893       9.08974
  48    0.1069      414.1509        0.0050      617.7588      617.7638     203.612986       8.99993
  47    0.1255      414.1504        0.0072      617.7352      617.7424     203.592060       9.48663
  46    0.1487      414.1498        0.0101      617.7026      617.7127     203.562909      10.62581
  45    0.1794      414.1491        0.0139      617.6546      617.6685     203.519402      11.94390
  44    0.2165      414.1484        0.0185      617.5929      617.6113     203.462940      12.84410
  43    0.2613      414.1477        0.0239      617.5133      617.5372     203.389468      13.84900
  42    0.3336      414.1470        0.0327      617.3704      617.4031     203.256165      15.54184
  41    0.4307      414.1464        0.0444      617.1680      617.2124     203.065966      16.53743
  40    0.5894      414.1465        0.0632      616.8135      616.8768     202.730295      17.85055
  39     1.339      414.1656        0.1484      614.9756      615.1240     200.958376      19.94858
  38     1.782      414.1900        0.1963      614.0079      614.2041     200.014144      17.97667
  37     2.292      414.2147        0.3103      599.9583      600.2686     186.053877     231.21842
  36     2.964      414.2801        0.3993      597.8749      598.2742     183.994089      25.85656
  35     3.853      414.3947        0.5008      596.1953      596.6960     182.301371      16.06421
  34     5.035      414.5727        0.6277      594.6208      595.2485     180.675845      11.61208
  33     6.613      414.8242        0.7927      593.0608      593.8534     179.029273       8.80258
  32     8.786      415.1521        1.0119      591.4613      592.4732     177.321081       6.63400
  31     11.80      415.5772        1.3229      589.6835      591.0064     175.429262       5.29650
  30     15.07      415.9820        1.6547      588.1218      589.7765     173.794463       4.22073
  29     18.79      416.3932        2.0274      586.5961      588.6235     172.230345       3.54634
  28     23.16      416.8203        2.4606      585.0188      587.4794     170.659136       3.03821
  27     28.12      417.2464        2.9538      583.4018      586.3556     169.109232       2.63473
  26     33.73      417.6323        3.5037      581.8015      585.3052     167.672962       2.15947
  25     40.54      417.9924        4.1659      580.0551      584.2210     166.228528       1.79198
  24     48.69      418.3239        4.9605      578.1574      583.1179     164.794010       1.48450
  23     57.69      418.5884        5.8292      576.2634      582.0926     163.504188       1.20901
  22     68.43      418.7952        6.8584      574.2048      581.0632     162.267955       0.97184
  21     81.20      418.8914        8.0787      572.0011      580.0798     161.188433       0.71333
  20     96.49      418.8666        9.5236      569.6070      579.1307     160.264040       0.51020
  19     114.6      418.7832       11.2236      566.8005      578.0241     159.240864       0.47775
  18     136.5      418.6377       13.2143      563.6185      576.8328     158.195091       0.40212
  17     162.9      418.4239       15.5507      559.9815      575.5322     157.108245       0.34740
  16     196.4      418.0550       18.5313      555.4777      574.0090     155.953990       0.29054
  15     218.7      417.7828       20.4582      552.5145      572.9727     155.189866       0.29011
  14     243.0      417.4752       22.5253      549.3603      571.8856     154.410425       0.27034
  13     269.0      417.1319       24.7343      545.8545      570.5889     153.456941       0.30931
  12     297.5      416.7539       27.0860      541.9104      568.9964     152.242483       0.36020
  11     328.5      416.3504       29.5867      537.4090      566.9957     150.645321       0.43426
  10     361.9      415.9259       32.2326      532.2278      564.4604     148.534557       0.53404
   9     398.1      415.4860       35.0285      526.2297      561.2582     145.772240       0.64356
   8     437.6      415.0422       37.9733      519.2875      557.2608     142.218591       0.75979
   7     480.5      414.6088       41.0651      511.3306      552.3957     137.786853       0.87038
   6     533.0      414.1536       44.7831      501.0375      545.8205     131.666955       0.98450
   5     589.8      413.7872       48.6846      489.6849      538.3695     124.582349       1.05159
   4     651.6      413.5841       52.7645      477.3985      530.1631     116.579012       1.09448
   3     718.7      413.6273       57.0134      464.5779      521.5913     107.964059       1.08266
   2     792.3      414.0747       61.4152      451.2841      512.6993      98.624633       1.07113
   1     891.5      415.5060       67.1295      434.3157      501.4452      85.939204       1.07947
   0    1013.0      418.8288       73.6658      415.4968      489.1626      70.333782       1.08356



 Wavenumbers:  2600. -  3250. cm-1, ATM      1
 LEVEL PRESSURE   UPWARD FLUX   DIFDOWN FLUX  DIRDOWN FLUX  DOWNWARD FLUX   NET FLUX    HEATING RATE
          mb          W/m2          W/m2          W/m2        W/m2          W/m2       degree/day
  51    .06700        0.0360        0.0000        5.4450        5.4450       5.408987       0.00000
  50    .07753        0.0360        0.0000        5.4450        5.4450       5.408979       0.00640
  49    .09103        0.0360        0.0000        5.4450        5.4450       5.408969       0.00627
  48    0.1069        0.0360        0.0000        5.4450        5.4450       5.408958       0.00613
  47    0.1255        0.0360        0.0000        5.4450        5.4450       5.408944       0.00599
  46    0.1487        0.0360        0.0000        5.4450        5.4450       5.408928       0.00608
  45    0.1794        0.0360        0.0000        5.4450        5.4450       5.408905       0.00625
  44    0.2165        0.0360        0.0000        5.4449        5.4449       5.408878       0.00612
  43    0.2613        0.0360        0.0000        5.4449        5.4449       5.408846       0.00600
  42    0.3336        0.0360        0.0000        5.4448        5.4448       5.408793       0.00617
  41    0.4307        0.0360        0.0000        5.4448        5.4448       5.408722       0.00620
  40    0.5894        0.0360        0.0000        5.4446        5.4446       5.408602       0.00637
  39     1.339        0.0360        0.0000        5.4439        5.4439       5.407895       0.00797
  38     1.782        0.0360        0.0000        5.4434        5.4434       5.407352       0.01034
  37     2.292        0.0360        0.0000        5.4427        5.4427       5.406636       0.01186
  36     2.964        0.0360        0.0000        5.4416        5.4416       5.405597       0.01304
  35     3.853        0.0360        0.0000        5.4402        5.4402       5.404120       0.01402
  34     5.035        0.0360        0.0000        5.4381        5.4381       5.402065       0.01468
  33     6.613        0.0360        0.0000        5.4353        5.4353       5.399284       0.01487
  32     8.786        0.0360        0.0000        5.4317        5.4317       5.395652       0.01411
  31     11.80        0.0360        0.0000        5.4269        5.4269       5.390872       0.01338
  30     15.07        0.0360        0.0000        5.4224        5.4224       5.386346       0.01169
  29     18.79        0.0360        0.0000        5.4180        5.4180       5.381934       0.01000
  28     23.16        0.0360        0.0000        5.4135        5.4135       5.377449       0.00867
  27     28.12        0.0360        0.0000        5.4088        5.4088       5.372802       0.00790
  26     33.73        0.0360        0.0000        5.4036        5.4036       5.367563       0.00788
  25     40.54        0.0360        0.0000        5.3966        5.3967       5.360624       0.00861
  24     48.69        0.0360        0.0000        5.3872        5.3872       5.351150       0.00980
  23     57.69        0.0360        0.0000        5.3754        5.3754       5.339371       0.01104
  22     68.43        0.0360        0.0000        5.3599        5.3599       5.323889       0.01217
  21     81.20        0.0360        0.0000        5.3401        5.3401       5.304064       0.01310
  20     96.49        0.0360        0.0000        5.3155        5.3155       5.279510       0.01355
  19     114.6        0.0360        0.0000        5.2755        5.2755       5.239501       0.01868
  18     136.5        0.0360        0.0000        5.2330        5.2331       5.197046       0.01633
  17     162.9        0.0360        0.0001        5.1888        5.1889       5.152882       0.01412
  16     196.4        0.0360        0.0001        5.1392        5.1393       5.103285       0.01248
  15     218.7        0.0360        0.0001        5.1071        5.1072       5.071164       0.01220
  14     243.0        0.0360        0.0001        5.0760        5.0761       5.040040       0.01079
  13     269.0        0.0361        0.0001        5.0415        5.0416       5.005520       0.01120
  12     297.5        0.0361        0.0001        5.0024        5.0025       4.966430       0.01159
  11     328.5        0.0361        0.0001        4.9567        4.9568       4.920742       0.01242
  10     361.9        0.0362        0.0001        4.9011        4.9013       4.865102       0.01408
   9     398.1        0.0362        0.0001        4.8311        4.8313       4.795046       0.01632
   8     437.6        0.0363        0.0001        4.7404        4.7405       4.704209       0.01942
   7     480.5        0.0364        0.0002        4.6228        4.6229       4.586466       0.02312
   6     533.0        0.0367        0.0002        4.4521        4.4523       4.415635       0.02748
   5     589.8        0.0370        0.0002        4.2451        4.2452       4.208241       0.03078
   4     651.6        0.0375        0.0002        4.0116        4.0118       3.974269       0.03200
   3     718.7        0.0382        0.0002        3.7679        3.7681       3.729906       0.03071
   2     792.3        0.0393        0.0002        3.5181        3.5183       3.479084       0.02877
   1     891.5        0.0413        0.0002        3.2053        3.2055       3.164226       0.02679
   0    1013.0        0.0449        0.0002        2.8610        2.8612       2.816292       0.02416



 Wavenumbers:  3250. -  4000. cm-1, ATM      1
 LEVEL PRESSURE   UPWARD FLUX   DIFDOWN FLUX  DIRDOWN FLUX  DOWNWARD FLUX   NET FLUX    HEATING RATE
          mb          W/m2          W/m2          W/m2        W/m2          W/m2       degree/day
  51    .06700        0.0021        0.0000        9.1795        9.1795       9.177471       0.00000
  50    .07753        0.0021        0.0000        9.1747        9.1747       9.172602       3.90284
  49    .09103        0.0021        0.0000        9.1713        9.1713       9.169283       2.07465
  48    0.1069        0.0021        0.0000        9.1689        9.1689       9.166876       1.28110
  47    0.1255        0.0021        0.0000        9.1668        9.1668       9.164756       0.96120
  46    0.1487        0.0021        0.0000        9.1645        9.1645       9.162484       0.82828
  45    0.1794        0.0021        0.0000        9.1619        9.1619       9.159814       0.73287
  44    0.2165        0.0021        0.0000        9.1592        9.1592       9.157125       0.61167
  43    0.2613        0.0021        0.0000        9.1565        9.1565       9.154428       0.50840
  42    0.3336        0.0021        0.0000        9.1528        9.1528       9.150731       0.43101
  41    0.4307        0.0021        0.0000        9.1487        9.1487       9.146633       0.35633
  40    0.5894        0.0021        0.0000        9.1428        9.1428       9.140741       0.31334
  39     1.339        0.0021        0.0000        9.1196        9.1196       9.117559       0.26099
  38     1.782        0.0021        0.0000        9.1090        9.1090       9.106975       0.20149
  37     2.292        0.0021        0.0000        6.5345        6.5345       6.532399      42.64169
  36     2.964        0.0021        0.0000        6.1785        6.1785       6.176463       4.46807
  35     3.853        0.0021        0.0000        5.9913        5.9913       5.989252       1.77667
  34     5.035        0.0021        0.0000        5.8708        5.8708       5.868697       0.86119
  33     6.613        0.0021        0.0000        5.7859        5.7859       5.783863       0.45352
  32     8.786        0.0021        0.0000        5.7231        5.7232       5.721078       0.24383
  31     11.80        0.0021        0.0000        5.6722        5.6723       5.670181       0.14250
  30     15.07        0.0021        0.0000        5.6371        5.6371       5.634993       0.09085
  29     18.79        0.0021        0.0000        5.6086        5.6086       5.606538       0.06452
  28     23.16        0.0021        0.0000        5.5819        5.5819       5.579875       0.05156
  27     28.12        0.0021        0.0000        5.5549        5.5549       5.552858       0.04593
  26     33.73        0.0021        0.0000        5.5290        5.5290       5.526962       0.03894
  25     40.54        0.0021        0.0000        5.4897        5.4897       5.487637       0.04879
  24     48.69        0.0020        0.0000        5.4487        5.4487       5.446661       0.04240
  23     57.69        0.0020        0.0001        5.4091        5.4092       5.407113       0.03707
  22     68.43        0.0020        0.0001        5.3678        5.3679       5.365857       0.03243
  21     81.20        0.0020        0.0001        5.3252        5.3253       5.323253       0.02815
  20     96.49        0.0020        0.0001        5.2804        5.2805       5.278448       0.02473
  19     114.6        0.0020        0.0001        5.2302        5.2303       5.228300       0.02342
  18     136.5        0.0020        0.0001        5.1738        5.1739       5.171965       0.02166
  17     162.9        0.0020        0.0001        5.1113        5.1114       5.109475       0.01997
  16     196.4        0.0019        0.0002        5.0297        5.0298       5.027910       0.02053
  15     218.7        0.0019        0.0002        4.9522        4.9524       4.950435       0.02941
  14     243.0        0.0019        0.0002        4.8695        4.8697       4.867762       0.02867
  13     269.0        0.0019        0.0002        4.7455        4.7457       4.743775       0.04022
  12     297.5        0.0019        0.0002        4.5662        4.5664       4.564516       0.05317
  11     328.5        0.0018        0.0002        4.3224        4.3226       4.320746       0.06628
  10     361.9        0.0018        0.0002        4.0127        4.0129       4.011097       0.07834
   9     398.1        0.0018        0.0002        3.6504        3.6506       3.648803       0.08441
   8     437.6        0.0018        0.0002        3.2577        3.2579       3.256077       0.08397
   7     480.5        0.0018        0.0002        2.8542        2.8544       2.852614       0.07924
   6     533.0        0.0019        0.0002        2.4000        2.4002       2.398372       0.07307
   5     589.8        0.0019        0.0002        1.9707        1.9709       1.968959       0.06374
   4     651.6        0.0021        0.0002        1.5656        1.5658       1.563745       0.05541
   3     718.7        0.0023        0.0001        1.1943        1.1945       1.192162       0.04670
   2     792.3        0.0028        0.0001        0.8594        0.8596       0.856801       0.03846
   1     891.5        0.0039        0.0001        0.5270        0.5271       0.523220       0.02839
   0    1013.0        0.0069        0.0000        0.2673        0.2674       0.260453       0.01825



 Wavenumbers:  4000. -  4650. cm-1, ATM      1
 LEVEL PRESSURE   UPWARD FLUX   DIFDOWN FLUX  DIRDOWN FLUX  DOWNWARD FLUX   NET FLUX    HEATING RATE
          mb          W/m2          W/m2          W/m2        W/m2          W/m2       degree/day
  51    .06700        1.3868        0.0000       10.7795       10.7795       9.392720       0.00000
  50    .07753        1.3868        0.0000       10.7795       10.7795       9.392719       0.00080
  49    .09103        1.3868        0.0000       10.7795       10.7795       9.392718       0.00079
  48    0.1069        1.3868        0.0000       10.7795       10.7795       9.392716       0.00077
  47    0.1255        1.3868        0.0000       10.7795       10.7795       9.392715       0.00075
  46    0.1487        1.3868        0.0000       10.7795       10.7795       9.392713       0.00076
  45    0.1794        1.3868        0.0000       10.7795       10.7795       9.392710       0.00079
  44    0.2165        1.3868        0.0000       10.7795       10.7795       9.392706       0.00077
  43    0.2613        1.3868        0.0000       10.7795       10.7795       9.392702       0.00075
  42    0.3336        1.3868        0.0000       10.7795       10.7795       9.392696       0.00078
  41    0.4307        1.3868        0.0000       10.7795       10.7795       9.392687       0.00078
  40    0.5894        1.3868        0.0000       10.7795       10.7795       9.392672       0.00080
  39     1.339        1.3868        0.0000       10.7794       10.7794       9.392581       0.00102
  38     1.782        1.3868        0.0000       10.7793       10.7793       9.392511       0.00134
  37     2.292        1.3868        0.0000       10.7792       10.7792       9.392416       0.00157
  36     2.964        1.3868        0.0000       10.7791       10.7791       9.392274       0.00178
  35     3.853        1.3868        0.0000       10.7789       10.7789       9.392065       0.00199
  34     5.035        1.3868        0.0000       10.7785       10.7786       9.391755       0.00221
  33     6.613        1.3868        0.0000       10.7781       10.7781       9.391299       0.00244
  32     8.786        1.3868        0.0000       10.7774       10.7774       9.390627       0.00261
  31     11.80        1.3868        0.0000       10.7763       10.7764       9.389571       0.00296
  30     15.07        1.3868        0.0001       10.7750       10.7751       9.388332       0.00320
  29     18.79        1.3868        0.0001       10.7735       10.7736       9.386834       0.00340
  28     23.16        1.3868        0.0001       10.7716       10.7717       9.384975       0.00360
  27     28.12        1.3867        0.0001       10.7694       10.7695       9.382725       0.00383
  26     33.73        1.3867        0.0001       10.7666       10.7667       9.379950       0.00417
  25     40.54        1.3867        0.0002       10.7628       10.7629       9.376188       0.00467
  24     48.69        1.3867        0.0002       10.7577       10.7579       9.371177       0.00519
  23     57.69        1.3867        0.0002       10.7517       10.7520       9.365239       0.00557
  22     68.43        1.3867        0.0003       10.7443       10.7445       9.357800       0.00585
  21     81.20        1.3867        0.0003       10.7351       10.7354       9.348646       0.00605
  20     96.49        1.3868        0.0004       10.7239       10.7243       9.337517       0.00614
  19     114.6        1.3869        0.0004       10.7048       10.7052       9.318349       0.00895
  18     136.5        1.3870        0.0005       10.6835       10.6840       9.296949       0.00823
  17     162.9        1.3873        0.0006       10.6592       10.6598       9.272517       0.00781
  16     196.4        1.3876        0.0007       10.6279       10.6287       9.241059       0.00792
  15     218.7        1.3879        0.0008       10.6052       10.6061       9.218140       0.00870
  14     243.0        1.3883        0.0009       10.5807       10.5817       9.193359       0.00859
  13     269.0        1.3888        0.0010       10.5511       10.5521       9.163346       0.00974
  12     297.5        1.3895        0.0011       10.5151       10.5162       9.126713       0.01086
  11     328.5        1.3904        0.0012       10.4708       10.4720       9.081552       0.01228
  10     361.9        1.3917        0.0013       10.4152       10.4165       9.024821       0.01435
   9     398.1        1.3934        0.0015       10.3434       10.3449       8.951468       0.01709
   8     437.6        1.3957        0.0016       10.2496       10.2512       8.855461       0.02053
   7     480.5        1.3986        0.0017       10.1298       10.1316       8.732996       0.02405
   6     533.0        1.4029        0.0019        9.9619        9.9639       8.560935       0.02768
   5     589.8        1.4088        0.0021        9.7688        9.7709       8.362129       0.02951
   4     651.6        1.4170        0.0022        9.5553        9.5576       8.140620       0.03029
   3     718.7        1.4284        0.0024        9.3188        9.3212       7.892789       0.03115
   2     792.3        1.4447        0.0026        9.0408        9.0434       7.598686       0.03373
   1     891.5        1.4760        0.0028        8.6377        8.6405       7.164517       0.03695
   0    1013.0        1.5349        0.0030        8.1663        8.1693       6.634394       0.03681



 Wavenumbers:  4650. -  5150. cm-1, ATM      1
 LEVEL PRESSURE   UPWARD FLUX   DIFDOWN FLUX  DIRDOWN FLUX  DOWNWARD FLUX   NET FLUX    HEATING RATE
          mb          W/m2          W/m2          W/m2        W/m2          W/m2       degree/day
  51    .06700        0.3504        0.0000       10.2033       10.2033       9.852982       0.00000
  50    .07753        0.3504        0.0000       10.2031       10.2031       9.852748       0.18682
  49    .09103        0.3504        0.0000       10.2028       10.2028       9.852457       0.18215
  48    0.1069        0.3504        0.0000       10.2025       10.2025       9.852124       0.17724
  47    0.1255        0.3504        0.0000       10.2021       10.2021       9.851744       0.17226
  46    0.1487        0.3504        0.0000       10.2016       10.2016       9.851268       0.17335
  45    0.1794        0.3504        0.0000       10.2010       10.2010       9.850626       0.17647
  44    0.2165        0.3504        0.0000       10.2002       10.2002       9.849875       0.17081
  43    0.2613        0.3504        0.0000       10.1994       10.1994       9.848999       0.16502
  42    0.3336        0.3504        0.0000       10.1979       10.1979       9.847583       0.16515
  41    0.4307        0.3504        0.0000       10.1961       10.1961       9.845763       0.15824
  40    0.5894        0.3504        0.0000       10.1933       10.1933       9.842921       0.15114
  39     1.339        0.3503        0.0000       10.1818       10.1818       9.831454       0.12910
  38     1.782        0.3503        0.0000       10.1763       10.1763       9.825983       0.10416
  37     2.292        0.3503        0.0000       10.1709       10.1709       9.820582       0.08945
  36     2.964        0.3503        0.0000       10.1650       10.1651       9.814718       0.07362
  35     3.853        0.3503        0.0000       10.1589       10.1589       9.808562       0.05842
  34     5.035        0.3503        0.0000       10.1526       10.1526       9.802280       0.04487
  33     6.613        0.3503        0.0000       10.1461       10.1462       9.795871       0.03426
  32     8.786        0.3503        0.0001       10.1392       10.1392       9.788903       0.02706
  31     11.80        0.3503        0.0001       10.1301       10.1302       9.779907       0.02519
  30     15.07        0.3503        0.0001       10.1203       10.1204       9.770073       0.02539
  29     18.79        0.3503        0.0001       10.1083       10.1084       9.758118       0.02710
  28     23.16        0.3502        0.0001       10.0930       10.0931       9.742882       0.02946
  27     28.12        0.3502        0.0002       10.0739       10.0741       9.723875       0.03231
  26     33.73        0.3502        0.0002       10.0509       10.0511       9.700888       0.03456
  25     40.54        0.3502        0.0002       10.0211       10.0213       9.671127       0.03692
  24     48.69        0.3502        0.0003        9.9830        9.9833       9.633141       0.03931
  23     57.69        0.3501        0.0003        9.9396        9.9400       9.589822       0.04061
  22     68.43        0.3501        0.0004        9.8871        9.8875       9.537367       0.04124
  21     81.20        0.3501        0.0004        9.8250        9.8254       9.475324       0.04100
  20     96.49        0.3501        0.0005        9.7535        9.7540       9.403936       0.03940
  19     114.6        0.3501        0.0006        9.6720        9.6727       9.322552       0.03800
  18     136.5        0.3501        0.0007        9.5846        9.5853       9.235201       0.03359
  17     162.9        0.3502        0.0009        9.4919        9.4928       9.142616       0.02959
  16     196.4        0.3503        0.0010        9.3854        9.3864       9.036133       0.02680
  15     218.7        0.3504        0.0011        9.3195        9.3206       8.970179       0.02504
  14     243.0        0.3505        0.0012        9.2499        9.2512       8.900645       0.02412
  13     269.0        0.3507        0.0014        9.1740        9.1754       8.824613       0.02466
  12     297.5        0.3510        0.0015        9.0888        9.0903       8.739241       0.02532
  11     328.5        0.3514        0.0016        8.9911        8.9928       8.641376       0.02661
  10     361.9        0.3519        0.0018        8.8770        8.8788       8.526851       0.02898
   9     398.1        0.3527        0.0019        8.7439        8.7459       8.393204       0.03114
   8     437.6        0.3536        0.0021        8.5892        8.5913       8.237658       0.03326
   7     480.5        0.3549        0.0022        8.4090        8.4112       8.056258       0.03563
   6     533.0        0.3569        0.0024        8.1703        8.1728       7.815829       0.03868
   5     589.8        0.3597        0.0026        7.8977        7.9004       7.540663       0.04084
   4     651.6        0.3635        0.0028        7.5928        7.5956       7.232087       0.04220
   3     718.7        0.3687        0.0029        7.2665        7.2694       6.900740       0.04164
   2     792.3        0.3758        0.0031        6.9263        6.9294       6.553589       0.03981
   1     891.5        0.3886        0.0033        6.4968        6.5000       6.111406       0.03763
   0    1013.0        0.4105        0.0035        6.0344        6.0378       5.627300       0.03361



 Wavenumbers:  5150. -  6150. cm-1, ATM      1
 LEVEL PRESSURE   UPWARD FLUX   DIFDOWN FLUX  DIRDOWN FLUX  DOWNWARD FLUX   NET FLUX    HEATING RATE
          mb          W/m2          W/m2          W/m2        W/m2          W/m2       degree/day
  51    .06700        2.8825        0.0000       25.5798       25.5798      22.697365       0.00000
  50    .07753        2.8825        0.0000       25.5798       25.5798      22.697364       0.00019
  49    .09103        2.8825        0.0000       25.5798       25.5798      22.697364       0.00019
  48    0.1069        2.8825        0.0000       25.5798       25.5798      22.697364       0.00018
  47    0.1255        2.8825        0.0000       25.5798       25.5798      22.697363       0.00018
  46    0.1487        2.8825        0.0000       25.5798       25.5798      22.697363       0.00018
  45    0.1794        2.8825        0.0000       25.5798       25.5798      22.697362       0.00019
  44    0.2165        2.8825        0.0000       25.5798       25.5798      22.697361       0.00019
  43    0.2613        2.8825        0.0000       25.5798       25.5798      22.697360       0.00018
  42    0.3336        2.8825        0.0000       25.5798       25.5798      22.697359       0.00019
  41    0.4307        2.8824        0.0000       25.5798       25.5798      22.697357       0.00019
  40    0.5894        2.8824        0.0000       25.5798       25.5798      22.697353       0.00019
  39     1.339        2.8824        0.0000       25.5797       25.5798      22.697331       0.00025
  38     1.782        2.8824        0.0000       25.5797       25.5797      22.697314       0.00033
  37     2.292        2.8832        0.0001       23.3725       23.3725      20.489293      36.57059
  36     2.964        2.8836        0.0001       23.1136       23.1137      20.230093       3.25375
  35     3.853        2.8838        0.0001       22.9680       22.9681      20.084275       1.38384
  34     5.035        2.8840        0.0001       22.8718       22.8720      19.987996       0.68777
  33     6.613        2.8841        0.0002       22.8041       22.8043      19.920223       0.36232
  32     8.786        2.8842        0.0002       22.7550       22.7553      19.871084       0.19084
  31     11.80        2.8842        0.0003       22.7167       22.7170      19.832799       0.10718
  30     15.07        2.8843        0.0004       22.6918       22.6922      19.807938       0.06419
  29     18.79        2.8843        0.0005       22.6734       22.6739      19.789576       0.04163
  28     23.16        2.8843        0.0006       22.6579       22.6585      19.774190       0.02975
  27     28.12        2.8843        0.0007       22.6439       22.6446      19.760320       0.02358
  26     33.73        2.8843        0.0008       22.6310       22.6318      19.747551       0.01920
  25     40.54        2.8843        0.0010       22.6102       22.6112      19.726899       0.02562
  24     48.69        2.8843        0.0012       22.5889       22.5901      19.705767       0.02187
  23     57.69        2.8844        0.0014       22.5690       22.5704      19.686051       0.01848
  22     68.43        2.8844        0.0016       22.5489       22.5505      19.666107       0.01568
  21     81.20        2.8845        0.0020       22.5285       22.5304      19.645945       0.01332
  20     96.49        2.8845        0.0023       22.5076       22.5099      19.625410       0.01133
  19     114.6        2.8846        0.0027       22.4848       22.4875      19.602914       0.01050
  18     136.5        2.8847        0.0033       22.4590       22.4622      19.577524       0.00976
  17     162.9        2.8848        0.0039       22.4304       22.4343      19.549426       0.00898
  16     196.4        2.8850        0.0046       22.3927       22.3973      19.512365       0.00933
  15     218.7        2.8851        0.0052       22.3547       22.3599      19.474769       0.01427
  14     243.0        2.8852        0.0057       22.3126       22.3183      19.433066       0.01446
  13     269.0        2.8854        0.0063       22.2416       22.2480      19.362555       0.02287
  12     297.5        2.8857        0.0070       22.1229       22.1298      19.244183       0.03511
  11     328.5        2.8861        0.0076       21.9313       21.9389      19.052842       0.05203
  10     361.9        2.8866        0.0083       21.6337       21.6420      18.755354       0.07527
   9     398.1        2.8875        0.0090       21.1988       21.2078      18.320243       0.10137
   8     437.6        2.8889        0.0096       20.6056       20.6152      17.726391       0.12697
   7     480.5        2.8909        0.0102       19.8587       19.8689      16.978072       0.14697
   6     533.0        2.8945        0.0108       18.8595       18.8704      15.975884       0.16122
   5     589.8        2.9003        0.0114       17.7991       17.8105      14.910178       0.15819
   4     651.6        2.9099        0.0119       16.7685       16.7804      13.870459       0.14218
   3     718.7        2.9250        0.0125       15.8712       15.8837      12.958728       0.11458
   2     792.3        2.9489        0.0131       15.1219       15.1350      12.186096       0.08861
   1     891.5        2.9982        0.0141       14.3815       14.3956      11.397433       0.06711
   0    1013.0        3.0953        0.0154       13.7022       13.7176      10.622260       0.05382



 Wavenumbers:  6150. -  7700. cm-1, ATM      1
 LEVEL PRESSURE   UPWARD FLUX   DIFDOWN FLUX  DIRDOWN FLUX  DOWNWARD FLUX   NET FLUX    HEATING RATE
          mb          W/m2          W/m2          W/m2        W/m2          W/m2       degree/day
  51    .06700        4.9270        0.0000       47.3109       47.3109      42.383836       0.00000
  50    .07753        4.9270        0.0000       47.3108       47.3108      42.383820       0.01303
  49    .09103        4.9270        0.0000       47.3108       47.3108      42.383800       0.01277
  48    0.1069        4.9270        0.0000       47.3108       47.3108      42.383776       0.01250
  47    0.1255        4.9270        0.0000       47.3108       47.3108      42.383749       0.01223
  46    0.1487        4.9270        0.0000       47.3107       47.3107      42.383715       0.01241
  45    0.1794        4.9270        0.0000       47.3107       47.3107      42.383669       0.01276
  44    0.2165        4.9270        0.0000       47.3106       47.3106      42.383614       0.01252
  43    0.2613        4.9270        0.0000       47.3105       47.3106      42.383548       0.01228
  42    0.3336        4.9270        0.0000       47.3104       47.3104      42.383441       0.01256
  41    0.4307        4.9270        0.0000       47.3102       47.3103      42.383298       0.01242
  40    0.5894        4.9270        0.0001       47.3100       47.3100      42.383065       0.01240
  39     1.339        4.9269        0.0001       47.3087       47.3089      42.381963       0.01240
  38     1.782        4.9269        0.0002       47.3080       47.3082      42.381317       0.01230
  37     2.292        4.9279        0.0003       43.4376       43.4379      38.509985      64.11935
  36     2.964        4.9284        0.0004       43.0990       43.0994      38.171063       4.25450
  35     3.853        4.9286        0.0005       42.9093       42.9098      37.981155       1.80227
  34     5.035        4.9287        0.0006       42.7851       42.7857      37.856918       0.88749
  33     6.613        4.9288        0.0008       42.6982       42.6990      37.770193       0.46363
  32     8.786        4.9287        0.0010       42.6355       42.6365      37.707797       0.24232
  31     11.80        4.9286        0.0013       42.5870       42.5883      37.659719       0.13461
  30     15.07        4.9284        0.0016       42.5556       42.5573      37.628907       0.07955
  29     18.79        4.9281        0.0020       42.5325       42.5345      37.606442       0.05093
  28     23.16        4.9277        0.0024       42.5131       42.5156      37.587843       0.03596
  27     28.12        4.9274        0.0030       42.4957       42.4986      37.571275       0.02816
  26     33.73        4.9269        0.0035       42.4797       42.4832      37.556343       0.02245
  25     40.54        4.9264        0.0042       42.4547       42.4589      37.532525       0.02955
  24     48.69        4.9257        0.0050       42.4295       42.4345      37.508802       0.02455
  23     57.69        4.9250        0.0059       42.4062       42.4122      37.487153       0.02029
  22     68.43        4.9241        0.0070       42.3827       42.3897      37.465612       0.01693
  21     81.20        4.9231        0.0083       42.3588       42.3671      37.444026       0.01426
  20     96.49        4.9218        0.0099       42.3340       42.3438      37.422034       0.01214
  19     114.6        4.9203        0.0117       42.3052       42.3169      37.396547       0.01190
  18     136.5        4.9186        0.0139       42.2713       42.2851      37.366577       0.01152
  17     162.9        4.9165        0.0165       42.2311       42.2476      37.331106       0.01134
  16     196.4        4.9138        0.0198       42.1740       42.1938      37.280056       0.01285
  15     218.7        4.9120        0.0220       42.1137       42.1357      37.223715       0.02139
  14     243.0        4.9102        0.0244       42.0453       42.0698      37.159608       0.02223
  13     269.0        4.9083        0.0270       41.9308       41.9578      37.049560       0.03570
  12     297.5        4.9064        0.0298       41.7404       41.7702      36.863779       0.05510
  11     328.5        4.9046        0.0326       41.4322       41.4649      36.560264       0.08252
  10     361.9        4.9032        0.0356       40.9476       40.9832      36.079975       0.12152
   9     398.1        4.9025        0.0386       40.2213       40.2598      35.357360       0.16835
   8     437.6        4.9029        0.0414       39.1973       39.2387      34.335789       0.21842
   7     480.5        4.9052        0.0440       37.8613       37.9053      33.000116       0.26232
   6     533.0        4.9116        0.0467       36.0123       36.0590      31.147319       0.29806
   5     589.8        4.9245        0.0490       33.9457       33.9947      29.070174       0.30832
   4     651.6        4.9482        0.0510       31.7624       31.8134      26.865183       0.30154
   3     718.7        4.9877        0.0529       29.6497       29.7025      24.714862       0.27024
   2     792.3        5.0529        0.0547       27.6461       27.7007      22.647860       0.23706
   1     891.5        5.1930        0.0570       25.3759       25.4329      20.239872       0.20491
   0    1013.0        5.4901        0.0597       23.2036       23.2632      17.773134       0.17128



 Wavenumbers:  7700. -  8050. cm-1, ATM      1
 LEVEL PRESSURE   UPWARD FLUX   DIFDOWN FLUX  DIRDOWN FLUX  DOWNWARD FLUX   NET FLUX    HEATING RATE
          mb          W/m2          W/m2          W/m2        W/m2          W/m2       degree/day
  51    .06700        5.7418        0.0000       11.1810       11.1810       5.439145       0.00000
  50    .07753        5.7418        0.0000       11.1809       11.1810       5.439123       0.01738
  49    .09103        5.7418        0.0000       11.1809       11.1809       5.439096       0.01704
  48    0.1069        5.7418        0.0000       11.1809       11.1809       5.439064       0.01668
  47    0.1255        5.7418        0.0000       11.1809       11.1809       5.439028       0.01632
  46    0.1487        5.7419        0.0000       11.1808       11.1808       5.438983       0.01656
  45    0.1794        5.7419        0.0000       11.1808       11.1808       5.438921       0.01704
  44    0.2165        5.7419        0.0000       11.1807       11.1807       5.438847       0.01672
  43    0.2613        5.7419        0.0000       11.1806       11.1806       5.438760       0.01640
  42    0.3336        5.7419        0.0000       11.1805       11.1805       5.438616       0.01679
  41    0.4307        5.7419        0.0000       11.1804       11.1804       5.438425       0.01660
  40    0.5894        5.7420        0.0000       11.1801       11.1801       5.438114       0.01658
  39     1.339        5.7422        0.0001       11.1788       11.1789       5.436638       0.01661
  38     1.782        5.7424        0.0001       11.1781       11.1782       5.435772       0.01650
  37     2.292        5.7425        0.0002       11.1772       11.1773       5.434768       0.01661
  36     2.964        5.7428        0.0002       11.1760       11.1762       5.433451       0.01653
  35     3.853        5.7431        0.0003       11.1745       11.1748       5.431711       0.01651
  34     5.035        5.7434        0.0003       11.1725       11.1728       5.429400       0.01651
  33     6.613        5.7440        0.0004       11.1699       11.1703       5.426313       0.01650
  32     8.786        5.7447        0.0005       11.1663       11.1668       5.422155       0.01615
  31     11.80        5.7457        0.0007       11.1612       11.1619       5.416210       0.01664
  30     15.07        5.7468        0.0009       11.1557       11.1566       5.409833       0.01647
  29     18.79        5.7480        0.0011       11.1496       11.1507       5.402636       0.01632
  28     23.16        5.7495        0.0013       11.1424       11.1437       5.394241       0.01623
  27     28.12        5.7511        0.0016       11.1342       11.1358       5.384656       0.01629
  26     33.73        5.7530        0.0019       11.1251       11.1270       5.373950       0.01610
  25     40.54        5.7553        0.0023       11.1141       11.1163       5.361047       0.01601
  24     48.69        5.7580        0.0027       11.1009       11.1036       5.345536       0.01605
  23     57.69        5.7611        0.0032       11.0864       11.0896       5.328557       0.01592
  22     68.43        5.7647        0.0038       11.0694       11.0731       5.308416       0.01583
  21     81.20        5.7691        0.0045       11.0492       11.0536       5.284538       0.01578
  20     96.49        5.7744        0.0053       11.0253       11.0306       5.256251       0.01561
  19     114.6        5.7807        0.0062       10.9973       11.0035       5.222854       0.01559
  18     136.5        5.7883        0.0074       10.9644       10.9719       5.183592       0.01510
  17     162.9        5.7974        0.0088       10.9259       10.9347       5.137270       0.01481
  16     196.4        5.8095        0.0106       10.8768       10.8874       5.077849       0.01496
  15     218.7        5.8176        0.0117       10.8451       10.8568       5.039163       0.01469
  14     243.0        5.8265        0.0130       10.8110       10.8239       4.997410       0.01448
  13     269.0        5.8363        0.0143       10.7744       10.7888       4.952444       0.01459
  12     297.5        5.8472        0.0158       10.7354       10.7513       4.904114       0.01433
  11     328.5        5.8591        0.0174       10.6938       10.7112       4.852115       0.01414
  10     361.9        5.8723        0.0191       10.6494       10.6685       4.796265       0.01413
   9     398.1        5.8868        0.0210       10.6020       10.6230       4.736161       0.01400
   8     437.6        5.9030        0.0230       10.5515       10.5744       4.671374       0.01385
   7     480.5        5.9211        0.0251       10.4974       10.5225       4.601338       0.01375
   6     533.0        5.9446        0.0277       10.4307       10.4583       4.513781       0.01409
   5     589.8        5.9714        0.0305       10.3581       10.3886       4.417181       0.01434
   4     651.6        6.0024        0.0335       10.2789       10.3124       4.310028       0.01465
   3     718.7        6.0383        0.0367       10.1921       10.2288       4.190564       0.01501
   2     792.3        6.0801        0.0401       10.0966       10.1367       4.056599       0.01536
   1     891.5        6.1427        0.0447        9.9635       10.0082       3.865521       0.01626
   0    1013.0        6.2272        0.0502        9.7978        9.8480       3.620753       0.01700



 Wavenumbers:  8050. - 12850. cm-1, ATM      1
 LEVEL PRESSURE   UPWARD FLUX   DIFDOWN FLUX  DIRDOWN FLUX  DOWNWARD FLUX   NET FLUX    HEATING RATE
          mb          W/m2          W/m2          W/m2        W/m2          W/m2       degree/day
  51    .06700      106.7742        0.0000      156.5418      156.5418      49.767527       0.00000
  50    .07753      106.7742        0.0000      156.5417      156.5417      49.767527       0.00000
  49    .09103      106.7742        0.0001      156.5417      156.5417      49.767527      -0.00000
  48    0.1069      106.7742        0.0001      156.5416      156.5417      49.767527       0.00000
  47    0.1255      106.7742        0.0002      156.5415      156.5417      49.767527      -0.00000
  46    0.1487      106.7741        0.0002      156.5414      156.5417      49.767527       0.00000
  45    0.1794      106.7741        0.0003      156.5413      156.5416      49.767527       0.00000
  44    0.2165      106.7741        0.0004      156.5412      156.5416      49.767527       0.00000
  43    0.2613      106.7740        0.0006      156.5410      156.5416      49.767527       0.00000
  42    0.3336      106.7740        0.0008      156.5407      156.5415      49.767527      -0.00000
  41    0.4307      106.7739        0.0011      156.5403      156.5414      49.767527       0.00000
  40    0.5894      106.7737        0.0015      156.5397      156.5412      49.767527       0.00000
  39     1.339      106.7729        0.0037      156.5367      156.5405      49.767527      -0.00000
  38     1.782      106.7725        0.0050      156.5350      156.5400      49.767527       0.00000
  37     2.292      106.7715        0.0081      156.5309      156.5390      49.767527       0.00000
  36     2.964      106.7706        0.0106      156.5276      156.5381      49.767527      -0.00000
  35     3.853      106.7696        0.0134      156.5237      156.5372      49.767527       0.00000
  34     5.035      106.7684        0.0170      156.5189      156.5359      49.767527       0.00000
  33     6.613      106.7668        0.0217      156.5126      156.5343      49.767527      -0.00000
  32     8.786      106.7646        0.0280      156.5041      156.5322      49.767527       0.00000
  31     11.80      106.7616        0.0370      156.4921      156.5291      49.767527       0.00000
  30     15.07      106.7583        0.0466      156.4792      156.5258      49.767527       0.00000
  29     18.79      106.7546        0.0574      156.4646      156.5221      49.767527      -0.00000
  28     23.16      106.7502        0.0701      156.4476      156.5178      49.767527       0.00000
  27     28.12      106.7453        0.0847      156.4281      156.5128      49.767527       0.00000
  26     33.73      106.7397        0.1009      156.4063      156.5072      49.767527       0.00000
  25     40.54      106.7329        0.1206      156.3798      156.5005      49.767527      -0.00000
  24     48.69      106.7248        0.1444      156.3479      156.4923      49.767527      -0.00000
  23     57.69      106.7158        0.1706      156.3128      156.4834      49.767527       0.00000
  22     68.43      106.7052        0.2018      156.2709      156.4727      49.767527      -0.00000
  21     81.20      106.6924        0.2390      156.2210      156.4599      49.767527       0.00000
  20     96.49      106.6772        0.2834      156.1613      156.4447      49.767527      -0.00000
  19     114.6      106.6627        0.3362      156.0078      156.3440      49.681268       0.04028
  18     136.5      106.6446        0.3989      155.8456      156.2445      49.599855       0.03131
  17     162.9      106.6218        0.4737      155.6711      156.1448      49.522972       0.02457
  16     196.4      106.5909        0.5710      155.4531      156.0241      49.433159       0.02261
  15     218.7      106.5708        0.6350      155.2795      155.9145      49.343706       0.03396
  14     243.0      106.5487        0.7047      155.0990      155.8037      49.254931       0.03079
  13     269.0      106.5260        0.7802      154.8607      155.6410      49.114972       0.04540
  12     297.5      106.5036        0.8620      154.5472      155.4092      48.905585       0.06210
  11     328.5      106.4828        0.9502      154.1403      155.0905      48.607677       0.08100
  10     361.9      106.4664        1.0452      153.6180      154.6631      48.196728       0.10397
   9     398.1      106.4583        1.1471      152.9460      154.0930      47.634710       0.13094
   8     437.6      106.4650        1.2560      152.0719      153.3278      46.862793       0.16504
   7     480.5      106.4964        1.3717      150.9313      152.3030      45.806610       0.20743
   6     533.0      106.5808        1.5125      149.2432      150.7557      44.174992       0.26248
   5     589.8      106.7454        1.6617      147.1146      148.7763      42.030900       0.31825
   4     651.6      107.0406        1.8186      144.4791      146.2977      39.257140       0.37932
   3     718.7      107.5231        1.9827      141.4095      143.3922      35.869094       0.42578
   2     792.3      108.3010        2.1535      137.9221      140.0756      31.774521       0.46960
   1     891.5      109.9043        2.3763      133.1703      135.5466      25.642291       0.52182
   0    1013.0      112.9497        2.6345      127.6956      130.3301      17.380393       0.57367



 Wavenumbers: 12850. - 16000. cm-1, ATM      1
 LEVEL PRESSURE   UPWARD FLUX   DIFDOWN FLUX  DIRDOWN FLUX  DOWNWARD FLUX   NET FLUX    HEATING RATE
          mb          W/m2          W/m2          W/m2        W/m2          W/m2       degree/day
  51    .06700       83.1289        0.0000       98.0872       98.0872      14.958338       0.00000
  50    .07753       83.1289        0.0001       98.0864       98.0864      14.957544       0.63607
  49    .09103       83.1289        0.0002       98.0853       98.0855      14.956547       0.62321
  48    0.1069       83.1289        0.0003       98.0841       98.0843      14.955401       0.61014
  47    0.1255       83.1289        0.0004       98.0826       98.0830      14.954083       0.59739
  46    0.1487       83.1290        0.0005       98.0809       98.0814      14.952419       0.60661
  45    0.1794       83.1290        0.0007       98.0784       98.0792      14.950154       0.62194
  44    0.2165       83.1291        0.0010       98.0756       98.0766      14.947486       0.60675
  43    0.2613       83.1293        0.0013       98.0723       98.0736      14.944347       0.59183
  42    0.3336       83.1296        0.0018       98.0670       98.0688      14.939216       0.59820
  41    0.4307       83.1300        0.0024       98.0602       98.0626      14.932571       0.57771
  40    0.5894       83.1309        0.0034       98.0496       98.0530      14.922080       0.55794
  39     1.339       83.1385        0.0083       98.0043       98.0127      14.874185       0.53920
  38     1.782       83.1453        0.0112       97.9793       97.9905      14.845203       0.55178
  37     2.292       83.1544        0.0180       97.9454       97.9634      14.808949       0.60046
  36     2.964       83.1707        0.0235       97.9030       97.9265      14.755745       0.66787
  35     3.853       83.1973        0.0299       97.8438       97.8736      14.676334       0.75362
  34     5.035       83.2374        0.0379       97.7610       97.7989      14.561490       0.82040
  33     6.613       83.2934        0.0483       97.6489       97.6972      14.403884       0.84256
  32     8.786       83.3663        0.0622       97.5033       97.5655      14.199150       0.79511
  31     11.80       83.4615        0.0820       97.3103       97.3924      13.930876       0.75108
  30     15.07       83.5529        0.1032       97.1207       97.2240      13.671118       0.67065
  29     18.79       83.6463        0.1271       96.9224       97.0495      13.403184       0.60749
  28     23.16       83.7443        0.1550       96.7089       96.8639      13.119599       0.54836
  27     28.12       83.8433        0.1869       96.4858       96.6727      12.829398       0.49332
  26     33.73       83.9353        0.2225       96.2654       96.4880      12.552633       0.41612
  25     40.54       84.0248        0.2656       96.0331       96.2987      12.273920       0.34578
  24     48.69       84.1116        0.3176       95.7869       96.1045      11.992859       0.29085
  23     57.69       84.1866        0.3747       95.5495       95.9243      11.737684       0.23919
  22     68.43       84.2538        0.4428       95.3029       95.7456      11.491845       0.19326
  21     81.20       84.3036        0.5239       95.0566       95.5805      11.276964       0.14199
  20     96.49       84.3349        0.6208       94.8075       95.4283      11.093404       0.10131
  19     114.6       84.3694        0.7369       94.5321       95.2690      10.899559       0.09051
  18     136.5       84.3985        0.8745       94.2219       95.0964      10.697878       0.07755
  17     162.9       84.4224        1.0384       93.8643       94.9026      10.480208       0.06958
  16     196.4       84.4305        1.2509       93.4225       94.6735      10.242975       0.05971
  15     218.7       84.4278        1.3905       93.1385       94.5290      10.101273       0.05380
  14     243.0       84.4212        1.5422       92.8321       94.3743       9.953160       0.05137
  13     269.0       84.4106        1.7066       92.5023       94.2089       9.798315       0.05023
  12     297.5       84.3963        1.8843       92.1474       94.0317       9.635470       0.04830
  11     328.5       84.3803        2.0763       91.7637       93.8400       9.459646       0.04781
  10     361.9       84.3637        2.2830       91.3491       93.6321       9.268406       0.04839
   9     398.1       84.3475        2.5054       90.9006       93.4061       9.058601       0.04888
   8     437.6       84.3340        2.7443       90.4133       93.1576       8.823580       0.05025
   7     480.5       84.3261        3.0003       89.8821       92.8823       8.556277       0.05250
   6     533.0       84.3290        3.3151       89.2105       92.5256       8.196602       0.05786
   5     589.8       84.3529        3.6540       88.4603       92.1143       7.761339       0.06461
   4     651.6       84.4111        4.0174       87.6145       91.6319       7.220805       0.07392
   3     718.7       84.5168        4.4060       86.6659       91.0719       6.555107       0.08366
   2     792.3       84.6961        4.8193       85.5989       90.4182       5.722086       0.09554
   1     891.5       85.0680        5.3715       84.0923       89.4638       4.395833       0.11286
   0    1013.0       85.7142        6.0273       82.2609       88.2882       2.574042       0.12650



 Wavenumbers: 16000. - 22650. cm-1, ATM      1
 LEVEL PRESSURE   UPWARD FLUX   DIFDOWN FLUX  DIRDOWN FLUX  DOWNWARD FLUX   NET FLUX    HEATING RATE
          mb          W/m2          W/m2          W/m2        W/m2          W/m2       degree/day
  51    .06700      141.4476        0.0000      156.3892      156.3892      14.941692       0.00000
  50    .07753      141.4475        0.0004      156.3887      156.3891      14.941543       0.11877
  49    .09103      141.4475        0.0009      156.3879      156.3888      14.941328       0.13471
  48    0.1069      141.4475        0.0015      156.3871      156.3885      14.941039       0.15362
  47    0.1255      141.4475        0.0021      156.3861      156.3882      14.940653       0.17510
  46    0.1487      141.4476        0.0030      156.3847      156.3877      14.940084       0.20749
  45    0.1794      141.4477        0.0041      156.3828      156.3869      14.939194       0.24431
  44    0.2165      141.4479        0.0054      156.3805      156.3859      14.937987       0.27458
  43    0.2613      141.4483        0.0070      156.3776      156.3846      14.936349       0.30869
  42    0.3336      141.4491        0.0097      156.3726      156.3823      14.933236       0.36301
  41    0.4307      141.4503        0.0132      156.3657      156.3789      14.928542       0.40807
  40    0.5894      141.4530        0.0189      156.3537      156.3725      14.919592       0.47599
  39     1.339      141.4758        0.0459      156.2834      156.3293      14.853462       0.74450
  38     1.782      141.4970        0.0617      156.2324      156.2941      14.797128       1.07252
  37     2.292      141.5243        0.0991      156.1407      156.2398      14.715584       1.35058
  36     2.964      141.5755        0.1293      156.0296      156.1589      14.583484       1.65825
  35     3.853      141.6597        0.1642      155.8694      156.0336      14.373875       1.98923
  34     5.035      141.7875        0.2082      155.6405      155.8487      14.061153       2.23396
  33     6.613      141.9665        0.2656      155.3275      155.5930      13.626555       2.32336
  32     8.786      142.1997        0.3419      154.9188      155.2607      13.061037       2.19627
  31     11.80      142.5034        0.4505      154.3760      154.8265      12.323168       2.06580
  30     15.07      142.7943        0.5667      153.8410      154.4077      11.613344       1.83263
  29     18.79      143.0915        0.6977      153.2796      153.9773      10.885824       1.64951
  28     23.16      143.4021        0.8503      152.6731      153.5235      10.121369       1.47821
  27     28.12      143.7147        1.0246      152.0361      153.0608       9.346064       1.31797
  26     33.73      144.0033        1.2195      151.4017      152.6211       8.617800       1.09496
  25     40.54      144.2812        1.4547      150.7245      152.1792       7.897995       0.89300
  24     48.69      144.5473        1.7379      149.9948      151.7327       7.185359       0.73747
  23     57.69      144.7732        2.0487      149.2762      151.3249       6.551737       0.59393
  22     68.43      144.9703        2.4185      148.5088      150.9272       5.956918       0.46761
  21     81.20      145.1068        2.8587      147.7130      150.5717       5.464852       0.32515
  20     96.49      145.1782        3.3827      146.8742      150.2569       5.078695       0.21313
  19     114.6      145.2159        4.0032      145.9379      149.9410       4.725185       0.16506
  18     136.5      145.2288        4.7358      144.8704      149.6062       4.377418       0.13372
  17     162.9      145.2154        5.6041      143.6404      149.2445       4.029074       0.11134
  16     196.4      145.1359        6.7245      142.1271      148.8516       3.715733       0.07887
  15     218.7      145.0610        7.4567      141.1656      148.6223       3.561299       0.05863
  14     243.0      144.9689        8.2492      140.1380      148.3871       3.418207       0.04963
  13     269.0      144.8582        9.1041      139.0431      148.1472       3.288963       0.04193
  12     297.5      144.7280       10.0235      137.8789      147.9023       3.174349       0.03399
  11     328.5      144.5824       11.0116      136.6344      147.6461       3.063652       0.03010
  10     361.9      144.4211       12.0695      135.3088      147.3783       2.957154       0.02695
   9     398.1      144.2436       13.2011      133.8968      147.0979       2.854279       0.02397
   8     437.6      144.0507       14.4084      132.3947      146.8031       2.752483       0.02176
   7     480.5      143.8418       15.6936      130.7999      146.4935       2.651734       0.01979
   6     533.0      143.5839       17.2633      128.8555      146.1188       2.534859       0.01880
   5     589.8      143.3078       18.9404      126.7789      145.7193       2.411474       0.01831
   4     651.6      143.0156       20.7262      124.5660      145.2921       2.276515       0.01846
   3     718.7      142.7085       22.6224      122.2130      144.8354       2.126853       0.01881
   2     792.3      142.3910       24.6272      119.7180      144.3452       1.954212       0.01980
   1     891.5      141.9848       27.2901      116.3891      143.6792       1.694427       0.02211
   0    1013.0      141.5261       30.4228      112.4583      142.8810       1.354978       0.02357



 Wavenumbers: 22650. - 29000. cm-1, ATM      1
 LEVEL PRESSURE   UPWARD FLUX   DIFDOWN FLUX  DIRDOWN FLUX  DOWNWARD FLUX   NET FLUX    HEATING RATE
          mb          W/m2          W/m2          W/m2        W/m2          W/m2       degree/day
  51    .06700       58.6820        0.0000       59.0156       59.0156       0.333639       0.00000
  50    .07753       58.6819        0.0005       59.0151       59.0155       0.333639      -0.00000
  49    .09103       58.6818        0.0010       59.0144       59.0154       0.333639       0.00000
  48    0.1069       58.6816        0.0017       59.0136       59.0153       0.333639       0.00000
  47    0.1255       58.6815        0.0025       59.0127       59.0151       0.333639       0.00000
  46    0.1487       58.6813        0.0035       59.0115       59.0149       0.333639       0.00000
  45    0.1794       58.6811        0.0048       59.0099       59.0147       0.333639      -0.00000
  44    0.2165       58.6807        0.0063       59.0080       59.0144       0.333639       0.00000
  43    0.2613       58.6804        0.0082       59.0058       59.0140       0.333639      -0.00000
  42    0.3336       58.6798        0.0113       59.0022       59.0134       0.333639       0.00000
  41    0.4307       58.6790        0.0154       58.9973       59.0127       0.333639       0.00000
  40    0.5894       58.6777        0.0220       58.9894       59.0114       0.333639      -0.00000
  39     1.339       58.6717        0.0535       58.9518       59.0053       0.333639       0.00000
  38     1.782       58.6681        0.0720       58.9297       59.0017       0.333639       0.00000
  37     2.292       58.6597        0.1157       58.8777       58.9933       0.333639      -0.00000
  36     2.964       58.6529        0.1509       58.8357       58.9866       0.333639       0.00000
  35     3.853       58.6451        0.1917       58.7871       58.9787       0.333639       0.00000
  34     5.035       58.6352        0.2430       58.7258       58.9688       0.333639      -0.00000
  33     6.613       58.6223        0.3101       58.6459       58.9559       0.333639       0.00000
  32     8.786       58.6051        0.3994       58.5394       58.9387       0.333639      -0.00000
  31     11.80       58.5806        0.5263       58.3879       58.9143       0.333639       0.00000
  30     15.07       58.5545        0.6621       58.2260       58.8881       0.333639       0.00000
  29     18.79       58.5250        0.8151       58.0435       58.8587       0.333639       0.00000
  28     23.16       58.4907        0.9933       57.8310       58.8244       0.333639      -0.00000
  27     28.12       58.4516        1.1964       57.5888       58.7852       0.333639       0.00000
  26     33.73       58.4080        1.4229       57.3187       58.7416       0.333639       0.00000
  25     40.54       58.3555        1.6955       56.9937       58.6891       0.333639      -0.00000
  24     48.69       58.2925        2.0223       56.6039       58.6262       0.333639       0.00000
  23     57.69       58.2238        2.3790       56.1784       58.5574       0.333639       0.00000
  22     68.43       58.1425        2.8009       55.6753       58.4762       0.333639       0.00000
  21     81.20       58.0465        3.2991       55.0811       58.3802       0.333639       0.00000
  20     96.49       57.9333        3.8864       54.3805       58.2669       0.333639       0.00000
  19     114.6       57.8006        4.5749       53.5594       58.1342       0.333639      -0.00000
  18     136.5       57.6456        5.3784       52.6009       57.9793       0.333639       0.00000
  17     162.9       57.4644        6.3177       51.4804       57.7981       0.333639       0.00000
  16     196.4       57.2348        7.5077       50.0607       57.5684       0.333639      -0.00000
  15     218.7       57.0871        8.2725       49.1482       57.4207       0.333639       0.00000
  14     243.0       56.9294        9.0890       48.1741       57.2630       0.333639       0.00000
  13     269.0       56.7617        9.9567       47.1387       57.0954       0.333639      -0.00000
  12     297.5       56.5842       10.8748       46.0431       56.9179       0.333639       0.00000
  11     328.5       56.3966       11.8447       44.8855       56.7303       0.333639       0.00000
  10     361.9       56.1994       12.8639       43.6692       56.5331       0.333639      -0.00000
   9     398.1       55.9925       13.9323       42.3938       56.3262       0.333639      -0.00000
   8     437.6       55.7764       15.0479       41.0621       56.1100       0.333639       0.00000
   7     480.5       55.5514       16.2081       39.6769       55.8850       0.333639       0.00000
   6     533.0       55.2835       17.5882       38.0289       55.6172       0.333639       0.00000
   5     589.8       55.0059       19.0173       36.3222       55.3395       0.333639       0.00000
   4     651.6       54.7192       20.4909       34.5619       55.0528       0.333639       0.00000
   3     718.7       54.4251       22.0005       32.7582       54.7587       0.333639      -0.00000
   2     792.3       54.1255       23.5359       30.9232       54.4591       0.333639       0.00000
   1     891.5       53.7443       25.4853       28.5927       54.0779       0.333639       0.00000
   0    1013.0       53.3206       27.6457       26.0086       53.6542       0.333639       0.00000



 Wavenumbers: 29000. - 38000. cm-1, ATM      1
 LEVEL PRESSURE   UPWARD FLUX   DIFDOWN FLUX  DIRDOWN FLUX  DOWNWARD FLUX   NET FLUX    HEATING RATE
          mb          W/m2          W/m2          W/m2        W/m2          W/m2       degree/day
  51    .06700        8.7746        0.0000       20.8114       20.8114      12.036713       0.00000
  50    .07753        8.7745        0.0003       20.8070       20.8074      12.032905       3.05202
  49    .09103        8.7742        0.0007       20.8009       20.8016      12.027367       3.46139
  48    0.1069        8.7740        0.0012       20.7928       20.7939      12.019956       3.94490
  47    0.1255        8.7737        0.0017       20.7820       20.7837      12.010050       4.49104
  46    0.1487        8.7734        0.0024       20.7665       20.7688      11.995484       5.30928
  45    0.1794        8.7729        0.0033       20.7424       20.7457      11.972816       6.22303
  44    0.2165        8.7724        0.0044       20.7103       20.7147      11.942288       6.94452
  43    0.2613        8.7718        0.0056       20.6675       20.6731      11.901286       7.72860
  42    0.3336        8.7709        0.0077       20.5880       20.5957      11.824713       8.92776
  41    0.4307        8.7699        0.0104       20.4722       20.4826      11.712740       9.73575
  40    0.5894        8.7684        0.0147       20.2637       20.2784      11.510018      10.78052
  39     1.339        8.7653        0.0331       19.0984       19.1315      10.366220      12.87709
  38     1.782        8.7661        0.0427       18.4394       18.4821       9.715962      12.37985
  37     2.292        8.7618        0.0655       17.7518       17.8174       9.055580      10.93765
  36     2.964        8.7663        0.0816       17.0174       17.0990       8.332659       9.07484
  35     3.853        8.7782        0.0987       16.2415       16.3402       7.562028       7.31344
  34     5.035        8.7988        0.1190       15.4544       15.5734       6.774593       5.62510
  33     6.613        8.8293        0.1445       14.6910       14.8355       6.006180       4.10794
  32     8.786        8.8697        0.1777       13.9701       14.1479       5.278143       2.82743
  31     11.80        8.9226        0.2242       13.2614       13.4856       4.562949       2.00232
  30     15.07        8.9737        0.2727       12.7175       12.9901       4.016459       1.41093
  29     18.79        9.0264        0.3261       12.2457       12.5717       3.545290       1.06828
  28     23.16        9.0825        0.3872       11.8099       12.1971       3.114590       0.83283
  27     28.12        9.1399        0.4556       11.4086       11.8642       2.724279       0.66350
  26     33.73        9.1930        0.5312       11.0509       11.5821       2.389088       0.50397
  25     40.54        9.2433        0.6215       10.7030       11.3245       2.081201       0.38197
  24     48.69        9.2908        0.7288       10.3569       11.0857       1.794897       0.29628
  23     57.69        9.3298        0.8450       10.0382       10.8832       1.553341       0.22642
  22     68.43        9.3614        0.9813        9.7166       10.6979       1.336481       0.17048
  21     81.20        9.3767        1.1424        9.3978       10.5402       1.163552       0.11427
  20     96.49        9.3736        1.3318        9.0737       10.4055       1.031909       0.07266
  19     114.6        9.3602        1.5506        8.7244       10.2749       0.914726       0.05472
  18     136.5        9.3396        1.8008        8.3411       10.1419       0.802283       0.04324
  17     162.9        9.3119        2.0860        7.9181       10.0041       0.692185       0.03519
  16     196.4        9.2651        2.4401        7.4202        9.8603       0.595233       0.02440
  15     218.7        9.2314        2.6624        7.1170        9.7793       0.547967       0.01795
  14     243.0        9.1944        2.8947        6.8041        9.6988       0.504321       0.01514
  13     269.0        9.1541        3.1363        6.4829        9.6192       0.465128       0.01271
  12     297.5        9.1104        3.3860        6.1550        9.5410       0.430577       0.01025
  11     328.5        9.0647        3.6429        5.8193        9.4622       0.397496       0.00899
  10     361.9        9.0177        3.9045        5.4792        9.3837       0.366034       0.00796
   9     398.1        8.9693        4.1703        5.1352        9.3055       0.336216       0.00695
   8     437.6        8.9200        4.4387        4.7888        9.2275       0.307473       0.00615
   7     480.5        8.8703        4.7077        4.4428        9.1505       0.280185       0.00536
   6     533.0        8.8135        5.0140        4.0499        9.0639       0.250443       0.00478
   5     589.8        8.7576        5.3153        3.6639        8.9792       0.221644       0.00427
   4     651.6        8.7033        5.6097        3.2870        8.8967       0.193461       0.00385
   3     718.7        8.6514        5.8940        2.9233        8.8172       0.165856       0.00347
   2     792.3        8.6026        6.1654        2.5760        8.7414       0.138831       0.00310
   1     891.5        8.5468        6.4841        2.1681        8.6522       0.105458       0.00284
   0    1013.0        8.4938        6.8035        1.7588        8.5624       0.068605       0.00256



 Wavenumbers: 38000. - 50000. cm-1, ATM      1
 LEVEL PRESSURE   UPWARD FLUX   DIFDOWN FLUX  DIRDOWN FLUX  DOWNWARD FLUX   NET FLUX    HEATING RATE
          mb          W/m2          W/m2          W/m2        W/m2          W/m2       degree/day
  51    .06700        0.0066        0.0000        1.2836        1.2836       1.277060       0.00000
  50    .07753        0.0065        0.0001        1.2812        1.2812       1.274725       1.87182
  49    .09103        0.0064        0.0002        1.2777        1.2778       1.271393       2.08280
  48    0.1069        0.0064        0.0002        1.2731        1.2734       1.267014       2.33095
  47    0.1255        0.0063        0.0004        1.2672        1.2675       1.261258       2.60945
  46    0.1487        0.0062        0.0005        1.2586        1.2591       1.252930       3.03540
  45    0.1794        0.0060        0.0007        1.2455        1.2462       1.240161       3.50566
  44    0.2165        0.0058        0.0009        1.2282        1.2291       1.223232       3.85087
  43    0.2613        0.0056        0.0011        1.2054        1.2065       1.200881       4.21314
  42    0.3336        0.0053        0.0015        1.1639        1.1654       1.160052       4.76031
  41    0.4307        0.0050        0.0020        1.1051        1.1070       1.102085       5.04010
  40    0.5894        0.0044        0.0026        1.0039        1.0064       1.002029       5.32085
  39     1.339        0.0028        0.0035        0.5438        0.5473       0.544488       5.15108
  38     1.782        0.0024        0.0032        0.3635        0.3667       0.364244       3.43155
  37     2.292        0.0014        0.0033        0.2343        0.2377       0.236284       2.11935
  36     2.964        0.0009        0.0027        0.1444        0.1471       0.146234       1.13040
  35     3.853        0.0006        0.0021        0.0851        0.0872       0.086577       0.56616
  34     5.035        0.0004        0.0015        0.0484        0.0499       0.049513       0.26477
  33     6.613        0.0003        0.0011        0.0270        0.0281       0.027867       0.11572
  32     8.786        0.0002        0.0008        0.0143        0.0150       0.014872       0.05047
  31     11.80        0.0001        0.0005        0.0065        0.0070       0.006879       0.02238
  30     15.07        0.0000        0.0003        0.0031        0.0034       0.003319       0.00919
  29     18.79        0.0000        0.0002        0.0014        0.0016       0.001579       0.00394
  28     23.16        0.0000        0.0001        0.0006        0.0007       0.000719       0.00166
  27     28.12        0.0000        0.0001        0.0003        0.0003       0.000317       0.00068
  26     33.73        0.0000        0.0000        0.0001        0.0001       0.000139       0.00027
  25     40.54        0.0000        0.0000        0.0000        0.0001       0.000057       0.00010
  24     48.69        0.0000        0.0000        0.0000        0.0000       0.000021       0.00004
  23     57.69        0.0000        0.0000        0.0000        0.0000       0.000008       0.00001
  22     68.43        0.0000        0.0000        0.0000        0.0000       0.000003       0.00000
  21     81.20        0.0000        0.0000        0.0000        0.0000       0.000001       0.00000
  20     96.49        0.0000        0.0000        0.0000        0.0000       0.000000       0.00000
  19     114.6        0.0000        0.0000        0.0000        0.0000       0.000000       0.00000
  18     136.5        0.0000        0.0000        0.0000        0.0000       0.000000       0.00000
  17     162.9        0.0000        0.0000        0.0000        0.0000       0.000000       0.00000
  16     196.4        0.0000        0.0000        0.0000        0.0000       0.000000       0.00000
  15     218.7        0.0000        0.0000        0.0000        0.0000       0.000000       0.00000
  14     243.0        0.0000        0.0000        0.0000        0.0000       0.000000       0.00000
  13     269.0        0.0000        0.0000        0.0000        0.0000       0.000000       0.00000
  12     297.5        0.0000        0.0000        0.0000        0.0000       0.000000       0.00000
  11     328.5        0.0000        0.0000        0.0000        0.0000       0.000000       0.00000
  10     361.9        0.0000        0.0000        0.0000        0.0000       0.000000       0.00000
   9     398.1        0.0000        0.0000        0.0000        0.0000       0.000000       0.00000
   8     437.6        0.0000        0.0000        0.0000        0.0000       0.000000       0.00000
   7     480.5        0.0000        0.0000        0.0000        0.0000       0.000000       0.00000
   6     533.0        0.0000        0.0000        0.0000        0.0000       0.000000       0.00000
   5     589.8        0.0000        0.0000        0.0000        0.0000       0.000000       0.00000
   4     651.6        0.0000        0.0000        0.0000        0.0000       0.000000       0.00000
   3     718.7        0.0000        0.0000        0.0000        0.0000       0.000000       0.00000
   2     792.3        0.0000        0.0000        0.0000        0.0000       0.000000       0.00000
   1     891.5        0.0000        0.0000        0.0000        0.0000       0.000000       0.00000
   0    1013.0        0.0000        0.0000        0.0000        0.0000       0.000000       0.00000



 Wavenumbers:   820. -  2600. cm-1, ATM      1
 LEVEL PRESSURE   UPWARD FLUX   DIFDOWN FLUX  DIRDOWN FLUX  DOWNWARD FLUX   NET FLUX    HEATING RATE
          mb          W/m2          W/m2          W/m2        W/m2          W/m2       degree/day
  51    .06700        0.0117        0.0000        6.0047        6.0047       5.992977       0.00000
  50    .07753        0.0117        0.0000        6.0009        6.0009       5.989197       3.02937
  49    .09103        0.0117        0.0000        6.0001        6.0001       5.988407       0.49378
  48    0.1069        0.0117        0.0000        5.9992        5.9992       5.987532       0.46572
  47    0.1255        0.0117        0.0000        5.9982        5.9982       5.986551       0.44470
  46    0.1487        0.0117        0.0000        5.9970        5.9970       5.985373       0.42941
  45    0.1794        0.0117        0.0000        5.9956        5.9956       5.983907       0.40259
  44    0.2165        0.0117        0.0000        5.9940        5.9940       5.982374       0.34860
  43    0.2613        0.0117        0.0000        5.9925        5.9925       5.980795       0.29770
  42    0.3336        0.0117        0.0000        5.9902        5.9902       5.978566       0.25991
  41    0.4307        0.0117        0.0000        5.9877        5.9877       5.975977       0.22503
  40    0.5894        0.0117        0.0000        5.9836        5.9836       5.971945       0.21442
  39     1.339        0.0117        0.0000        5.9651        5.9651       5.953435       0.20839
  38     1.782        0.0117        0.0000        5.9549        5.9549       5.943219       0.19451
  37     2.292        0.0127        0.0000        1.5630        1.5630       1.550235      72.75926
  36     2.964        0.0132        0.0000        1.4643        1.4643       1.451142       1.24392
  35     3.853        0.0134        0.0000        1.4237        1.4237       1.410253       0.38804
  34     5.035        0.0135        0.0000        1.4024        1.4024       1.388820       0.15311
  33     6.613        0.0136        0.0000        1.3902        1.3902       1.376576       0.06546
  32     8.786        0.0137        0.0000        1.3831        1.3831       1.369418       0.02780
  31     11.80        0.0137        0.0000        1.3787        1.3787       1.364965       0.01247
  30     15.07        0.0137        0.0000        1.3764        1.3764       1.362637       0.00601
  29     18.79        0.0138        0.0000        1.3750        1.3750       1.361224       0.00320
  28     23.16        0.0138        0.0000        1.3740        1.3740       1.360240       0.00190
  27     28.12        0.0138        0.0000        1.3733        1.3733       1.359499       0.00126
  26     33.73        0.0138        0.0000        1.3727        1.3727       1.358928       0.00086
  25     40.54        0.0138        0.0000        1.3719        1.3719       1.358143       0.00097
  24     48.69        0.0138        0.0000        1.3713        1.3713       1.357474       0.00069
  23     57.69        0.0138        0.0000        1.3707        1.3707       1.356947       0.00049
  22     68.43        0.0138        0.0000        1.3703        1.3703       1.356495       0.00036
  21     81.20        0.0138        0.0000        1.3699        1.3699       1.356104       0.00026
  20     96.49        0.0138        0.0000        1.3696        1.3696       1.355760       0.00019
  19     114.6        0.0138        0.0000        1.3693        1.3693       1.355469       0.00014
  18     136.5        0.0138        0.0000        1.3690        1.3690       1.355163       0.00012
  17     162.9        0.0138        0.0000        1.3687        1.3687       1.354876       0.00009
  16     196.4        0.0138        0.0000        1.3684        1.3684       1.354594       0.00007
  15     218.7        0.0138        0.0000        1.3682        1.3682       1.354417       0.00007
  14     243.0        0.0138        0.0000        1.3681        1.3681       1.354277       0.00005
  13     269.0        0.0138        0.0000        1.3679        1.3679       1.354111       0.00005
  12     297.5        0.0138        0.0000        1.3677        1.3677       1.353884       0.00007
  11     328.5        0.0138        0.0000        1.3674        1.3674       1.353574       0.00008
  10     361.9        0.0138        0.0000        1.3669        1.3669       1.353131       0.00011
   9     398.1        0.0138        0.0000        1.3663        1.3663       1.352511       0.00014
   8     437.6        0.0138        0.0000        1.3655        1.3655       1.351665       0.00018
   7     480.5        0.0138        0.0000        1.3644        1.3644       1.350547       0.00022
   6     533.0        0.0138        0.0000        1.3625        1.3625       1.348667       0.00030
   5     589.8        0.0139        0.0000        1.3597        1.3597       1.345829       0.00042
   4     651.6        0.0139        0.0000        1.3550        1.3550       1.341063       0.00065
   3     718.7        0.0140        0.0000        1.3477        1.3477       1.333758       0.00092
   2     792.3        0.0141        0.0000        1.3367        1.3367       1.322631       0.00128
   1     891.5        0.0143        0.0000        1.3156        1.3156       1.301360       0.00181
   0    1013.0        0.0146        0.0000        1.2821        1.2822       1.267538       0.00235

  Modules and versions used in this calculation:

       rrtmg_sw.1col.f90:  $Revision$                    rrtmg_sw_init.f90:  $Revision$        
     rrtmgsw_cldprop.f90:  $Revision$                  rrtmgsw_cldprmc.f90:  NOT USED          
     rrtmg_sw_reftra.f90:  $Revision$                  rrtmg_sw_spcvrt.f90:  NOT USED          
     rrtmg_sw_spcvmc.f90:  NOT USED                    rrtmgsw_setcoef.f90:  NOT USED          
     rrtmg_sw_taumol.f90:  $Revision$                  rrtmg_sw_vrtqdr.f90:  NOT USED          
                rrtatm.f:  NOT USED                             util_xxx.f:  NOT USED          
                 extra.f:  NOT USED                       rrtmg_sw_k_g.f90:  $Revision$        

