

 Wavenumbers:   820. - 50000. cm-1, ATM      1
 LEVEL PRESSURE   UPWARD FLUX   DIFDOWN FLUX  DIRDOWN FLUX  DOWNWARD FLUX   NET FLUX    HEATING RATE
          mb          W/m2          W/m2          W/m2        W/m2          W/m2       degree/day
  51    .06700      405.2857        0.0000      617.8126      617.8126     212.526919       0.00000
  50    .07753      405.2853        0.0014      617.7948      617.7962     212.510903      12.83684
  49    .09103      405.2849        0.0031      617.7782      617.7812     212.496359       9.09093
  48    0.1069      405.2844        0.0050      617.7588      617.7638     212.479449       9.00099
  47    0.1255      405.2839        0.0072      617.7352      617.7424     212.458522       9.48754
  46    0.1487      405.2833        0.0101      617.7026      617.7127     212.429369      10.62660
  45    0.1794      405.2826        0.0139      617.6545      617.6685     212.385859      11.94456
  44    0.2165      405.2819        0.0185      617.5928      617.6113     212.329395      12.84457
  43    0.2613      405.2812        0.0238      617.5133      617.5372     212.255922      13.84928
  42    0.3336      405.2804        0.0327      617.3704      617.4031     212.122618      15.54189
  41    0.4307      405.2798        0.0444      617.1679      617.2122     211.932421      16.53725
  40    0.5894      405.2798        0.0632      616.8134      616.8766     211.596759      17.85006
  39     1.339      405.2987        0.1482      614.9754      615.1236     209.824960      19.94724
  38     1.782      405.3229        0.1961      614.0076      614.2037     208.880798      17.97532
  37     2.292      405.3350        0.3496      598.1748      598.5244     193.189435     259.88989
  36     2.964      405.3956        0.4505      595.8370      596.2875     190.891941      28.84050
  35     3.853      405.5066        0.5575      594.0348      594.5924     189.085760      17.14099
  34     5.035      405.6811        0.6873      592.3855      593.0728     187.391679      12.10181
  33     6.613      405.9285        0.8534      590.7755      591.6289     185.700434       9.04140
  32     8.786      406.2515        1.0730      589.1410      590.2140     183.962523       6.74941
  31     11.80      406.6702        1.3836      587.3372      588.7208     182.050541       5.35295
  30     15.07      407.0690        1.7147      585.7599      587.4746     180.405684       4.24670
  29     18.79      407.4739        2.0867      584.2242      586.3109     178.837044       3.55659
  28     23.16      407.8943        2.5191      582.6400      585.1591     177.264751       3.04031
  27     28.12      408.3136        3.0113      581.0185      584.0298     175.716143       2.63253
  26     33.73      408.6929        3.5601      579.4137      582.9738     174.280885       2.15795
  25     40.54      409.0464        4.2210      577.6593      581.8803     172.833880       1.79517
  24     48.69      409.3710        5.0141      575.7532      580.7674     171.396348       1.48762
  23     57.69      409.6290        5.8812      573.8530      579.7342     170.105139       1.21031
  22     68.43      409.8294        6.9085      571.7892      578.6977     168.868248       0.97236
  21     81.20      409.9196        8.1265      569.5804      577.7070     167.787348       0.71424
  20     96.49      409.8893        9.5688      567.1827      576.7515     166.862240       0.51059
  19     114.6      409.8033       11.2657      564.3090      575.5747     165.771363       0.50936
  18     136.5      409.6544       13.2527      561.0683      574.3210     164.666559       0.42482
  17     162.9      409.4361       15.5847      557.3778      572.9625     163.526365       0.36445
  16     196.4      409.0609       18.5597      552.8114      571.3711     162.310165       0.30613
  15     218.7      408.7845       20.4829      549.7810      570.2639     161.479458       0.31539
  14     243.0      408.4720       22.5461      546.5594      569.1055     160.633526       0.29340
  13     269.0      408.1236       24.7507      542.9422      567.6929     159.569342       0.34522
  12     297.5      407.7403       27.0977      538.8255      565.9232     158.182901       0.41120
  11     328.5      407.3318       29.5932      534.0703      563.6635     156.331765       0.50332
  10     361.9      406.9029       32.2334      528.5271      560.7605     153.857581       0.62599
   9     398.1      406.4600       35.0230      522.0271      557.0500     150.590039       0.76126
   8     437.6      406.0158       37.9605      514.4362      552.3967     146.380933       0.89993
   7     480.5      405.5865       41.0441      505.7274      546.7715     141.184948       1.02047
   6     533.0      405.1451       44.7516      494.5223      539.2739     134.128841       1.13510
   5     589.8      404.8077       48.6431      482.2784      530.9216     126.113844       1.18969
   4     651.6      404.6605       52.7076      469.1514      521.8590     117.198489       1.21920
   3     718.7      404.7978       56.9389      455.5582      512.4972     107.699398       1.19377
   2     792.3      405.3919       61.3203      441.5170      502.8373      97.445344       1.17603
   1     891.5      407.1387       67.0006      423.5033      490.5039      83.365150       1.19816
   0    1013.0      411.1318       73.4952      403.4871      476.9823      65.850471       1.21613



 Wavenumbers:  2600. -  3250. cm-1, ATM      1
 LEVEL PRESSURE   UPWARD FLUX   DIFDOWN FLUX  DIRDOWN FLUX  DOWNWARD FLUX   NET FLUX    HEATING RATE
          mb          W/m2          W/m2          W/m2        W/m2          W/m2       degree/day
  51    .06700        0.0308        0.0000        5.4450        5.4450       5.414185       0.00000
  50    .07753        0.0308        0.0000        5.4450        5.4450       5.414177       0.00640
  49    .09103        0.0308        0.0000        5.4450        5.4450       5.414167       0.00627
  48    0.1069        0.0308        0.0000        5.4450        5.4450       5.414155       0.00613
  47    0.1255        0.0308        0.0000        5.4450        5.4450       5.414142       0.00599
  46    0.1487        0.0308        0.0000        5.4450        5.4450       5.414125       0.00608
  45    0.1794        0.0308        0.0000        5.4450        5.4450       5.414103       0.00625
  44    0.2165        0.0308        0.0000        5.4449        5.4449       5.414076       0.00612
  43    0.2613        0.0308        0.0000        5.4449        5.4449       5.414044       0.00600
  42    0.3336        0.0308        0.0000        5.4448        5.4448       5.413991       0.00617
  41    0.4307        0.0308        0.0000        5.4448        5.4448       5.413920       0.00620
  40    0.5894        0.0308        0.0000        5.4446        5.4446       5.413800       0.00637
  39     1.339        0.0308        0.0000        5.4439        5.4439       5.413092       0.00797
  38     1.782        0.0308        0.0000        5.4434        5.4434       5.412549       0.01034
  37     2.292        0.0308        0.0000        5.4427        5.4427       5.411833       0.01186
  36     2.964        0.0308        0.0000        5.4416        5.4416       5.410795       0.01304
  35     3.853        0.0308        0.0000        5.4402        5.4402       5.409317       0.01402
  34     5.035        0.0308        0.0000        5.4381        5.4381       5.407262       0.01468
  33     6.613        0.0308        0.0000        5.4353        5.4353       5.404481       0.01487
  32     8.786        0.0308        0.0000        5.4317        5.4317       5.400849       0.01411
  31     11.80        0.0308        0.0000        5.4269        5.4269       5.396069       0.01338
  30     15.07        0.0308        0.0000        5.4224        5.4224       5.391543       0.01169
  29     18.79        0.0308        0.0000        5.4180        5.4180       5.387132       0.01000
  28     23.16        0.0308        0.0000        5.4135        5.4135       5.382646       0.00867
  27     28.12        0.0308        0.0000        5.4088        5.4088       5.378000       0.00790
  26     33.73        0.0308        0.0000        5.4036        5.4036       5.372761       0.00788
  25     40.54        0.0308        0.0000        5.3966        5.3967       5.365822       0.00861
  24     48.69        0.0308        0.0000        5.3872        5.3872       5.356348       0.00980
  23     57.69        0.0308        0.0000        5.3754        5.3754       5.344569       0.01104
  22     68.43        0.0308        0.0000        5.3599        5.3599       5.329088       0.01217
  21     81.20        0.0308        0.0000        5.3401        5.3401       5.309264       0.01310
  20     96.49        0.0308        0.0000        5.3155        5.3155       5.284710       0.01355
  19     114.6        0.0308        0.0000        5.2701        5.2701       5.239275       0.02122
  18     136.5        0.0308        0.0000        5.2231        5.2231       5.192305       0.01806
  17     162.9        0.0308        0.0001        5.1752        5.1753       5.144482       0.01529
  16     196.4        0.0308        0.0001        5.1224        5.1224       5.091623       0.01331
  15     218.7        0.0308        0.0001        5.0879        5.0880       5.057160       0.01308
  14     243.0        0.0308        0.0001        5.0547        5.0547       5.023919       0.01153
  13     269.0        0.0308        0.0001        5.0166        5.0167       4.985886       0.01234
  12     297.5        0.0309        0.0001        4.9723        4.9724       4.941530       0.01316
  11     328.5        0.0309        0.0001        4.9184        4.9185       4.887645       0.01465
  10     361.9        0.0309        0.0001        4.8501        4.8502       4.819275       0.01730
   9     398.1        0.0310        0.0001        4.7612        4.7613       4.730347       0.02072
   8     437.6        0.0311        0.0001        4.6441        4.6443       4.613209       0.02504
   7     480.5        0.0312        0.0001        4.4935        4.4936       4.462443       0.02961
   6     533.0        0.0314        0.0002        4.2815        4.2817       4.250306       0.03413
   5     589.8        0.0317        0.0002        4.0381        4.0382       4.006509       0.03619
   4     651.6        0.0322        0.0002        3.7736        3.7738       3.741597       0.03623
   3     718.7        0.0329        0.0002        3.5098        3.5100       3.477142       0.03323
   2     792.3        0.0339        0.0002        3.2394        3.2396       3.205744       0.03113
   1     891.5        0.0358        0.0002        2.8915        2.8917       2.855884       0.02977
   0    1013.0        0.0396        0.0002        2.5191        2.5193       2.479706       0.02612



 Wavenumbers:  3250. -  4000. cm-1, ATM      1
 LEVEL PRESSURE   UPWARD FLUX   DIFDOWN FLUX  DIRDOWN FLUX  DOWNWARD FLUX   NET FLUX    HEATING RATE
          mb          W/m2          W/m2          W/m2        W/m2          W/m2       degree/day
  51    .06700        0.0005        0.0000        9.1795        9.1795       9.178991       0.00000
  50    .07753        0.0005        0.0000        9.1747        9.1747       9.174122       3.90286
  49    .09103        0.0005        0.0000        9.1713        9.1713       9.170802       2.07466
  48    0.1069        0.0005        0.0000        9.1689        9.1689       9.168396       1.28111
  47    0.1255        0.0005        0.0000        9.1668        9.1668       9.166275       0.96121
  46    0.1487        0.0005        0.0000        9.1645        9.1645       9.164003       0.82828
  45    0.1794        0.0005        0.0000        9.1619        9.1619       9.161333       0.73288
  44    0.2165        0.0005        0.0000        9.1592        9.1592       9.158644       0.61167
  43    0.2613        0.0005        0.0000        9.1565        9.1565       9.155947       0.50840
  42    0.3336        0.0005        0.0000        9.1528        9.1528       9.152250       0.43101
  41    0.4307        0.0005        0.0000        9.1487        9.1487       9.148152       0.35634
  40    0.5894        0.0005        0.0000        9.1428        9.1428       9.142260       0.31334
  39     1.339        0.0005        0.0000        9.1196        9.1196       9.119078       0.26099
  38     1.782        0.0005        0.0000        9.1090        9.1090       9.108494       0.20149
  37     2.292        0.0005        0.0000        6.0007        6.0007       6.000197      51.48152
  36     2.964        0.0006        0.0000        5.6254        5.6254       5.624876       4.71141
  35     3.853        0.0006        0.0000        5.4347        5.4347       5.434115       1.81036
  34     5.035        0.0006        0.0000        5.3126        5.3126       5.312013       0.87224
  33     6.613        0.0006        0.0000        5.2269        5.2269       5.226344       0.45799
  32     8.786        0.0006        0.0000        5.1638        5.1638       5.163242       0.24506
  31     11.80        0.0006        0.0000        5.1132        5.1133       5.112698       0.14151
  30     15.07        0.0006        0.0000        5.0792        5.0792       5.078627       0.08797
  29     18.79        0.0006        0.0000        5.0527        5.0527       5.052156       0.06002
  28     23.16        0.0005        0.0000        5.0291        5.0291       5.028528       0.04569
  27     28.12        0.0005        0.0000        5.0062        5.0062       5.005694       0.03882
  26     33.73        0.0005        0.0000        4.9837        4.9837       4.983171       0.03386
  25     40.54        0.0005        0.0000        4.9494        4.9494       4.948882       0.04254
  24     48.69        0.0005        0.0000        4.9130        4.9130       4.912463       0.03769
  23     57.69        0.0005        0.0000        4.8789        4.8790       4.878454       0.03188
  22     68.43        0.0005        0.0001        4.8440        4.8440       4.843514       0.02747
  21     81.20        0.0005        0.0001        4.8075        4.8076       4.807045       0.02410
  20     96.49        0.0005        0.0001        4.7700        4.7701       4.769628       0.02065
  19     114.6        0.0005        0.0001        4.7277        4.7278       4.727322       0.01975
  18     136.5        0.0005        0.0001        4.6794        4.6795       4.678992       0.01858
  17     162.9        0.0004        0.0001        4.6241        4.6243       4.623821       0.01763
  16     196.4        0.0004        0.0001        4.5489        4.5490       4.548605       0.01893
  15     218.7        0.0004        0.0002        4.4726        4.4728       4.472345       0.02895
  14     243.0        0.0004        0.0002        4.3900        4.3902       4.389815       0.02862
  13     269.0        0.0004        0.0002        4.2632        4.2634       4.262997       0.04114
  12     297.5        0.0004        0.0002        4.0793        4.0795       4.079089       0.05455
  11     328.5        0.0003        0.0002        3.8326        3.8328       3.832495       0.06705
  10     361.9        0.0003        0.0002        3.5260        3.5262       3.525908       0.07757
   9     398.1        0.0003        0.0002        3.1758        3.1760       3.175700       0.08159
   8     437.6        0.0003        0.0002        2.7982        2.7984       2.798071       0.08074
   7     480.5        0.0003        0.0002        2.4148        2.4150       2.414675       0.07530
   6     533.0        0.0003        0.0002        1.9821        1.9823       1.982017       0.06960
   5     589.8        0.0003        0.0002        1.5705        1.5706       1.570347       0.06111
   4     651.6        0.0003        0.0001        1.1777        1.1779       1.177531       0.05372
   3     718.7        0.0004        0.0001        0.8277        0.8278       0.827452       0.04400
   2     792.3        0.0005        0.0001        0.5395        0.5395       0.539020       0.03308
   1     891.5        0.0009        0.0000        0.2729        0.2729       0.272037       0.02272
   0    1013.0        0.0024        0.0000        0.0927        0.0927       0.090286       0.01262



 Wavenumbers:  4000. -  4650. cm-1, ATM      1
 LEVEL PRESSURE   UPWARD FLUX   DIFDOWN FLUX  DIRDOWN FLUX  DOWNWARD FLUX   NET FLUX    HEATING RATE
          mb          W/m2          W/m2          W/m2        W/m2          W/m2       degree/day
  51    .06700        1.3030        0.0000       10.7795       10.7795       9.476547       0.00000
  50    .07753        1.3030        0.0000       10.7795       10.7795       9.476546       0.00080
  49    .09103        1.3030        0.0000       10.7795       10.7795       9.476545       0.00078
  48    0.1069        1.3030        0.0000       10.7795       10.7795       9.476544       0.00077
  47    0.1255        1.3030        0.0000       10.7795       10.7795       9.476542       0.00075
  46    0.1487        1.3030        0.0000       10.7795       10.7795       9.476540       0.00076
  45    0.1794        1.3030        0.0000       10.7795       10.7795       9.476537       0.00078
  44    0.2165        1.3030        0.0000       10.7795       10.7795       9.476534       0.00076
  43    0.2613        1.3030        0.0000       10.7795       10.7795       9.476530       0.00075
  42    0.3336        1.3030        0.0000       10.7795       10.7795       9.476523       0.00077
  41    0.4307        1.3030        0.0000       10.7795       10.7795       9.476514       0.00078
  40    0.5894        1.3030        0.0000       10.7795       10.7795       9.476499       0.00080
  39     1.339        1.3030        0.0000       10.7794       10.7794       9.476410       0.00101
  38     1.782        1.3030        0.0000       10.7793       10.7793       9.476340       0.00133
  37     2.292        1.3030        0.0000       10.7792       10.7792       9.476245       0.00156
  36     2.964        1.3030        0.0000       10.7791       10.7791       9.476105       0.00177
  35     3.853        1.3030        0.0000       10.7789       10.7789       9.475896       0.00198
  34     5.035        1.3030        0.0000       10.7785       10.7786       9.475589       0.00220
  33     6.613        1.3030        0.0000       10.7781       10.7781       9.475136       0.00242
  32     8.786        1.3030        0.0000       10.7774       10.7774       9.474469       0.00259
  31     11.80        1.3030        0.0001       10.7763       10.7764       9.473420       0.00294
  30     15.07        1.3029        0.0001       10.7751       10.7751       9.472190       0.00318
  29     18.79        1.3029        0.0001       10.7736       10.7736       9.470703       0.00337
  28     23.16        1.3029        0.0001       10.7717       10.7718       9.468857       0.00357
  27     28.12        1.3029        0.0001       10.7694       10.7695       9.466624       0.00380
  26     33.73        1.3029        0.0001       10.7666       10.7668       9.463871       0.00414
  25     40.54        1.3029        0.0002       10.7629       10.7630       9.460140       0.00463
  24     48.69        1.3029        0.0002       10.7579       10.7580       9.455171       0.00514
  23     57.69        1.3029        0.0002       10.7519       10.7521       9.449285       0.00552
  22     68.43        1.3028        0.0003       10.7445       10.7448       9.441915       0.00579
  21     81.20        1.3028        0.0003       10.7354       10.7357       9.432850       0.00599
  20     96.49        1.3029        0.0004       10.7243       10.7247       9.421834       0.00608
  19     114.6        1.3029        0.0004       10.7021       10.7026       9.399649       0.01036
  18     136.5        1.3031        0.0005       10.6785       10.6790       9.375975       0.00910
  17     162.9        1.3032        0.0006       10.6523       10.6530       9.349722       0.00839
  16     196.4        1.3035        0.0007       10.6191       10.6198       9.316317       0.00841
  15     218.7        1.3038        0.0008       10.5944       10.5952       9.291464       0.00944
  14     243.0        1.3041        0.0009       10.5680       10.5689       9.264770       0.00926
  13     269.0        1.3045        0.0010       10.5353       10.5363       9.231743       0.01071
  12     297.5        1.3052        0.0011       10.4943       10.4954       9.190250       0.01231
  11     328.5        1.3061        0.0012       10.4419       10.4431       9.137031       0.01447
  10     361.9        1.3073        0.0013       10.3726       10.3740       9.066673       0.01780
   9     398.1        1.3089        0.0015       10.2809       10.2823       8.973442       0.02172
   8     437.6        1.3109        0.0016       10.1618       10.1634       8.852469       0.02586
   7     480.5        1.3135        0.0017       10.0148       10.0165       8.702958       0.02936
   6     533.0        1.3176        0.0019        9.8200        9.8219       8.504286       0.03196
   5     589.8        1.3232        0.0020        9.6049        9.6069       8.283696       0.03274
   4     651.6        1.3312        0.0022        9.3577        9.3599       8.028674       0.03487
   3     718.7        1.3427        0.0023        9.0626        9.0649       7.722256       0.03851
   2     792.3        1.3593        0.0025        8.7116        8.7141       7.354757       0.04215
   1     891.5        1.3913        0.0027        8.2340        8.2366       6.845369       0.04335
   0    1013.0        1.4520        0.0029        7.7250        7.7279       6.275925       0.03954



 Wavenumbers:  4650. -  5150. cm-1, ATM      1
 LEVEL PRESSURE   UPWARD FLUX   DIFDOWN FLUX  DIRDOWN FLUX  DOWNWARD FLUX   NET FLUX    HEATING RATE
          mb          W/m2          W/m2          W/m2        W/m2          W/m2       degree/day
  51    .06700        0.3287        0.0000       10.2033       10.2033       9.874624       0.00000
  50    .07753        0.3287        0.0000       10.2031       10.2031       9.874389       0.18859
  49    .09103        0.3287        0.0000       10.2028       10.2028       9.874095       0.18387
  48    0.1069        0.3287        0.0000       10.2025       10.2025       9.873759       0.17891
  47    0.1255        0.3287        0.0000       10.2021       10.2021       9.873375       0.17387
  46    0.1487        0.3287        0.0000       10.2016       10.2016       9.872895       0.17497
  45    0.1794        0.3287        0.0000       10.2010       10.2010       9.872246       0.17811
  44    0.2165        0.3287        0.0000       10.2002       10.2002       9.871489       0.17239
  43    0.2613        0.3287        0.0000       10.1993       10.1993       9.870605       0.16653
  42    0.3336        0.3287        0.0000       10.1979       10.1979       9.869176       0.16665
  41    0.4307        0.3287        0.0000       10.1961       10.1961       9.867339       0.15967
  40    0.5894        0.3287        0.0000       10.1932       10.1932       9.864472       0.15249
  39     1.339        0.3287        0.0000       10.1816       10.1816       9.852906       0.13021
  38     1.782        0.3287        0.0000       10.1761       10.1761       9.847389       0.10503
  37     2.292        0.3287        0.0000       10.1706       10.1706       9.841945       0.09017
  36     2.964        0.3287        0.0000       10.1647       10.1647       9.836034       0.07419
  35     3.853        0.3287        0.0000       10.1585       10.1585       9.829834       0.05885
  34     5.035        0.3287        0.0000       10.1522       10.1522       9.823512       0.04516
  33     6.613        0.3287        0.0000       10.1457       10.1457       9.817070       0.03444
  32     8.786        0.3287        0.0001       10.1387       10.1387       9.810076       0.02716
  31     11.80        0.3287        0.0001       10.1296       10.1297       9.801059       0.02525
  30     15.07        0.3286        0.0001       10.1197       10.1198       9.791206       0.02544
  29     18.79        0.3286        0.0001       10.1077       10.1079       9.779232       0.02715
  28     23.16        0.3286        0.0001       10.0924       10.0926       9.763972       0.02951
  27     28.12        0.3286        0.0002       10.0734       10.0735       9.744935       0.03236
  26     33.73        0.3286        0.0002       10.0503       10.0505       9.721913       0.03461
  25     40.54        0.3285        0.0002       10.0204       10.0206       9.692106       0.03698
  24     48.69        0.3285        0.0003        9.9823        9.9826       9.654064       0.03937
  23     57.69        0.3285        0.0003        9.9388        9.9392       9.610680       0.04067
  22     68.43        0.3285        0.0004        9.8862        9.8866       9.558149       0.04130
  21     81.20        0.3284        0.0004        9.8240        9.8244       9.496018       0.04106
  20     96.49        0.3284        0.0005        9.7524        9.7529       9.424534       0.03945
  19     114.6        0.3284        0.0006        9.6694        9.6701       9.341671       0.03869
  18     136.5        0.3284        0.0007        9.5808        9.5815       9.253131       0.03405
  17     162.9        0.3284        0.0009        9.4871        9.4880       9.159558       0.02991
  16     196.4        0.3285        0.0010        9.3793        9.3804       9.051895       0.02710
  15     218.7        0.3285        0.0011        9.3119        9.3130       8.984503       0.02559
  14     243.0        0.3286        0.0012        9.2408        9.2421       8.913425       0.02465
  13     269.0        0.3288        0.0014        9.1620        9.1633       8.834539       0.02559
  12     297.5        0.3290        0.0015        9.0717        9.0732       8.744204       0.02679
  11     328.5        0.3293        0.0016        8.9658        8.9674       8.638062       0.02886
  10     361.9        0.3298        0.0018        8.8423        8.8440       8.514232       0.03133
   9     398.1        0.3304        0.0019        8.6963        8.6983       8.367823       0.03411
   8     437.6        0.3313        0.0021        8.5241        8.5262       8.194873       0.03698
   7     480.5        0.3325        0.0022        8.3215        8.3237       7.991227       0.04000
   6     533.0        0.3343        0.0024        8.0518        8.0542       7.719902       0.04365
   5     589.8        0.3369        0.0026        7.7442        7.7467       7.409792       0.04603
   4     651.6        0.3406        0.0027        7.4031        7.4058       7.065212       0.04712
   3     718.7        0.3457        0.0028        7.0436        7.0464       6.700769       0.04580
   2     792.3        0.3528        0.0030        6.6742        6.6772       6.324345       0.04317
   1     891.5        0.3661        0.0031        6.2125        6.2157       5.849580       0.04040
   0    1013.0        0.3891        0.0033        5.7200        5.7233       5.334154       0.03579



 Wavenumbers:  5150. -  6150. cm-1, ATM      1
 LEVEL PRESSURE   UPWARD FLUX   DIFDOWN FLUX  DIRDOWN FLUX  DOWNWARD FLUX   NET FLUX    HEATING RATE
          mb          W/m2          W/m2          W/m2        W/m2          W/m2       degree/day
  51    .06700        2.7121        0.0000       25.5798       25.5798      22.867733       0.00000
  50    .07753        2.7121        0.0000       25.5798       25.5798      22.867733       0.00019
  49    .09103        2.7121        0.0000       25.5798       25.5798      22.867732       0.00019
  48    0.1069        2.7121        0.0000       25.5798       25.5798      22.867732       0.00018
  47    0.1255        2.7121        0.0000       25.5798       25.5798      22.867732       0.00018
  46    0.1487        2.7121        0.0000       25.5798       25.5798      22.867731       0.00018
  45    0.1794        2.7121        0.0000       25.5798       25.5798      22.867730       0.00019
  44    0.2165        2.7121        0.0000       25.5798       25.5798      22.867730       0.00018
  43    0.2613        2.7121        0.0000       25.5798       25.5798      22.867729       0.00018
  42    0.3336        2.7121        0.0000       25.5798       25.5798      22.867727       0.00018
  41    0.4307        2.7121        0.0000       25.5798       25.5798      22.867725       0.00019
  40    0.5894        2.7121        0.0000       25.5798       25.5798      22.867721       0.00019
  39     1.339        2.7121        0.0000       25.5797       25.5798      22.867700       0.00024
  38     1.782        2.7121        0.0000       25.5797       25.5797      22.867683       0.00032
  37     2.292        2.7129        0.0001       22.9463       22.9463      20.233479      43.62930
  36     2.964        2.7132        0.0001       22.6050       22.6051      19.891852       4.28845
  35     3.853        2.7135        0.0001       22.4187       22.4189      19.705400       1.76947
  34     5.035        2.7136        0.0002       22.2975       22.2977      19.584044       0.86692
  33     6.613        2.7138        0.0002       22.2127       22.2129      19.499149       0.45385
  32     8.786        2.7138        0.0002       22.1512       22.1514      19.437578       0.23912
  31     11.80        2.7139        0.0003       22.1032       22.1035      19.389551       0.13446
  30     15.07        2.7139        0.0004       22.0719       22.0722      19.358308       0.08066
  29     18.79        2.7140        0.0005       22.0487       22.0491      19.335195       0.05240
  28     23.16        2.7139        0.0006       22.0292       22.0298      19.315802       0.03750
  27     28.12        2.7139        0.0007       22.0116       22.0122      19.298302       0.02975
  26     33.73        2.7139        0.0008       21.9953       21.9961      19.282198       0.02421
  25     40.54        2.7139        0.0010       21.9690       21.9700      19.256051       0.03244
  24     48.69        2.7140        0.0012       21.9421       21.9433      19.229332       0.02765
  23     57.69        2.7140        0.0014       21.9171       21.9184      19.204444       0.02333
  22     68.43        2.7140        0.0016       21.8917       21.8933      19.179316       0.01975
  21     81.20        2.7140        0.0019       21.8661       21.8680      19.153978       0.01674
  20     96.49        2.7141        0.0023       21.8401       21.8423      19.128275       0.01419
  19     114.6        2.7141        0.0027       21.8116       21.8143      19.100173       0.01312
  18     136.5        2.7141        0.0032       21.7796       21.7827      19.068595       0.01214
  17     162.9        2.7142        0.0037       21.7444       21.7482      19.033996       0.01106
  16     196.4        2.7142        0.0045       21.6986       21.7031      18.988924       0.01135
  15     218.7        2.7143        0.0050       21.6525       21.6575      18.943288       0.01733
  14     243.0        2.7143        0.0055       21.6018       21.6073      18.893044       0.01743
  13     269.0        2.7144        0.0061       21.5161       21.5222      18.807854       0.02764
  12     297.5        2.7145        0.0067       21.3730       21.3797      18.665155       0.04232
  11     328.5        2.7148        0.0074       21.1436       21.1510      18.436167       0.06226
  10     361.9        2.7153        0.0080       20.7924       20.8004      18.085147       0.08881
   9     398.1        2.7160        0.0086       20.2889       20.2975      17.581459       0.11735
   8     437.6        2.7172        0.0092       19.6167       19.6259      16.908682       0.14384
   7     480.5        2.7190        0.0097       18.7951       18.8048      16.085729       0.16162
   6     533.0        2.7224        0.0102       17.7525       17.7627      15.040350       0.16817
   5     589.8        2.7279        0.0107       16.7256       16.7363      14.008424       0.15317
   4     651.6        2.7370        0.0112       15.7958       15.8071      13.070082       0.12832
   3     718.7        2.7515        0.0118       15.0324       15.0442      12.292662       0.09770
   2     792.3        2.7751        0.0125       14.4027       14.4152      11.640064       0.07485
   1     891.5        2.8257        0.0135       13.7180       13.7315      10.905734       0.06249
   0    1013.0        2.9320        0.0146       12.9791       12.9937      10.061736       0.05860



 Wavenumbers:  6150. -  7700. cm-1, ATM      1
 LEVEL PRESSURE   UPWARD FLUX   DIFDOWN FLUX  DIRDOWN FLUX  DOWNWARD FLUX   NET FLUX    HEATING RATE
          mb          W/m2          W/m2          W/m2        W/m2          W/m2       degree/day
  51    .06700        4.4523        0.0000       47.3109       47.3109      42.858538       0.00000
  50    .07753        4.4523        0.0000       47.3108       47.3108      42.858522       0.01303
  49    .09103        4.4523        0.0000       47.3108       47.3108      42.858502       0.01277
  48    0.1069        4.4523        0.0000       47.3108       47.3108      42.858478       0.01250
  47    0.1255        4.4523        0.0000       47.3108       47.3108      42.858451       0.01223
  46    0.1487        4.4523        0.0000       47.3107       47.3107      42.858417       0.01241
  45    0.1794        4.4523        0.0000       47.3107       47.3107      42.858371       0.01276
  44    0.2165        4.4523        0.0000       47.3106       47.3106      42.858316       0.01252
  43    0.2613        4.4523        0.0000       47.3105       47.3106      42.858251       0.01228
  42    0.3336        4.4523        0.0000       47.3104       47.3104      42.858143       0.01256
  41    0.4307        4.4523        0.0000       47.3102       47.3103      42.858000       0.01242
  40    0.5894        4.4523        0.0001       47.3100       47.3100      42.857767       0.01240
  39     1.339        4.4522        0.0001       47.3087       47.3089      42.856666       0.01240
  38     1.782        4.4522        0.0002       47.3080       47.3082      42.856019       0.01230
  37     2.292        4.4531        0.0003       42.8444       42.8447      38.391619      73.94211
  36     2.964        4.4535        0.0004       42.3646       42.3651      37.911517       6.02674
  35     3.853        4.4538        0.0005       42.1024       42.1029      37.649071       2.49065
  34     5.035        4.4539        0.0006       41.9329       41.9335      37.479599       1.21064
  33     6.613        4.4540        0.0008       41.8153       41.8161      37.362076       0.62828
  32     8.786        4.4539        0.0010       41.7307       41.7317      37.277781       0.32737
  31     11.80        4.4538        0.0013       41.6654       41.6667      37.212932       0.18156
  30     15.07        4.4536        0.0016       41.6234       41.6250      37.171419       0.10718
  29     18.79        4.4533        0.0020       41.5925       41.5945      37.141178       0.06857
  28     23.16        4.4530        0.0024       41.5667       41.5692      37.116169       0.04836
  27     28.12        4.4526        0.0029       41.5436       41.5465      37.093921       0.03782
  26     33.73        4.4522        0.0035       41.5226       41.5261      37.073910       0.03009
  25     40.54        4.4516        0.0041       41.4895       41.4936      37.041961       0.03964
  24     48.69        4.4510        0.0049       41.4563       41.4612      37.010238       0.03283
  23     57.69        4.4503        0.0058       41.4259       41.4317      36.981398       0.02703
  22     68.43        4.4494        0.0069       41.3954       41.4023      36.952845       0.02245
  21     81.20        4.4484        0.0081       41.3647       41.3728      36.924417       0.01878
  20     96.49        4.4472        0.0096       41.3332       41.3429      36.895685       0.01586
  19     114.6        4.4457        0.0114       41.2973       41.3087      36.863025       0.01525
  18     136.5        4.4440        0.0135       41.2554       41.2689      36.824914       0.01465
  17     162.9        4.4419        0.0160       41.2061       41.2221      36.780205       0.01429
  16     196.4        4.4392        0.0193       41.1359       41.1552      36.715988       0.01616
  15     218.7        4.4375        0.0214       41.0595       41.0809      36.643431       0.02755
  14     243.0        4.4357        0.0238       40.9731       40.9968      36.561160       0.02853
  13     269.0        4.4338        0.0262       40.8258       40.8520      36.418256       0.04636
  12     297.5        4.4319        0.0289       40.5792       40.6081      36.176192       0.07179
  11     328.5        4.4302        0.0316       40.1819       40.2135      35.783335       0.10682
  10     361.9        4.4288        0.0343       39.5672       39.6015      35.172788       0.15447
   9     398.1        4.4279        0.0370       38.6689       38.7059      34.277982       0.20847
   8     437.6        4.4282        0.0395       37.4469       37.4864      33.058135       0.26081
   7     480.5        4.4303        0.0417       35.9088       35.9504      31.520162       0.30205
   6     533.0        4.4362        0.0439       33.8532       33.8971      29.460900       0.33127
   5     589.8        4.4482        0.0457       31.6479       31.6936      27.245452       0.32885
   4     651.6        4.4702        0.0473       29.4203       29.4675      24.997334       0.30744
   3     718.7        4.5073        0.0487       27.3218       27.3706      22.863281       0.26819
   2     792.3        4.5688        0.0502       25.3578       25.4080      20.839185       0.23214
   1     891.5        4.7018        0.0520       23.1536       23.2055      18.503782       0.19873
   0    1013.0        4.9850        0.0543       21.0688       21.1231      16.138034       0.16427



 Wavenumbers:  7700. -  8050. cm-1, ATM      1
 LEVEL PRESSURE   UPWARD FLUX   DIFDOWN FLUX  DIRDOWN FLUX  DOWNWARD FLUX   NET FLUX    HEATING RATE
          mb          W/m2          W/m2          W/m2        W/m2          W/m2       degree/day
  51    .06700        5.6794        0.0000       11.1810       11.1810       5.501543       0.00000
  50    .07753        5.6794        0.0000       11.1809       11.1809       5.501521       0.01730
  49    .09103        5.6794        0.0000       11.1809       11.1809       5.501494       0.01695
  48    0.1069        5.6794        0.0000       11.1809       11.1809       5.501463       0.01660
  47    0.1255        5.6794        0.0000       11.1809       11.1809       5.501427       0.01624
  46    0.1487        5.6794        0.0000       11.1808       11.1808       5.501382       0.01648
  45    0.1794        5.6795        0.0000       11.1808       11.1808       5.501320       0.01696
  44    0.2165        5.6795        0.0000       11.1807       11.1807       5.501247       0.01663
  43    0.2613        5.6795        0.0000       11.1806       11.1806       5.501161       0.01632
  42    0.3336        5.6795        0.0000       11.1805       11.1805       5.501017       0.01670
  41    0.4307        5.6795        0.0000       11.1803       11.1804       5.500827       0.01652
  40    0.5894        5.6796        0.0000       11.1801       11.1801       5.500517       0.01650
  39     1.339        5.6798        0.0001       11.1788       11.1789       5.499049       0.01653
  38     1.782        5.6800        0.0001       11.1781       11.1782       5.498187       0.01642
  37     2.292        5.6801        0.0002       11.1771       11.1773       5.497189       0.01653
  36     2.964        5.6803        0.0002       11.1760       11.1762       5.495878       0.01645
  35     3.853        5.6806        0.0003       11.1745       11.1748       5.494147       0.01643
  34     5.035        5.6810        0.0003       11.1725       11.1728       5.491848       0.01643
  33     6.613        5.6815        0.0004       11.1698       11.1703       5.488776       0.01642
  32     8.786        5.6822        0.0006       11.1663       11.1668       5.484639       0.01607
  31     11.80        5.6832        0.0007       11.1612       11.1619       5.478724       0.01656
  30     15.07        5.6842        0.0009       11.1557       11.1566       5.472379       0.01638
  29     18.79        5.6854        0.0011       11.1496       11.1507       5.465219       0.01623
  28     23.16        5.6868        0.0013       11.1424       11.1437       5.456867       0.01615
  27     28.12        5.6885        0.0016       11.1342       11.1358       5.447332       0.01621
  26     33.73        5.6903        0.0019       11.1251       11.1270       5.436682       0.01601
  25     40.54        5.6925        0.0023       11.1141       11.1163       5.423846       0.01592
  24     48.69        5.6952        0.0027       11.1009       11.1036       5.408417       0.01597
  23     57.69        5.6981        0.0032       11.0864       11.0897       5.391529       0.01583
  22     68.43        5.7017        0.0038       11.0694       11.0732       5.371497       0.01575
  21     81.20        5.7059        0.0045       11.0492       11.0537       5.347750       0.01569
  20     96.49        5.7110        0.0053       11.0254       11.0307       5.319620       0.01553
  19     114.6        5.7172        0.0063       10.9973       11.0036       5.286386       0.01552
  18     136.5        5.7246        0.0074       10.9645       10.9719       5.247325       0.01502
  17     162.9        5.7335        0.0088       10.9259       10.9347       5.201252       0.01473
  16     196.4        5.7452        0.0106       10.8768       10.8874       5.142163       0.01487
  15     218.7        5.7531        0.0117       10.8451       10.8568       5.103682       0.01461
  14     243.0        5.7618        0.0130       10.8109       10.8239       5.062156       0.01440
  13     269.0        5.7713        0.0143       10.7744       10.7887       5.017408       0.01452
  12     297.5        5.7819        0.0158       10.7353       10.7511       4.969265       0.01428
  11     328.5        5.7935        0.0174       10.6935       10.7109       4.917384       0.01411
  10     361.9        5.8064        0.0191       10.6488       10.6679       4.861517       0.01413
   9     398.1        5.8208        0.0210       10.6010       10.6219       4.801159       0.01406
   8     437.6        5.8368        0.0229       10.5496       10.5725       4.735718       0.01399
   7     480.5        5.8549        0.0250       10.4943       10.5193       4.664418       0.01400
   6     533.0        5.8785        0.0276       10.4255       10.4532       4.574619       0.01445
   5     589.8        5.9059        0.0304       10.3499       10.3803       4.474391       0.01488
   4     651.6        5.9381        0.0334       10.2661       10.2995       4.361369       0.01546
   3     718.7        5.9761        0.0366       10.1728       10.2094       4.233382       0.01608
   2     792.3        6.0213        0.0400       10.0684       10.1084       4.087087       0.01678
   1     891.5        6.0904        0.0445        9.9203        9.9648       3.874431       0.01810
   0    1013.0        6.1862        0.0499        9.7333        9.7831       3.596916       0.01927



 Wavenumbers:  8050. - 12850. cm-1, ATM      1
 LEVEL PRESSURE   UPWARD FLUX   DIFDOWN FLUX  DIRDOWN FLUX  DOWNWARD FLUX   NET FLUX    HEATING RATE
          mb          W/m2          W/m2          W/m2        W/m2          W/m2       degree/day
  51    .06700      100.5110        0.0000      156.5418      156.5418      56.030776       0.00000
  50    .07753      100.5110        0.0000      156.5417      156.5417      56.030776       0.00000
  49    .09103      100.5109        0.0001      156.5417      156.5417      56.030776       0.00000
  48    0.1069      100.5109        0.0001      156.5416      156.5417      56.030776      -0.00000
  47    0.1255      100.5109        0.0002      156.5415      156.5417      56.030776      -0.00000
  46    0.1487      100.5109        0.0002      156.5414      156.5417      56.030776       0.00000
  45    0.1794      100.5109        0.0003      156.5413      156.5416      56.030776      -0.00000
  44    0.2165      100.5108        0.0004      156.5412      156.5416      56.030776      -0.00000
  43    0.2613      100.5108        0.0006      156.5410      156.5415      56.030776       0.00000
  42    0.3336      100.5107        0.0008      156.5407      156.5415      56.030776      -0.00000
  41    0.4307      100.5106        0.0011      156.5403      156.5414      56.030776       0.00000
  40    0.5894      100.5104        0.0015      156.5397      156.5412      56.030776      -0.00000
  39     1.339      100.5096        0.0037      156.5367      156.5404      56.030776      -0.00000
  38     1.782      100.5092        0.0050      156.5350      156.5399      56.030776       0.00000
  37     2.292      100.5077        0.0090      156.5295      156.5385      56.030776      -0.00000
  36     2.964      100.5067        0.0117      156.5257      156.5375      56.030776       0.00000
  35     3.853      100.5056        0.0147      156.5217      156.5364      56.030776       0.00000
  34     5.035      100.5043        0.0184      156.5167      156.5351      56.030776       0.00000
  33     6.613      100.5026        0.0231      156.5103      156.5334      56.030776      -0.00000
  32     8.786      100.5003        0.0293      156.5018      156.5311      56.030776      -0.00000
  31     11.80      100.4971        0.0381      156.4898      156.5279      56.030776       0.00000
  30     15.07      100.4937        0.0476      156.4768      156.5244      56.030776       0.00000
  29     18.79      100.4898        0.0583      156.4623      156.5205      56.030776       0.00000
  28     23.16      100.4852        0.0708      156.4452      156.5160      56.030776      -0.00000
  27     28.12      100.4800        0.0851      156.4257      156.5108      56.030776      -0.00000
  26     33.73      100.4742        0.1011      156.4039      156.5049      56.030776       0.00000
  25     40.54      100.4671        0.1205      156.3774      156.4979      56.030776      -0.00000
  24     48.69      100.4586        0.1439      156.3455      156.4894      56.030776       0.00000
  23     57.69      100.4492        0.1696      156.3104      156.4800      56.030776       0.00000
  22     68.43      100.4380        0.2003      156.2685      156.4688      56.030776      -0.00000
  21     81.20      100.4247        0.2369      156.2185      156.4555      56.030776       0.00000
  20     96.49      100.4087        0.2806      156.1589      156.4395      56.030776       0.00000
  19     114.6      100.3950        0.3325      155.9531      156.2856      55.890604       0.06545
  18     136.5      100.3773        0.3941      155.7463      156.1404      55.763053       0.04905
  17     162.9      100.3545        0.4677      155.5329      156.0006      55.646076       0.03739
  16     196.4      100.3229        0.5633      155.2732      155.8365      55.513573       0.03335
  15     218.7      100.3021        0.6261      155.0617      155.6878      55.385703       0.04855
  14     243.0      100.2791        0.6946      154.8463      155.5409      55.261756       0.04299
  13     269.0      100.2555        0.7687      154.5578      155.3265      55.071065       0.06186
  12     297.5      100.2321        0.8489      154.1750      155.0239      54.791807       0.08283
  11     328.5      100.2105        0.9353      153.6739      154.6092      54.398637       0.10690
  10     361.9      100.1936        1.0281      153.0148      154.0429      53.849338       0.13898
   9     398.1      100.1855        1.1274      152.1359      153.2633      53.077738       0.17977
   8     437.6      100.1932        1.2330      150.9671      152.2001      52.006837       0.22897
   7     480.5      100.2271        1.3447      149.4490      150.7937      50.566583       0.28286
   6     533.0      100.3176        1.4797      147.2371      148.7168      48.399140       0.34867
   5     589.8      100.4942        1.6216      144.4892      146.1107      45.616570       0.41302
   4     651.6      100.8114        1.7695      141.1677      142.9372      42.125800       0.47737
   3     718.7      101.3325        1.9234      137.4300      139.3534      38.020896       0.51587
   2     792.3      102.1791        2.0823      133.3036      135.3859      33.206790       0.55212
   1     891.5      103.9509        2.2874      127.7389      130.0263      26.075411       0.60685
   0    1013.0      107.4072        2.5235      121.4115      123.9349      16.527789       0.66294



 Wavenumbers: 12850. - 16000. cm-1, ATM      1
 LEVEL PRESSURE   UPWARD FLUX   DIFDOWN FLUX  DIRDOWN FLUX  DOWNWARD FLUX   NET FLUX    HEATING RATE
          mb          W/m2          W/m2          W/m2        W/m2          W/m2       degree/day
  51    .06700       81.7038        0.0000       98.0872       98.0872      16.383434       0.00000
  50    .07753       81.7038        0.0001       98.0864       98.0864      16.382641       0.63546
  49    .09103       81.7038        0.0002       98.0853       98.0855      16.381645       0.62251
  48    0.1069       81.7038        0.0003       98.0841       98.0843      16.380501       0.60934
  47    0.1255       81.7038        0.0004       98.0826       98.0830      16.379185       0.59648
  46    0.1487       81.7039        0.0005       98.0809       98.0814      16.377524       0.60554
  45    0.1794       81.7039        0.0007       98.0784       98.0792      16.375263       0.62067
  44    0.2165       81.7040        0.0010       98.0756       98.0766      16.372602       0.60533
  43    0.2613       81.7041        0.0013       98.0723       98.0736      16.369470       0.59023
  42    0.3336       81.7044        0.0017       98.0670       98.0688      16.364356       0.59631
  41    0.4307       81.7048        0.0024       98.0602       98.0626      16.357736       0.57559
  40    0.5894       81.7057        0.0034       98.0496       98.0530      16.347291       0.55546
  39     1.339       81.7129        0.0083       98.0043       98.0126      16.299740       0.53533
  38     1.782       81.7194        0.0111       97.9793       97.9904      16.271050       0.54621
  37     2.292       81.7273        0.0202       97.9424       97.9626      16.235221       0.59343
  36     2.964       81.7427        0.0264       97.8991       97.9254      16.182705       0.65924
  35     3.853       81.7680        0.0330       97.8394       97.8724      16.104387       0.74325
  34     5.035       81.8063        0.0412       97.7563       97.7975      15.991177       0.80873
  33     6.613       81.8599        0.0517       97.6441       97.6957      15.835846       0.83040
  32     8.786       81.9298        0.0655       97.4983       97.5639      15.634083       0.78358
  31     11.80       82.0208        0.0852       97.3053       97.3905      15.369701       0.74019
  30     15.07       82.1082        0.1063       97.1157       97.2220      15.113704       0.66093
  29     18.79       82.1977        0.1300       96.9173       97.0473      14.849644       0.59870
  28     23.16       82.2913        0.1576       96.7038       96.8615      14.570152       0.54045
  27     28.12       82.3858        0.1893       96.4807       96.6700      14.284126       0.48622
  26     33.73       82.4736        0.2246       96.2603       96.4849      14.011308       0.41019
  25     40.54       82.5588        0.2674       96.0279       96.2953      13.736525       0.34090
  24     48.69       82.6412        0.3189       95.7817       96.1006      13.459402       0.28678
  23     57.69       82.7121        0.3755       95.5444       95.9199      13.207791       0.23585
  22     68.43       82.7753        0.4430       95.2977       95.7407      12.965388       0.19056
  21     81.20       82.8214        0.5235       95.0514       95.5749      12.753481       0.14002
  20     96.49       82.8494        0.6195       94.8023       95.4219      12.572451       0.09992
  19     114.6       82.8818        0.7347       94.5260       95.2607      12.378926       0.09036
  18     136.5       82.9084        0.8712       94.2150       95.0863      12.177870       0.07731
  17     162.9       82.9293        1.0338       93.8565       94.8903      11.960998       0.06932
  16     196.4       82.9334        1.2447       93.4137       94.6584      11.724946       0.05942
  15     218.7       82.9282        1.3832       93.1285       94.5117      11.583559       0.05368
  14     243.0       82.9187        1.5337       92.8210       94.3547      11.435999       0.05118
  13     269.0       82.9050        1.6968       92.4891       94.1859      11.280909       0.05031
  12     297.5       82.8874        1.8731       92.1309       94.0040      11.116667       0.04871
  11     328.5       82.8681        2.0636       91.7420       93.8055      10.937424       0.04874
  10     361.9       82.8483        2.2686       91.3190       93.5877      10.739386       0.05011
   9     398.1       82.8295        2.4893       90.8577       93.3470      10.517458       0.05170
   8     437.6       82.8148        2.7262       90.3508       93.0770      10.262242       0.05457
   7     480.5       82.8077        2.9799       89.7904       92.7704       9.962645       0.05884
   6     533.0       82.8163        3.2920       89.0690       92.3611       9.544736       0.06723
   5     589.8       82.8538        3.6276       88.2469       91.8745       9.020706       0.07778
   4     651.6       82.9382        3.9867       87.3017       91.2883       8.350147       0.09170
   3     718.7       83.0875        4.3696       86.2244       90.5940       7.506491       0.10602
   2     792.3       83.3258        4.7749       85.0135       89.7884       6.462590       0.11972
   1     891.5       83.8050        5.3135       83.3079       88.6214       4.816413       0.14008
   0    1013.0       84.6425        5.9496       81.2348       87.1844       2.541848       0.15793



 Wavenumbers: 16000. - 22650. cm-1, ATM      1
 LEVEL PRESSURE   UPWARD FLUX   DIFDOWN FLUX  DIRDOWN FLUX  DOWNWARD FLUX   NET FLUX    HEATING RATE
          mb          W/m2          W/m2          W/m2        W/m2          W/m2       degree/day
  51    .06700      141.0870        0.0000      156.3892      156.3892      15.302266       0.00000
  50    .07753      141.0870        0.0004      156.3887      156.3891      15.302118       0.11848
  49    .09103      141.0869        0.0009      156.3879      156.3888      15.301903       0.13439
  48    0.1069      141.0869        0.0015      156.3871      156.3885      15.301615       0.15324
  47    0.1255      141.0869        0.0021      156.3861      156.3882      15.301230       0.17468
  46    0.1487      141.0870        0.0030      156.3847      156.3877      15.300662       0.20699
  45    0.1794      141.0871        0.0041      156.3828      156.3869      15.299774       0.24372
  44    0.2165      141.0874        0.0054      156.3805      156.3859      15.298570       0.27391
  43    0.2613      141.0877        0.0070      156.3776      156.3846      15.296937       0.30794
  42    0.3336      141.0885        0.0097      156.3726      156.3823      15.293831       0.36213
  41    0.4307      141.0897        0.0131      156.3657      156.3789      15.289149       0.40708
  40    0.5894      141.0923        0.0188      156.3537      156.3725      15.280220       0.47484
  39     1.339      141.1150        0.0458      156.2834      156.3293      15.214251       0.74269
  38     1.782      141.1360        0.0617      156.2324      156.2940      15.158053       1.06991
  37     2.292      141.1602        0.1117      156.1251      156.2369      15.076708       1.34728
  36     2.964      141.2101        0.1460      156.0090      156.1550      14.944934       1.65417
  35     3.853      141.2934        0.1830      155.8462      156.0292      14.735841       1.98433
  34     5.035      141.4201        0.2281      155.6159      155.8440      14.423892       2.22843
  33     6.613      141.5978        0.2861      155.3020      155.5881      13.990374       2.31759
  32     8.786      141.8294        0.3628      154.8929      155.2557      13.426266       2.19079
  31     11.80      142.1311        0.4716      154.3498      154.8214      12.690247       2.06062
  30     15.07      142.4202        0.5878      153.8147      154.4025      11.982214       1.82800
  29     18.79      142.7155        0.7186      153.2534      153.9720      11.256541       1.64532
  28     23.16      143.0240        0.8712      152.6469      153.5181      10.494039       1.47443
  27     28.12      143.3345        1.0453      152.0099      153.0552       9.720728       1.31458
  26     33.73      143.6211        1.2400      151.3755      152.6155       8.994349       1.09213
  25     40.54      143.8970        1.4750      150.6984      152.1734       8.276420       0.89067
  24     48.69      144.1611        1.7580      149.9687      151.7267       7.565653       0.73553
  23     57.69      144.3850        2.0685      149.2502      151.3187       6.933703       0.59236
  22     68.43      144.5804        2.4379      148.4829      150.9208       6.340464       0.46637
  21     81.20      144.7153        2.8778      147.6872      150.5650       5.849713       0.32428
  20     96.49      144.7853        3.4013      146.8486      150.2499       5.464595       0.21256
  19     114.6      144.8218        4.0212      145.9122      149.9335       5.111609       0.16482
  18     136.5      144.8336        4.7531      144.8449      149.5980       4.764359       0.13353
  17     162.9      144.8190        5.6207      143.6149      149.2355       4.416538       0.11118
  16     196.4      144.7381        6.7400      142.1017      148.8417       4.103594       0.07877
  15     218.7      144.6625        7.4715      141.1401      148.6117       3.949202       0.05862
  14     243.0      144.5696        8.2632      140.1125      148.3758       3.806125       0.04962
  13     269.0      144.4582        9.1174      139.0175      148.1348       3.676674       0.04199
  12     297.5      144.3273       10.0359      137.8530      147.8888       3.561510       0.03416
  11     328.5      144.1812       11.0231      136.6078      147.6310       3.449776       0.03038
  10     361.9      144.0196       12.0801      135.2810      147.3611       3.341498       0.02740
   9     398.1      143.8421       13.2107      133.8672      147.0779       3.235720       0.02464
   8     437.6      143.6498       14.4170      132.3621      146.7791       3.129373       0.02274
   7     480.5      143.4423       15.7012      130.7628      146.4640       3.021681       0.02115
   6     533.0      143.1875       17.2698      128.8105      146.0803       2.892764       0.02074
   5     589.8      142.9168       18.9457      126.7225      145.6682       2.751387       0.02098
   4     651.6      142.6333       20.7302      124.4931      145.2233       2.590017       0.02207
   3     718.7      142.3392       22.6251      122.1179      144.7430       2.403780       0.02340
   2     792.3      142.0418       24.6283      119.5927      144.2210       2.179245       0.02575
   1     891.5      141.6744       27.2883      116.2128      143.5011       1.826716       0.03000
   0    1013.0      141.2766       30.4159      112.2133      142.6293       1.352675       0.03292



 Wavenumbers: 22650. - 29000. cm-1, ATM      1
 LEVEL PRESSURE   UPWARD FLUX   DIFDOWN FLUX  DIRDOWN FLUX  DOWNWARD FLUX   NET FLUX    HEATING RATE
          mb          W/m2          W/m2          W/m2        W/m2          W/m2       degree/day
  51    .06700       58.6820        0.0000       59.0156       59.0156       0.333641       0.00000
  50    .07753       58.6819        0.0005       59.0151       59.0155       0.333641      -0.00000
  49    .09103       58.6818        0.0010       59.0144       59.0154       0.333641       0.00000
  48    0.1069       58.6816        0.0017       59.0136       59.0153       0.333641       0.00000
  47    0.1255       58.6815        0.0025       59.0127       59.0151       0.333641      -0.00000
  46    0.1487       58.6813        0.0035       59.0115       59.0149       0.333641       0.00000
  45    0.1794       58.6810        0.0048       59.0099       59.0147       0.333641      -0.00000
  44    0.2165       58.6807        0.0063       59.0080       59.0144       0.333641       0.00000
  43    0.2613       58.6804        0.0082       59.0058       59.0140       0.333641      -0.00000
  42    0.3336       58.6798        0.0113       59.0022       59.0134       0.333641       0.00000
  41    0.4307       58.6790        0.0154       58.9973       59.0127       0.333641      -0.00000
  40    0.5894       58.6777        0.0220       58.9894       59.0114       0.333641       0.00000
  39     1.339       58.6717        0.0535       58.9518       59.0053       0.333641       0.00000
  38     1.782       58.6681        0.0720       58.9297       59.0017       0.333641      -0.00000
  37     2.292       58.6569        0.1304       58.8600       58.9905       0.333641       0.00000
  36     2.964       58.6492        0.1704       58.8124       58.9828       0.333641       0.00000
  35     3.853       58.6408        0.2136       58.7609       58.9745       0.333641      -0.00000
  34     5.035       58.6307        0.2664       58.6980       58.9643       0.333641       0.00000
  33     6.613       58.6176        0.3342       58.6171       58.9513       0.333641       0.00000
  32     8.786       58.6003        0.4240       58.5100       58.9340       0.333641       0.00000
  31     11.80       58.5758        0.5512       58.3583       58.9095       0.333641      -0.00000
  30     15.07       58.5497        0.6871       58.1962       58.8833       0.333641       0.00000
  29     18.79       58.5202        0.8401       58.0138       58.8539       0.333641       0.00000
  28     23.16       58.4859        1.0183       57.8013       58.8196       0.333641      -0.00000
  27     28.12       58.4468        1.2213       57.5591       58.7804       0.333641       0.00000
  26     33.73       58.4032        1.4477       57.2891       58.7368       0.333641      -0.00000
  25     40.54       58.3507        1.7202       56.9642       58.6844       0.333641       0.00000
  24     48.69       58.2878        2.0468       56.5746       58.6214       0.333641      -0.00000
  23     57.69       58.2191        2.4034       56.1493       58.5527       0.333641       0.00000
  22     68.43       58.1379        2.8251       55.6464       58.4715       0.333641       0.00000
  21     81.20       58.0419        3.3230       55.0525       58.3755       0.333641       0.00000
  20     96.49       57.9288        3.9101       54.3523       58.2624       0.333641      -0.00000
  19     114.6       57.7961        4.5981       53.5316       58.1297       0.333641       0.00000
  18     136.5       57.6412        5.4012       52.5737       57.9749       0.333641       0.00000
  17     162.9       57.4601        6.3400       51.4538       57.7938       0.333641      -0.00000
  16     196.4       57.2306        7.5294       50.0348       57.5642       0.333641      -0.00000
  15     218.7       57.0830        8.2938       49.1229       57.4166       0.333641       0.00000
  14     243.0       56.9254        9.1098       48.1492       57.2590       0.333641       0.00000
  13     269.0       56.7578        9.9771       47.1143       57.0914       0.333641      -0.00000
  12     297.5       56.5804       10.8948       46.0193       56.9140       0.333641      -0.00000
  11     328.5       56.3929       11.8642       44.8623       56.7265       0.333641       0.00000
  10     361.9       56.1957       12.8830       43.6464       56.5294       0.333641       0.00000
   9     398.1       55.9889       13.9511       42.3715       56.3225       0.333641      -0.00000
   8     437.6       55.7728       15.0663       41.0401       56.1064       0.333641       0.00000
   7     480.5       55.5478       16.2265       39.6550       55.8815       0.333641       0.00000
   6     533.0       55.2800       17.6064       38.0072       55.6136       0.333641       0.00000
   5     589.8       55.0020       19.0371       36.2985       55.3356       0.333641       0.00000
   4     651.6       54.7153       20.5108       34.5382       55.0490       0.333641       0.00000
   3     718.7       54.4211       22.0208       32.7340       54.7548       0.333641       0.00000
   2     792.3       54.1213       23.5574       30.8976       54.4549       0.333641       0.00000
   1     891.5       53.7399       25.5077       28.5658       54.0735       0.333641      -0.00000
   0    1013.0       53.3150       27.6742       25.9745       53.6486       0.333641       0.00000



 Wavenumbers: 29000. - 38000. cm-1, ATM      1
 LEVEL PRESSURE   UPWARD FLUX   DIFDOWN FLUX  DIRDOWN FLUX  DOWNWARD FLUX   NET FLUX    HEATING RATE
          mb          W/m2          W/m2          W/m2        W/m2          W/m2       degree/day
  51    .06700        8.7794        0.0000       20.8114       20.8114      12.032000       0.00000
  50    .07753        8.7792        0.0003       20.8070       20.8074      12.028192       3.05234
  49    .09103        8.7789        0.0007       20.8009       20.8016      12.022654       3.46174
  48    0.1069        8.7787        0.0012       20.7928       20.7939      12.015242       3.94531
  47    0.1255        8.7784        0.0017       20.7820       20.7837      12.005334       4.49151
  46    0.1487        8.7781        0.0024       20.7665       20.7688      11.990767       5.30984
  45    0.1794        8.7776        0.0033       20.7424       20.7457      11.968097       6.22369
  44    0.2165        8.7771        0.0044       20.7103       20.7147      11.937566       6.94527
  43    0.2613        8.7765        0.0056       20.6675       20.6731      11.896560       7.72945
  42    0.3336        8.7757        0.0077       20.5880       20.5957      11.819977       8.92877
  41    0.4307        8.7746        0.0104       20.4722       20.4826      11.707991       9.73690
  40    0.5894        8.7731        0.0147       20.2637       20.2784      11.505243      10.78190
  39     1.339        8.7703        0.0331       19.0984       19.1315      10.361231      12.87950
  38     1.782        8.7713        0.0427       18.4394       18.4821       9.710752      12.38408
  37     2.292        8.7623        0.0739       17.7384       17.8124       9.050038      10.94315
  36     2.964        8.7655        0.0922       17.0007       17.0929       8.327396       9.07134
  35     3.853        8.7767        0.1100       16.2244       16.3344       7.557640       7.30513
  34     5.035        8.7970        0.1304       15.4375       15.5679       6.770892       5.62020
  33     6.613        8.8273        0.1557       14.6748       14.8305       6.003139       4.10441
  32     8.786        8.8677        0.1886       13.9546       14.1433       5.275622       2.82542
  31     11.80        8.9205        0.2345       13.2467       13.4812       4.560656       2.00168
  30     15.07        8.9715        0.2826       12.7034       12.9860       4.014499       1.41007
  29     18.79        9.0243        0.3357       12.2322       12.5679       3.543603       1.06767
  28     23.16        9.0803        0.3965       11.7969       12.1935       3.113124       0.83241
  27     28.12        9.1377        0.4647       11.3961       11.8608       2.723033       0.66313
  26     33.73        9.1908        0.5400       11.0388       11.5788       2.388023       0.50370
  25     40.54        9.2411        0.6301       10.6912       11.3214       2.080298       0.38177
  24     48.69        9.2886        0.7372       10.3456       11.0827       1.794139       0.29613
  23     57.69        9.3276        0.8531       10.0272       10.8803       1.552703       0.22631
  22     68.43        9.3592        0.9892        9.7060       10.6952       1.335946       0.17040
  21     81.20        9.3745        1.1500        9.3876       10.5376       1.163098       0.11422
  20     96.49        9.3714        1.3391        9.0638       10.4029       1.031515       0.07262
  19     114.6        9.3581        1.5576        8.7149       10.2725       0.914385       0.05469
  18     136.5        9.3375        1.8075        8.3320       10.1395       0.801991       0.04322
  17     162.9        9.3099        2.0924        7.9095       10.0018       0.691941       0.03518
  16     196.4        9.2631        2.4460        7.4121        9.8581       0.595029       0.02439
  15     218.7        9.2294        2.6680        7.1092        9.7772       0.547782       0.01794
  14     243.0        9.1926        2.9000        6.7967        9.6967       0.504152       0.01513
  13     269.0        9.1523        3.1414        6.4759        9.6172       0.464975       0.01271
  12     297.5        9.1086        3.3908        6.1483        9.5390       0.430438       0.01024
  11     328.5        9.0630        3.6474        5.8130        9.4604       0.397369       0.00899
  10     361.9        9.0160        3.9088        5.4732        9.3819       0.365918       0.00796
   9     398.1        8.9676        4.1742        5.1295        9.3037       0.336111       0.00694
   8     437.6        8.9185        4.4424        4.7835        9.2258       0.307376       0.00614
   7     480.5        8.8688        4.7110        4.4379        9.1489       0.280098       0.00536
   6     533.0        8.8119        5.0174        4.0449        9.0623       0.250361       0.00478
   5     589.8        8.7559        5.3195        3.6579        8.9774       0.221566       0.00427
   4     651.6        8.7017        5.6134        3.2817        8.8951       0.193395       0.00385
   3     718.7        8.6498        5.8974        2.9182        8.8156       0.165798       0.00347
   2     792.3        8.6009        6.1691        2.5706        8.7397       0.138783       0.00310
   1     891.5        8.5451        6.4878        2.1627        8.6505       0.105423       0.00284
   0    1013.0        8.4921        6.8070        1.7537        8.5607       0.068599       0.00256



 Wavenumbers: 38000. - 50000. cm-1, ATM      1
 LEVEL PRESSURE   UPWARD FLUX   DIFDOWN FLUX  DIRDOWN FLUX  DOWNWARD FLUX   NET FLUX    HEATING RATE
          mb          W/m2          W/m2          W/m2        W/m2          W/m2       degree/day
  51    .06700        0.0069        0.0000        1.2836        1.2836       1.276757       0.00000
  50    .07753        0.0068        0.0001        1.2812        1.2812       1.274422       1.87203
  49    .09103        0.0067        0.0002        1.2777        1.2778       1.271089       2.08302
  48    0.1069        0.0067        0.0002        1.2731        1.2734       1.266710       2.33118
  47    0.1255        0.0066        0.0004        1.2672        1.2675       1.260953       2.60970
  46    0.1487        0.0065        0.0005        1.2586        1.2591       1.252625       3.03568
  45    0.1794        0.0063        0.0007        1.2455        1.2462       1.239854       3.50597
  44    0.2165        0.0061        0.0009        1.2282        1.2291       1.222924       3.85119
  43    0.2613        0.0060        0.0011        1.2054        1.2065       1.200571       4.21350
  42    0.3336        0.0057        0.0015        1.1639        1.1654       1.159738       4.76072
  41    0.4307        0.0053        0.0020        1.1051        1.1071       1.101766       5.04054
  40    0.5894        0.0047        0.0026        1.0039        1.0064       1.001700       5.32136
  39     1.339        0.0033        0.0035        0.5438        0.5473       0.544079       5.15199
  38     1.782        0.0029        0.0032        0.3635        0.3667       0.363739       3.43338
  37     2.292        0.0015        0.0037        0.2336        0.2373       0.235814       2.11876
  36     2.964        0.0009        0.0030        0.1438        0.1469       0.145914       1.12852
  35     3.853        0.0006        0.0023        0.0847        0.0870       0.086386       0.56494
  34     5.035        0.0004        0.0016        0.0482        0.0498       0.049400       0.26421
  33     6.613        0.0003        0.0012        0.0269        0.0281       0.027808       0.11543
  32     8.786        0.0002        0.0008        0.0142        0.0150       0.014843       0.05035
  31     11.80        0.0001        0.0005        0.0065        0.0069       0.006868       0.02233
  30     15.07        0.0000        0.0003        0.0031        0.0034       0.003314       0.00917
  29     18.79        0.0000        0.0002        0.0014        0.0016       0.001577       0.00394
  28     23.16        0.0000        0.0001        0.0006        0.0007       0.000718       0.00166
  27     28.12        0.0000        0.0001        0.0003        0.0003       0.000316       0.00068
  26     33.73        0.0000        0.0000        0.0001        0.0001       0.000139       0.00027
  25     40.54        0.0000        0.0000        0.0000        0.0001       0.000057       0.00010
  24     48.69        0.0000        0.0000        0.0000        0.0000       0.000021       0.00004
  23     57.69        0.0000        0.0000        0.0000        0.0000       0.000008       0.00001
  22     68.43        0.0000        0.0000        0.0000        0.0000       0.000003       0.00000
  21     81.20        0.0000        0.0000        0.0000        0.0000       0.000001       0.00000
  20     96.49        0.0000        0.0000        0.0000        0.0000       0.000000       0.00000
  19     114.6        0.0000        0.0000        0.0000        0.0000       0.000000       0.00000
  18     136.5        0.0000        0.0000        0.0000        0.0000       0.000000       0.00000
  17     162.9        0.0000        0.0000        0.0000        0.0000       0.000000       0.00000
  16     196.4        0.0000        0.0000        0.0000        0.0000       0.000000       0.00000
  15     218.7        0.0000        0.0000        0.0000        0.0000       0.000000       0.00000
  14     243.0        0.0000        0.0000        0.0000        0.0000       0.000000       0.00000
  13     269.0        0.0000        0.0000        0.0000        0.0000       0.000000       0.00000
  12     297.5        0.0000        0.0000        0.0000        0.0000       0.000000       0.00000
  11     328.5        0.0000        0.0000        0.0000        0.0000       0.000000       0.00000
  10     361.9        0.0000        0.0000        0.0000        0.0000       0.000000       0.00000
   9     398.1        0.0000        0.0000        0.0000        0.0000       0.000000       0.00000
   8     437.6        0.0000        0.0000        0.0000        0.0000       0.000000       0.00000
   7     480.5        0.0000        0.0000        0.0000        0.0000       0.000000       0.00000
   6     533.0        0.0000        0.0000        0.0000        0.0000       0.000000       0.00000
   5     589.8        0.0000        0.0000        0.0000        0.0000       0.000000       0.00000
   4     651.6        0.0000        0.0000        0.0000        0.0000       0.000000       0.00000
   3     718.7        0.0000        0.0000        0.0000        0.0000       0.000000       0.00000
   2     792.3        0.0000        0.0000        0.0000        0.0000       0.000000       0.00000
   1     891.5        0.0000        0.0000        0.0000        0.0000       0.000000       0.00000
   0    1013.0        0.0000        0.0000        0.0000        0.0000       0.000000       0.00000



 Wavenumbers:   820. -  2600. cm-1, ATM      1
 LEVEL PRESSURE   UPWARD FLUX   DIFDOWN FLUX  DIRDOWN FLUX  DOWNWARD FLUX   NET FLUX    HEATING RATE
          mb          W/m2          W/m2          W/m2        W/m2          W/m2       degree/day
  51    .06700        0.0088        0.0000        6.0047        6.0047       5.995883       0.00000
  50    .07753        0.0088        0.0000        6.0009        6.0009       5.992103       3.02937
  49    .09103        0.0088        0.0000        6.0001        6.0001       5.991313       0.49378
  48    0.1069        0.0088        0.0000        5.9992        5.9992       5.990438       0.46572
  47    0.1255        0.0088        0.0000        5.9982        5.9982       5.989457       0.44470
  46    0.1487        0.0088        0.0000        5.9970        5.9970       5.988279       0.42941
  45    0.1794        0.0088        0.0000        5.9956        5.9956       5.986813       0.40259
  44    0.2165        0.0088        0.0000        5.9940        5.9940       5.985280       0.34860
  43    0.2613        0.0088        0.0000        5.9925        5.9925       5.983701       0.29770
  42    0.3336        0.0088        0.0000        5.9902        5.9902       5.981472       0.25991
  41    0.4307        0.0088        0.0000        5.9877        5.9877       5.978884       0.22503
  40    0.5894        0.0088        0.0000        5.9836        5.9836       5.974852       0.21442
  39     1.339        0.0088        0.0000        5.9651        5.9651       5.956341       0.20839
  38     1.782        0.0088        0.0000        5.9549        5.9549       5.946125       0.19451
  37     2.292        0.0099        0.0000        1.3846        1.3846       1.374730      75.71422
  36     2.964        0.0103        0.0000        1.2898        1.2898       1.279518       1.19520
  35     3.853        0.0105        0.0000        1.2498        1.2498       1.239309       0.38159
  34     5.035        0.0106        0.0000        1.2287        1.2287       1.218033       0.15198
  33     6.613        0.0107        0.0000        1.2165        1.2165       1.205816       0.06531
  32     8.786        0.0108        0.0000        1.2094        1.2094       1.198659       0.02780
  31     11.80        0.0108        0.0000        1.2050        1.2050       1.194198       0.01249
  30     15.07        0.0108        0.0000        1.2027        1.2027       1.191863       0.00603
  29     18.79        0.0108        0.0000        1.2013        1.2013       1.190445       0.00321
  28     23.16        0.0108        0.0000        1.2003        1.2003       1.189458       0.00191
  27     28.12        0.0109        0.0000        1.1996        1.1996       1.188714       0.00126
  26     33.73        0.0109        0.0000        1.1990        1.1990       1.188141       0.00086
  25     40.54        0.0109        0.0000        1.1982        1.1982       1.187355       0.00098
  24     48.69        0.0109        0.0000        1.1976        1.1976       1.186683       0.00069
  23     57.69        0.0109        0.0000        1.1970        1.1970       1.186156       0.00049
  22     68.43        0.0109        0.0000        1.1966        1.1966       1.185704       0.00036
  21     81.20        0.0109        0.0000        1.1962        1.1962       1.185315       0.00026
  20     96.49        0.0109        0.0000        1.1959        1.1959       1.184974       0.00019
  19     114.6        0.0109        0.0000        1.1956        1.1956       1.184697       0.00013
  18     136.5        0.0109        0.0000        1.1953        1.1953       1.184406       0.00011
  17     162.9        0.0109        0.0000        1.1950        1.1950       1.184134       0.00009
  16     196.4        0.0109        0.0000        1.1948        1.1948       1.183867       0.00007
  15     218.7        0.0109        0.0000        1.1946        1.1946       1.183698       0.00006
  14     243.0        0.0109        0.0000        1.1944        1.1945       1.183563       0.00005
  13     269.0        0.0109        0.0000        1.1943        1.1943       1.183395       0.00005
  12     297.5        0.0109        0.0000        1.1940        1.1940       1.183153       0.00007
  11     328.5        0.0109        0.0000        1.1937        1.1937       1.182799       0.00010
  10     361.9        0.0109        0.0000        1.1931        1.1932       1.182259       0.00014
   9     398.1        0.0109        0.0000        1.1923        1.1924       1.181458       0.00019
   8     437.6        0.0109        0.0000        1.1912        1.1912       1.180307       0.00025
   7     480.5        0.0109        0.0000        1.1896        1.1896       1.178688       0.00032
   6     533.0        0.0109        0.0000        1.1867        1.1868       1.175818       0.00046
   5     589.8        0.0110        0.0000        1.1823        1.1823       1.171361       0.00066
   4     651.6        0.0110        0.0000        1.1747        1.1747       1.163688       0.00105
   3     718.7        0.0111        0.0000        1.1630        1.1630       1.151847       0.00149
   2     792.3        0.0113        0.0000        1.1454        1.1454       1.134093       0.00204
   1     891.5        0.0116        0.0000        1.1123        1.1123       1.100728       0.00284
   0    1013.0        0.0121        0.0000        1.0612        1.0613       1.049161       0.00358

  Modules and versions used in this calculation:

       rrtmg_sw.1col.f90:  $Revision$                    rrtmg_sw_init.f90:  $Revision$        
     rrtmgsw_cldprop.f90:  $Revision$                  rrtmgsw_cldprmc.f90:  NOT USED          
     rrtmg_sw_reftra.f90:  $Revision$                  rrtmg_sw_spcvrt.f90:  NOT USED          
     rrtmg_sw_spcvmc.f90:  NOT USED                    rrtmgsw_setcoef.f90:  NOT USED          
     rrtmg_sw_taumol.f90:  $Revision$                  rrtmg_sw_vrtqdr.f90:  NOT USED          
                rrtatm.f:  NOT USED                             util_xxx.f:  NOT USED          
                 extra.f:  NOT USED                       rrtmg_sw_k_g.f90:  $Revision$        

