

 Wavenumbers:   820. - 50000. cm-1, ATM      1
 LEVEL PRESSURE   UPWARD FLUX   DIFDOWN FLUX  DIRDOWN FLUX  DOWNWARD FLUX   NET FLUX    HEATING RATE
          mb          W/m2          W/m2          W/m2        W/m2          W/m2       degree/day
  51    .06700      456.3603        0.0000      617.8126      617.8126     161.452364       0.00000
  50    .07753      456.3599        0.0014      617.7951      617.7965     161.436561      12.66627
  49    .09103      456.3595        0.0031      617.7786      617.7816     161.422160       9.00164
  48    0.1069      456.3590        0.0050      617.7593      617.7644     161.405351       8.94709
  47    0.1255      456.3585        0.0073      617.7358      617.7430     161.384511       9.44803
  46    0.1487      456.3580        0.0101      617.7033      617.7134     161.355449      10.59331
  45    0.1794      456.3573        0.0140      617.6554      617.6693     161.312044      11.91581
  44    0.2165      456.3566        0.0185      617.5938      617.6123     161.255682      12.82141
  43    0.2613      456.3560        0.0239      617.5144      617.5383     161.182306      13.83099
  42    0.3336      456.3553        0.0328      617.3716      617.4044     161.049125      15.52766
  41    0.4307      456.3548        0.0445      617.1693      617.2138     160.859046      16.52687
  40    0.5894      456.3550        0.0634      616.8151      616.8785     160.523527      17.84249
  39     1.339      456.3750        0.1488      614.9781      615.1269     158.751944      19.94480
  38     1.782      456.3999        0.1969      614.0108      614.2077     157.807736      17.97621
  37     2.292      456.4408        0.2516      613.0603      613.3119     156.871066      15.51368
  36     2.964      456.5125        0.3227      612.0250      612.3477     155.835190      13.00338
  35     3.853      456.6325        0.4159      610.8857      611.3016     154.669132      11.06610
  34     5.035      456.8167        0.5390      609.6358      610.1747     153.358083       9.36559
  33     6.613      457.0759        0.7023      608.2735      608.9758     151.899982       7.79501
  32     8.786      457.4136        0.9215      606.7805      607.7020     150.288408       6.25877
  31     11.80      457.8513        1.2335      605.0381      606.2716     148.420310       5.23009
  30     15.07      458.2684        1.5665      603.4640      605.0306     146.762142       4.28106
  29     18.79      458.6924        1.9412      601.9020      603.8432     145.150813       3.65338
  28     23.16      459.1332        2.3766      600.2775      602.6541     143.520960       3.15161
  27     28.12      459.5735        2.8722      598.6101      601.4823     141.908792       2.74058
  26     33.73      459.9732        3.4247      596.9557      600.3804     140.407202       2.25768
  25     40.54      460.3476        4.0900      595.1753      599.2653     138.917697       1.84790
  24     48.69      460.6939        4.8883      593.2345      598.1228     137.428831       1.54074
  23     57.69      460.9726        5.7611      591.2898      597.0509     136.078293       1.26593
  22     68.43      461.1940        6.7951      589.1643      595.9594     134.765407       1.03210
  21     81.20      461.3044        8.0211      586.8714      594.8925     133.588145       0.77792
  20     96.49      461.2938        9.4728      584.3622      593.8350     132.541272       0.57780
  19     114.6      461.2185       11.1806      581.5253      592.7060     131.487454       0.49206
  18     136.5      461.0837       13.1806      578.2941      591.4748     130.391030       0.42160
  17     162.9      460.8843       15.5281      574.5914      590.1196     129.235237       0.36944
  16     196.4      460.5356       18.5225      570.0330      588.5554     128.019800       0.30594
  15     218.7      460.2763       20.4589      567.1463      587.6052     127.328888       0.26231
  14     243.0      459.9835       22.5364      564.0812      586.6176     126.634143       0.24096
  13     269.0      459.6549       24.7568      560.8405      585.5973     125.942435       0.22439
  12     297.5      459.2901       27.1210      557.4261      584.5471     125.256977       0.20330
  11     328.5      458.8965       29.6355      553.8238      583.4593     124.562821       0.18874
  10     361.9      458.4749       32.2969      550.0408      582.3377     123.862769       0.17712
   9     398.1      458.0250       35.1103      546.0725      581.1828     123.157776       0.16425
   8     437.6      457.5495       38.0753      541.9166      579.9920     122.442468       0.15294
   7     480.5      457.0487       41.1908      537.5736      578.7644     121.715684       0.14274
   6     533.0      456.4476       44.9404      532.3669      577.3073     120.859711       0.13770
   5     589.8      455.8216       48.8815      526.9064      575.7879     119.966350       0.13260
   4     651.6      455.1763       53.0087      521.1908      574.1995     119.023274       0.12897
   3     718.7      454.5177       57.3157      515.2243      572.5400     118.022380       0.12578
   2     792.3      453.8535       61.7929      509.0166      570.8095     116.955974       0.12230
   1     891.5      453.0309       67.6224      500.9241      568.5465     115.515552       0.12257
   0    1013.0      452.1682       74.3243      491.6124      565.9368     113.768554       0.12130



 Wavenumbers:  2600. -  3250. cm-1, ATM      1
 LEVEL PRESSURE   UPWARD FLUX   DIFDOWN FLUX  DIRDOWN FLUX  DOWNWARD FLUX   NET FLUX    HEATING RATE
          mb          W/m2          W/m2          W/m2        W/m2          W/m2       degree/day
  51    .06700        0.0676        0.0000        5.4450        5.4450       5.377426       0.00000
  50    .07753        0.0676        0.0000        5.4450        5.4450       5.377418       0.00640
  49    .09103        0.0676        0.0000        5.4450        5.4450       5.377408       0.00627
  48    0.1069        0.0676        0.0000        5.4450        5.4450       5.377397       0.00613
  47    0.1255        0.0676        0.0000        5.4450        5.4450       5.377383       0.00599
  46    0.1487        0.0676        0.0000        5.4450        5.4450       5.377367       0.00608
  45    0.1794        0.0676        0.0000        5.4450        5.4450       5.377344       0.00625
  44    0.2165        0.0676        0.0000        5.4449        5.4449       5.377317       0.00612
  43    0.2613        0.0676        0.0000        5.4449        5.4449       5.377285       0.00600
  42    0.3336        0.0676        0.0000        5.4448        5.4448       5.377232       0.00617
  41    0.4307        0.0676        0.0000        5.4448        5.4448       5.377161       0.00620
  40    0.5894        0.0676        0.0000        5.4446        5.4446       5.377041       0.00637
  39     1.339        0.0676        0.0000        5.4439        5.4439       5.376334       0.00797
  38     1.782        0.0676        0.0000        5.4434        5.4434       5.375791       0.01034
  37     2.292        0.0676        0.0000        5.4427        5.4427       5.375075       0.01186
  36     2.964        0.0676        0.0000        5.4416        5.4416       5.374036       0.01304
  35     3.853        0.0676        0.0000        5.4402        5.4402       5.372559       0.01402
  34     5.035        0.0676        0.0000        5.4381        5.4381       5.370503       0.01468
  33     6.613        0.0676        0.0000        5.4353        5.4353       5.367722       0.01487
  32     8.786        0.0676        0.0000        5.4317        5.4317       5.364090       0.01411
  31     11.80        0.0676        0.0000        5.4269        5.4269       5.359309       0.01338
  30     15.07        0.0676        0.0000        5.4224        5.4224       5.354782       0.01169
  29     18.79        0.0676        0.0000        5.4180        5.4180       5.350369       0.01000
  28     23.16        0.0676        0.0000        5.4135        5.4135       5.345882       0.00868
  27     28.12        0.0676        0.0000        5.4088        5.4088       5.341233       0.00790
  26     33.73        0.0676        0.0000        5.4036        5.4036       5.335991       0.00788
  25     40.54        0.0676        0.0000        5.3966        5.3967       5.329047       0.00861
  24     48.69        0.0676        0.0000        5.3872        5.3872       5.319567       0.00981
  23     57.69        0.0676        0.0000        5.3754        5.3754       5.307778       0.01105
  22     68.43        0.0676        0.0000        5.3599        5.3599       5.292285       0.01218
  21     81.20        0.0676        0.0000        5.3401        5.3401       5.272445       0.01311
  20     96.49        0.0677        0.0000        5.3155        5.3155       5.247870       0.01356
  19     114.6        0.0677        0.0000        5.2861        5.2861       5.218462       0.01373
  18     136.5        0.0677        0.0000        5.2520        5.2520       5.184319       0.01313
  17     162.9        0.0678        0.0001        5.2137        5.2138       5.146039       0.01224
  16     196.4        0.0678        0.0001        5.1693        5.1694       5.101527       0.01120
  15     218.7        0.0679        0.0001        5.1433        5.1434       5.075510       0.00988
  14     243.0        0.0679        0.0001        5.1177        5.1178       5.049881       0.00889
  13     269.0        0.0680        0.0001        5.0928        5.0929       5.024894       0.00811
  12     297.5        0.0681        0.0001        5.0686        5.0687       5.000614       0.00720
  11     328.5        0.0682        0.0001        5.0450        5.0451       4.976891       0.00645
  10     361.9        0.0683        0.0001        5.0217        5.0219       4.953550       0.00591
   9     398.1        0.0685        0.0001        4.9985        4.9986       4.930137       0.00545
   8     437.6        0.0686        0.0002        4.9745        4.9746       4.906013       0.00516
   7     480.5        0.0688        0.0002        4.9492        4.9494       4.880567       0.00500
   6     533.0        0.0691        0.0002        4.9180        4.9182       4.849087       0.00506
   5     589.8        0.0694        0.0002        4.8837        4.8839       4.814512       0.00513
   4     651.6        0.0698        0.0002        4.8458        4.8460       4.776282       0.00523
   3     718.7        0.0702        0.0002        4.8040        4.8042       4.734060       0.00531
   2     792.3        0.0707        0.0003        4.7579        4.7582       4.687487       0.00534
   1     891.5        0.0714        0.0003        4.6938        4.6941       4.622645       0.00552
   0    1013.0        0.0725        0.0003        4.6148        4.6151       4.542683       0.00555



 Wavenumbers:  3250. -  4000. cm-1, ATM      1
 LEVEL PRESSURE   UPWARD FLUX   DIFDOWN FLUX  DIRDOWN FLUX  DOWNWARD FLUX   NET FLUX    HEATING RATE
          mb          W/m2          W/m2          W/m2        W/m2          W/m2       degree/day
  51    .06700        0.1513        0.0000        9.1795        9.1795       9.028181       0.00000
  50    .07753        0.1513        0.0000        9.1749        9.1749       9.023520       3.73574
  49    .09103        0.1513        0.0000        9.1717        9.1717       9.020338       1.98847
  48    0.1069        0.1513        0.0000        9.1694        9.1694       9.018028       1.22989
  47    0.1255        0.1513        0.0000        9.1673        9.1673       9.015990       0.92393
  46    0.1487        0.1513        0.0000        9.1652        9.1652       9.013804       0.79680
  45    0.1794        0.1513        0.0000        9.1626        9.1626       9.011234       0.70550
  44    0.2165        0.1513        0.0000        9.1600        9.1600       9.008644       0.58930
  43    0.2613        0.1513        0.0000        9.1574        9.1574       9.006043       0.49029
  42    0.3336        0.1513        0.0000        9.1538        9.1538       9.002473       0.41620
  41    0.4307        0.1513        0.0000        9.1499        9.1499       8.998509       0.34461
  40    0.5894        0.1513        0.0000        9.1442        9.1442       8.992804       0.30340
  39     1.339        0.1513        0.0000        9.1217        9.1217       8.970335       0.25296
  38     1.782        0.1513        0.0000        9.1114        9.1114       8.960070       0.19543
  37     2.292        0.1513        0.0000        9.1014        9.1014       8.950094       0.16523
  36     2.964        0.1513        0.0000        9.0902        9.0902       8.938829       0.14140
  35     3.853        0.1513        0.0000        9.0769        9.0769       8.925517       0.12634
  34     5.035        0.1513        0.0000        9.0602        9.0603       8.908911       0.11863
  33     6.613        0.1513        0.0000        9.0383        9.0383       8.886974       0.11728
  32     8.786        0.1513        0.0000        9.0077        9.0077       8.856342       0.11896
  31     11.80        0.1513        0.0000        8.9617        8.9617       8.810395       0.12864
  30     15.07        0.1513        0.0000        8.9102        8.9103       8.758931       0.13287
  29     18.79        0.1513        0.0000        8.8504        8.8505       8.699133       0.13558
  28     23.16        0.1513        0.0000        8.7804        8.7805       8.629149       0.13533
  27     28.12        0.1513        0.0000        8.7025        8.7025       8.551192       0.13252
  26     33.73        0.1513        0.0000        8.6206        8.6207       8.469376       0.12301
  25     40.54        0.1513        0.0001        8.5307        8.5308       8.379459       0.11155
  24     48.69        0.1513        0.0001        8.4348        8.4349       8.283589       0.09921
  23     57.69        0.1513        0.0001        8.3403        8.3403       8.189046       0.08862
  22     68.43        0.1513        0.0001        8.2352        8.2353       8.084034       0.08255
  21     81.20        0.1513        0.0001        8.1144        8.1145       7.963166       0.07987
  20     96.49        0.1513        0.0001        7.9739        7.9740       7.822699       0.07753
  19     114.6        0.1513        0.0001        7.8144        7.8145       7.663197       0.07448
  18     136.5        0.1513        0.0002        7.6392        7.6394       7.488073       0.06734
  17     162.9        0.1513        0.0002        7.4510        7.4512       7.299890       0.06015
  16     196.4        0.1514        0.0002        7.2347        7.2349       7.083576       0.05445
  15     218.7        0.1514        0.0003        7.1048        7.1051       6.953677       0.04932
  14     243.0        0.1514        0.0003        6.9738        6.9741       6.822657       0.04544
  13     269.0        0.1515        0.0003        6.8447        6.8450       6.693503       0.04190
  12     297.5        0.1515        0.0003        6.7213        6.7216       6.570067       0.03661
  11     328.5        0.1516        0.0004        6.6078        6.6082       6.456563       0.03086
  10     361.9        0.1517        0.0004        6.5077        6.5081       6.356424       0.02534
   9     398.1        0.1518        0.0004        6.4235        6.4239       6.272116       0.01964
   8     437.6        0.1520        0.0005        6.3555        6.3560       6.204027       0.01456
   7     480.5        0.1522        0.0005        6.3025        6.3030       6.150825       0.01045
   6     533.0        0.1524        0.0005        6.2561        6.2566       6.104222       0.00750
   5     589.8        0.1527        0.0006        6.2196        6.2202       6.067513       0.00545
   4     651.6        0.1531        0.0007        6.1876        6.1883       6.035221       0.00442
   3     718.7        0.1535        0.0007        6.1561        6.1568       6.003285       0.00401
   2     792.3        0.1541        0.0008        6.1227        6.1235       5.969428       0.00388
   1     891.5        0.1549        0.0009        6.0770        6.0779       5.923010       0.00395
   0    1013.0        0.1560        0.0010        6.0211        6.0221       5.866118       0.00395



 Wavenumbers:  4000. -  4650. cm-1, ATM      1
 LEVEL PRESSURE   UPWARD FLUX   DIFDOWN FLUX  DIRDOWN FLUX  DOWNWARD FLUX   NET FLUX    HEATING RATE
          mb          W/m2          W/m2          W/m2        W/m2          W/m2       degree/day
  51    .06700        1.7971        0.0000       10.7795       10.7795       8.982471       0.00000
  50    .07753        1.7971        0.0000       10.7795       10.7795       8.982470       0.00089
  49    .09103        1.7971        0.0000       10.7795       10.7795       8.982469       0.00088
  48    0.1069        1.7971        0.0000       10.7795       10.7795       8.982467       0.00086
  47    0.1255        1.7971        0.0000       10.7795       10.7795       8.982465       0.00084
  46    0.1487        1.7971        0.0000       10.7795       10.7795       8.982463       0.00085
  45    0.1794        1.7971        0.0000       10.7795       10.7795       8.982460       0.00087
  44    0.2165        1.7971        0.0000       10.7795       10.7795       8.982456       0.00086
  43    0.2613        1.7971        0.0000       10.7795       10.7795       8.982452       0.00084
  42    0.3336        1.7971        0.0000       10.7795       10.7795       8.982444       0.00086
  41    0.4307        1.7971        0.0000       10.7795       10.7795       8.982434       0.00087
  40    0.5894        1.7971        0.0000       10.7795       10.7795       8.982418       0.00089
  39     1.339        1.7971        0.0000       10.7794       10.7794       8.982317       0.00113
  38     1.782        1.7971        0.0000       10.7793       10.7793       8.982239       0.00149
  37     2.292        1.7971        0.0000       10.7792       10.7792       8.982133       0.00175
  36     2.964        1.7971        0.0000       10.7790       10.7791       8.981976       0.00198
  35     3.853        1.7971        0.0000       10.7788       10.7788       8.981742       0.00222
  34     5.035        1.7971        0.0000       10.7785       10.7785       8.981398       0.00246
  33     6.613        1.7971        0.0000       10.7780       10.7780       8.980891       0.00271
  32     8.786        1.7971        0.0000       10.7772       10.7773       8.980142       0.00291
  31     11.80        1.7971        0.0000       10.7761       10.7761       8.978966       0.00329
  30     15.07        1.7972        0.0001       10.7747       10.7747       8.977586       0.00356
  29     18.79        1.7972        0.0001       10.7730       10.7731       8.975917       0.00378
  28     23.16        1.7973        0.0001       10.7710       10.7711       8.973845       0.00401
  27     28.12        1.7973        0.0001       10.7685       10.7687       8.971336       0.00427
  26     33.73        1.7974        0.0001       10.7655       10.7657       8.968241       0.00465
  25     40.54        1.7975        0.0002       10.7614       10.7616       8.964044       0.00521
  24     48.69        1.7977        0.0002       10.7560       10.7562       8.958449       0.00579
  23     57.69        1.7980        0.0002       10.7496       10.7498       8.951816       0.00622
  22     68.43        1.7983        0.0003       10.7416       10.7418       8.943502       0.00654
  21     81.20        1.7988        0.0003       10.7317       10.7320       8.933263       0.00677
  20     96.49        1.7994        0.0004       10.7198       10.7202       8.920803       0.00688
  19     114.6        1.8001        0.0004       10.7055       10.7059       8.905800       0.00701
  18     136.5        1.8011        0.0005       10.6883       10.6888       8.887724       0.00695
  17     162.9        1.8024        0.0006       10.6676       10.6683       8.865879       0.00698
  16     196.4        1.8042        0.0008       10.6406       10.6414       8.837137       0.00723
  15     218.7        1.8055        0.0008       10.6227       10.6236       8.818023       0.00726
  14     243.0        1.8070        0.0009       10.6031       10.6041       8.797012       0.00729
  13     269.0        1.8088        0.0010       10.5817       10.5827       8.773946       0.00748
  12     297.5        1.8108        0.0011       10.5583       10.5595       8.748706       0.00749
  11     328.5        1.8130        0.0013       10.5329       10.5341       8.721082       0.00751
  10     361.9        1.8156        0.0014       10.5054       10.5068       8.691167       0.00757
   9     398.1        1.8185        0.0015       10.4759       10.4774       8.658858       0.00753
   8     437.6        1.8218        0.0017       10.4441       10.4458       8.623977       0.00746
   7     480.5        1.8254        0.0018       10.4100       10.4118       8.586335       0.00739
   6     533.0        1.8302        0.0020       10.3679       10.3699       8.539720       0.00750
   5     589.8        1.8356        0.0022       10.3226       10.3248       8.489253       0.00749
   4     651.6        1.8417        0.0024       10.2741       10.2766       8.434895       0.00743
   3     718.7        1.8485        0.0027       10.2224       10.2251       8.376575       0.00733
   2     792.3        1.8562        0.0029       10.1675       10.1705       8.314294       0.00714
   1     891.5        1.8670        0.0033       10.0941       10.0974       8.230381       0.00714
   0    1013.0        1.8809        0.0037       10.0071       10.0108       8.129908       0.00698



 Wavenumbers:  4650. -  5150. cm-1, ATM      1
 LEVEL PRESSURE   UPWARD FLUX   DIFDOWN FLUX  DIRDOWN FLUX  DOWNWARD FLUX   NET FLUX    HEATING RATE
          mb          W/m2          W/m2          W/m2        W/m2          W/m2       degree/day
  51    .06700        0.4389        0.0000       10.2033       10.2033       9.764487       0.00000
  50    .07753        0.4389        0.0000       10.2031       10.2031       9.764258       0.18362
  49    .09103        0.4389        0.0000       10.2028       10.2028       9.763972       0.17904
  48    0.1069        0.4389        0.0000       10.2025       10.2025       9.763644       0.17422
  47    0.1255        0.4389        0.0000       10.2021       10.2021       9.763271       0.16932
  46    0.1487        0.4389        0.0000       10.2017       10.2017       9.762803       0.17040
  45    0.1794        0.4389        0.0000       10.2010       10.2010       9.762171       0.17347
  44    0.2165        0.4389        0.0000       10.2003       10.2003       9.761433       0.16791
  43    0.2613        0.4389        0.0000       10.1994       10.1994       9.760573       0.16222
  42    0.3336        0.4389        0.0000       10.1980       10.1980       9.759180       0.16235
  41    0.4307        0.4389        0.0000       10.1962       10.1962       9.757391       0.15557
  40    0.5894        0.4389        0.0000       10.1934       10.1935       9.754597       0.14860
  39     1.339        0.4389        0.0000       10.1822       10.1822       9.743321       0.12694
  38     1.782        0.4388        0.0000       10.1768       10.1768       9.737940       0.10244
  37     2.292        0.4388        0.0000       10.1715       10.1715       9.732628       0.08798
  36     2.964        0.4388        0.0000       10.1657       10.1657       9.726859       0.07242
  35     3.853        0.4388        0.0000       10.1596       10.1596       9.720801       0.05749
  34     5.035        0.4388        0.0000       10.1534       10.1534       9.714616       0.04418
  33     6.613        0.4388        0.0000       10.1471       10.1471       9.708301       0.03376
  32     8.786        0.4388        0.0000       10.1402       10.1402       9.701429       0.02669
  31     11.80        0.4388        0.0001       10.1313       10.1314       9.692549       0.02486
  30     15.07        0.4388        0.0001       10.1216       10.1216       9.682838       0.02507
  29     18.79        0.4388        0.0001       10.1097       10.1098       9.671031       0.02677
  28     23.16        0.4388        0.0001       10.0946       10.0948       9.655980       0.02910
  27     28.12        0.4388        0.0002       10.0758       10.0760       9.637203       0.03192
  26     33.73        0.4388        0.0002       10.0531       10.0533       9.614492       0.03415
  25     40.54        0.4388        0.0002       10.0236       10.0239       9.585084       0.03648
  24     48.69        0.4388        0.0003        9.9860        9.9863       9.547545       0.03885
  23     57.69        0.4388        0.0003        9.9432        9.9435       9.504727       0.04014
  22     68.43        0.4388        0.0004        9.8913        9.8917       9.452867       0.04077
  21     81.20        0.4389        0.0004        9.8299        9.8304       9.391507       0.04055
  20     96.49        0.4390        0.0005        9.7593        9.7598       9.320877       0.03898
  19     114.6        0.4391        0.0006        9.6808        9.6814       9.242312       0.03668
  18     136.5        0.4393        0.0007        9.5960        9.5967       9.157453       0.03263
  17     162.9        0.4396        0.0009        9.5057        9.5066       9.067000       0.02891
  16     196.4        0.4400        0.0010        9.4018        9.4028       8.962807       0.02623
  15     218.7        0.4404        0.0011        9.3385        9.3397       8.899274       0.02412
  14     243.0        0.4408        0.0013        9.2719        9.2731       8.832287       0.02323
  13     269.0        0.4414        0.0014        9.2008        9.2021       8.760722       0.02322
  12     297.5        0.4421        0.0015        9.1236        9.1251       8.683015       0.02305
  11     328.5        0.4429        0.0017        9.0392        9.0408       8.597886       0.02315
  10     361.9        0.4440        0.0018        8.9462        8.9480       8.504096       0.02373
   9     398.1        0.4452        0.0020        8.8440        8.8460       8.400774       0.02407
   8     437.6        0.4467        0.0021        8.7320        8.7341       8.287429       0.02423
   7     480.5        0.4485        0.0023        8.6100        8.6123       8.163872       0.02427
   6     533.0        0.4510        0.0025        8.4582        8.4607       8.009718       0.02480
   5     589.8        0.4541        0.0027        8.2945        8.2972       7.843167       0.02472
   4     651.6        0.4579        0.0030        8.1203        8.1233       7.665414       0.02431
   3     718.7        0.4626        0.0032        7.9374        7.9406       7.478033       0.02355
   2     792.3        0.4684        0.0034        7.7474        7.7509       7.282477       0.02243
   1     891.5        0.4777        0.0038        7.5025        7.5063       7.028527       0.02161
   0    1013.0        0.4917        0.0041        7.2282        7.2323       6.740566       0.01999



 Wavenumbers:  5150. -  6150. cm-1, ATM      1
 LEVEL PRESSURE   UPWARD FLUX   DIFDOWN FLUX  DIRDOWN FLUX  DOWNWARD FLUX   NET FLUX    HEATING RATE
          mb          W/m2          W/m2          W/m2        W/m2          W/m2       degree/day
  51    .06700        5.7013        0.0000       25.5798       25.5798      19.878482       0.00000
  50    .07753        5.7013        0.0000       25.5798       25.5798      19.878482       0.00021
  49    .09103        5.7013        0.0000       25.5798       25.5798      19.878482       0.00020
  48    0.1069        5.7013        0.0000       25.5798       25.5798      19.878481       0.00020
  47    0.1255        5.7013        0.0000       25.5798       25.5798      19.878481       0.00020
  46    0.1487        5.7013        0.0000       25.5798       25.5798      19.878480       0.00020
  45    0.1794        5.7013        0.0000       25.5798       25.5798      19.878480       0.00020
  44    0.2165        5.7013        0.0000       25.5798       25.5798      19.878479       0.00020
  43    0.2613        5.7013        0.0000       25.5798       25.5798      19.878478       0.00020
  42    0.3336        5.7013        0.0000       25.5798       25.5798      19.878476       0.00020
  41    0.4307        5.7013        0.0000       25.5798       25.5798      19.878474       0.00020
  40    0.5894        5.7013        0.0000       25.5798       25.5798      19.878470       0.00021
  39     1.339        5.7013        0.0000       25.5797       25.5798      19.878446       0.00027
  38     1.782        5.7013        0.0000       25.5797       25.5797      19.878427       0.00035
  37     2.292        5.7013        0.0001       25.5796       25.5797      19.878403       0.00041
  36     2.964        5.7013        0.0001       25.5796       25.5797      19.878366       0.00047
  35     3.853        5.7013        0.0001       25.5795       25.5796      19.878311       0.00052
  34     5.035        5.7013        0.0001       25.5794       25.5795      19.878230       0.00058
  33     6.613        5.7013        0.0002       25.5792       25.5794      19.878111       0.00064
  32     8.786        5.7012        0.0002       25.5789       25.5792      19.877935       0.00068
  31     11.80        5.7012        0.0003       25.5785       25.5789      19.877659       0.00077
  30     15.07        5.7012        0.0004       25.5781       25.5785      19.877333       0.00084
  29     18.79        5.7012        0.0005       25.5776       25.5781      19.876939       0.00089
  28     23.16        5.7012        0.0007       25.5770       25.5776      19.876447       0.00095
  27     28.12        5.7012        0.0008       25.5762       25.5770      19.875848       0.00102
  26     33.73        5.7012        0.0010       25.5753       25.5763      19.875104       0.00112
  25     40.54        5.7012        0.0012       25.5741       25.5753      19.874088       0.00126
  24     48.69        5.7013        0.0014       25.5726       25.5740      19.872720       0.00142
  23     57.69        5.7013        0.0016       25.5708       25.5724      19.871080       0.00154
  22     68.43        5.7015        0.0020       25.5685       25.5705      19.869001       0.00163
  21     81.20        5.7016        0.0023       25.5657       25.5680      19.866409       0.00171
  20     96.49        5.7018        0.0028       25.5623       25.5650      19.863215       0.00176
  19     114.6        5.7021        0.0033       25.5581       25.5614      19.859311       0.00182
  18     136.5        5.7024        0.0039       25.5531       25.5569      19.854552       0.00183
  17     162.9        5.7028        0.0046       25.5469       25.5515      19.848739       0.00186
  16     196.4        5.7034        0.0056       25.5388       25.5444      19.841005       0.00195
  15     218.7        5.7038        0.0062       25.5334       25.5396      19.835816       0.00197
  14     243.0        5.7042        0.0069       25.5274       25.5343      19.830075       0.00199
  13     269.0        5.7047        0.0077       25.5208       25.5284      19.823734       0.00206
  12     297.5        5.7053        0.0085       25.5135       25.5220      19.816747       0.00207
  11     328.5        5.7059        0.0093       25.5056       25.5149      19.809050       0.00209
  10     361.9        5.7066        0.0103       25.4969       25.5072      19.800654       0.00212
   9     398.1        5.7073        0.0113       25.4875       25.4988      19.791520       0.00213
   8     437.6        5.7082        0.0124       25.4773       25.4897      19.781582       0.00212
   7     480.5        5.7091        0.0136       25.4662       25.4799      19.770776       0.00212
   6     533.0        5.7102        0.0151       25.4524       25.4675      19.757274       0.00217
   5     589.8        5.7115        0.0167       25.4373       25.4540      19.742515       0.00219
   4     651.6        5.7129        0.0184       25.4209       25.4394      19.726452       0.00220
   3     718.7        5.7144        0.0203       25.4032       25.4235      19.709037       0.00219
   2     792.3        5.7161        0.0223       25.3840       25.4063      19.690237       0.00216
   1     891.5        5.7184        0.0251       25.3579       25.3830      19.664618       0.00218
   0    1013.0        5.7212        0.0285       25.3262       25.3547      19.633482       0.00216



 Wavenumbers:  6150. -  7700. cm-1, ATM      1
 LEVEL PRESSURE   UPWARD FLUX   DIFDOWN FLUX  DIRDOWN FLUX  DOWNWARD FLUX   NET FLUX    HEATING RATE
          mb          W/m2          W/m2          W/m2        W/m2          W/m2       degree/day
  51    .06700       10.9402        0.0000       47.3109       47.3109      36.370735       0.00000
  50    .07753       10.9402        0.0000       47.3109       47.3109      36.370719       0.01281
  49    .09103       10.9402        0.0000       47.3109       47.3109      36.370699       0.01256
  48    0.1069       10.9402        0.0000       47.3108       47.3108      36.370676       0.01229
  47    0.1255       10.9402        0.0000       47.3108       47.3108      36.370650       0.01203
  46    0.1487       10.9402        0.0000       47.3108       47.3108      36.370616       0.01221
  45    0.1794       10.9402        0.0000       47.3107       47.3107      36.370571       0.01256
  44    0.2165       10.9402        0.0000       47.3107       47.3107      36.370516       0.01232
  43    0.2613       10.9401        0.0000       47.3106       47.3106      36.370452       0.01208
  42    0.3336       10.9401        0.0000       47.3105       47.3105      36.370346       0.01236
  41    0.4307       10.9401        0.0000       47.3103       47.3103      36.370206       0.01222
  40    0.5894       10.9401        0.0001       47.3100       47.3101      36.369976       0.01220
  39     1.339       10.9401        0.0002       47.3088       47.3090      36.368892       0.01220
  38     1.782       10.9400        0.0002       47.3081       47.3083      36.368256       0.01211
  37     2.292       10.9400        0.0003       47.3072       47.3075      36.367520       0.01219
  36     2.964       10.9399        0.0004       47.3061       47.3065      36.366554       0.01212
  35     3.853       10.9399        0.0005       47.3047       47.3051      36.365280       0.01209
  34     5.035       10.9398        0.0006       47.3028       47.3034      36.363590       0.01207
  33     6.613       10.9397        0.0008       47.3002       47.3010      36.361338       0.01204
  32     8.786       10.9395        0.0011       47.2967       47.2978      36.358314       0.01174
  31     11.80       10.9393        0.0014       47.2918       47.2933      36.354010       0.01205
  30     15.07       10.9390        0.0018       47.2866       47.2884      36.349417       0.01186
  29     18.79       10.9387        0.0023       47.2807       47.2830      36.344264       0.01168
  28     23.16       10.9384        0.0028       47.2739       47.2767      36.338293       0.01155
  27     28.12       10.9381        0.0034       47.2662       47.2696      36.331526       0.01150
  26     33.73       10.9377        0.0041       47.2576       47.2617      36.324031       0.01127
  25     40.54       10.9373        0.0049       47.2474       47.2523      36.315081       0.01110
  24     48.69       10.9367        0.0059       47.2353       47.2412      36.304440       0.01101
  23     57.69       10.9362        0.0070       47.2221       47.2291      36.292934       0.01079
  22     68.43       10.9355        0.0083       47.2067       47.2150      36.279467       0.01059
  21     81.20       10.9348        0.0098       47.1887       47.1985      36.263744       0.01039
  20     96.49       10.9340        0.0117       47.1677       47.1794      36.245434       0.01011
  19     114.6       10.9330        0.0139       47.1434       47.1573      36.224252       0.00989
  18     136.5       10.9320        0.0165       47.1154       47.1319      36.199856       0.00938
  17     162.9       10.9310        0.0196       47.0830       47.1026      36.171657       0.00901
  16     196.4       10.9297        0.0236       47.0425       47.0662      36.136431       0.00887
  15     218.7       10.9290        0.0263       47.0166       47.0429      36.113910       0.00855
  14     243.0       10.9284        0.0292       46.9891       47.0183      36.089921       0.00832
  13     269.0       10.9277        0.0323       46.9598       46.9922      36.064435       0.00827
  12     297.5       10.9272        0.0358       46.9288       46.9646      36.037397       0.00802
  11     328.5       10.9267        0.0395       46.8959       46.9354      36.008665       0.00781
  10     361.9       10.9264        0.0435       46.8611       46.9046      35.978184       0.00771
   9     398.1       10.9262        0.0478       46.8243       46.8721      35.945860       0.00753
   8     437.6       10.9262        0.0524       46.7853       46.8377      35.911528       0.00734
   7     480.5       10.9264        0.0574       46.7439       46.8014      35.874989       0.00718
   6     533.0       10.9269        0.0636       46.6935       46.7572      35.830266       0.00719
   5     589.8       10.9279        0.0704       46.6397       46.7101      35.782181       0.00714
   4     651.6       10.9293        0.0777       46.5821       46.6598      35.730484       0.00707
   3     718.7       10.9313        0.0855       46.5206       46.6061      35.674770       0.00700
   2     792.3       10.9340        0.0940       46.4547       46.5488      35.614752       0.00688
   1     891.5       10.9385        0.1056       46.3658       46.4714      35.532853       0.00697
   0    1013.0       10.9452        0.1197       46.2585       46.3782      35.432957       0.00694



 Wavenumbers:  7700. -  8050. cm-1, ATM      1
 LEVEL PRESSURE   UPWARD FLUX   DIFDOWN FLUX  DIRDOWN FLUX  DOWNWARD FLUX   NET FLUX    HEATING RATE
          mb          W/m2          W/m2          W/m2        W/m2          W/m2       degree/day
  51    .06700        5.8619        0.0000       11.1810       11.1810       5.319044       0.00000
  50    .07753        5.8619        0.0000       11.1809       11.1809       5.319022       0.01751
  49    .09103        5.8619        0.0000       11.1809       11.1809       5.318995       0.01716
  48    0.1069        5.8619        0.0000       11.1809       11.1809       5.318963       0.01680
  47    0.1255        5.8619        0.0000       11.1809       11.1809       5.318927       0.01644
  46    0.1487        5.8620        0.0000       11.1808       11.1808       5.318881       0.01668
  45    0.1794        5.8620        0.0000       11.1808       11.1808       5.318819       0.01717
  44    0.2165        5.8620        0.0000       11.1807       11.1807       5.318745       0.01684
  43    0.2613        5.8620        0.0000       11.1806       11.1806       5.318657       0.01653
  42    0.3336        5.8620        0.0000       11.1805       11.1805       5.318512       0.01691
  41    0.4307        5.8620        0.0000       11.1803       11.1804       5.318320       0.01672
  40    0.5894        5.8621        0.0000       11.1801       11.1801       5.318005       0.01671
  39     1.339        5.8624        0.0001       11.1788       11.1789       5.316519       0.01673
  38     1.782        5.8625        0.0001       11.1781       11.1782       5.315646       0.01662
  37     2.292        5.8627        0.0001       11.1772       11.1773       5.314636       0.01674
  36     2.964        5.8629        0.0002       11.1761       11.1762       5.313309       0.01666
  35     3.853        5.8632        0.0002       11.1746       11.1748       5.311556       0.01663
  34     5.035        5.8636        0.0003       11.1726       11.1729       5.309228       0.01663
  33     6.613        5.8642        0.0004       11.1699       11.1703       5.306118       0.01662
  32     8.786        5.8649        0.0005       11.1664       11.1668       5.301929       0.01627
  31     11.80        5.8660        0.0006       11.1613       11.1619       5.295940       0.01677
  30     15.07        5.8671        0.0008       11.1558       11.1566       5.289515       0.01659
  29     18.79        5.8684        0.0010       11.1496       11.1507       5.282264       0.01644
  28     23.16        5.8699        0.0013       11.1424       11.1437       5.273806       0.01636
  27     28.12        5.8716        0.0015       11.1342       11.1358       5.264148       0.01642
  26     33.73        5.8736        0.0018       11.1251       11.1269       5.253361       0.01622
  25     40.54        5.8759        0.0022       11.1141       11.1163       5.240358       0.01613
  24     48.69        5.8788        0.0027       11.1009       11.1035       5.224728       0.01618
  23     57.69        5.8820        0.0032       11.0864       11.0896       5.207616       0.01604
  22     68.43        5.8857        0.0037       11.0693       11.0731       5.187317       0.01596
  21     81.20        5.8903        0.0044       11.0491       11.0535       5.163248       0.01590
  20     96.49        5.8958        0.0053       11.0253       11.0305       5.134731       0.01574
  19     114.6        5.9023        0.0062       10.9972       11.0034       5.101102       0.01570
  18     136.5        5.9102        0.0074       10.9644       10.9718       5.061552       0.01521
  17     162.9        5.9198        0.0088       10.9259       10.9346       5.014872       0.01492
  16     196.4        5.9323        0.0106       10.8768       10.8873       4.954976       0.01508
  15     218.7        5.9407        0.0117       10.8450       10.8567       4.915999       0.01480
  14     243.0        5.9500        0.0130       10.8109       10.8239       4.873925       0.01459
  13     269.0        5.9602        0.0144       10.7745       10.7889       4.828655       0.01469
  12     297.5        5.9714        0.0159       10.7356       10.7515       4.780074       0.01441
  11     328.5        5.9837        0.0175       10.6942       10.7117       4.727932       0.01418
  10     361.9        5.9973        0.0192       10.6502       10.6694       4.672149       0.01411
   9     398.1        6.0121        0.0211       10.6036       10.6246       4.612478       0.01390
   8     437.6        6.0285        0.0230       10.5542       10.5772       4.548738       0.01363
   7     480.5        6.0464        0.0252       10.5019       10.5271       4.480732       0.01336
   6     533.0        6.0691        0.0278       10.4386       10.4664       4.397342       0.01341
   5     589.8        6.0943        0.0306       10.3714       10.4020       4.307655       0.01331
   4     651.6        6.1225        0.0337       10.3001       10.3338       4.211299       0.01318
   3     718.7        6.1538        0.0370       10.2247       10.2616       4.107862       0.01300
   2     792.3        6.1886        0.0405       10.1449       10.1854       3.996831       0.01273
   1     891.5        6.2378        0.0452       10.0388       10.0839       3.846152       0.01282
   0    1013.0        6.3005        0.0508        9.9130        9.9638       3.663346       0.01269



 Wavenumbers:  8050. - 12850. cm-1, ATM      1
 LEVEL PRESSURE   UPWARD FLUX   DIFDOWN FLUX  DIRDOWN FLUX  DOWNWARD FLUX   NET FLUX    HEATING RATE
          mb          W/m2          W/m2          W/m2        W/m2          W/m2       degree/day
  51    .06700      135.7729        0.0000      156.5418      156.5418      20.768857       0.00000
  50    .07753      135.7729        0.0000      156.5417      156.5417      20.768857       0.00000
  49    .09103      135.7729        0.0001      156.5417      156.5417      20.768857      -0.00000
  48    0.1069      135.7729        0.0001      156.5416      156.5417      20.768857       0.00000
  47    0.1255      135.7728        0.0002      156.5415      156.5417      20.768857       0.00000
  46    0.1487      135.7728        0.0003      156.5414      156.5417      20.768857       0.00000
  45    0.1794      135.7728        0.0004      156.5413      156.5417      20.768857       0.00000
  44    0.2165      135.7728        0.0005      156.5412      156.5416      20.768857      -0.00000
  43    0.2613      135.7727        0.0006      156.5410      156.5416      20.768857       0.00000
  42    0.3336      135.7727        0.0008      156.5407      156.5415      20.768857       0.00000
  41    0.4307      135.7726        0.0011      156.5403      156.5415      20.768857       0.00000
  40    0.5894      135.7725        0.0016      156.5397      156.5413      20.768857       0.00000
  39     1.339      135.7719        0.0040      156.5367      156.5407      20.768857      -0.00000
  38     1.782      135.7715        0.0054      156.5350      156.5404      20.768857       0.00000
  37     2.292      135.7711        0.0070      156.5330      156.5400      20.768857      -0.00000
  36     2.964      135.7706        0.0091      156.5303      156.5394      20.768857       0.00000
  35     3.853      135.7698        0.0119      156.5268      156.5387      20.768857      -0.00000
  34     5.035      135.7689        0.0155      156.5222      156.5377      20.768857       0.00000
  33     6.613      135.7676        0.0205      156.5160      156.5365      20.768857      -0.00000
  32     8.786      135.7659        0.0271      156.5076      156.5348      20.768857       0.00000
  31     11.80      135.7635        0.0367      156.4957      156.5323      20.768857      -0.00000
  30     15.07      135.7608        0.0469      156.4828      156.5297      20.768857       0.00000
  29     18.79      135.7578        0.0585      156.4682      156.5267      20.768857       0.00000
  28     23.16      135.7544        0.0720      156.4512      156.5232      20.768857      -0.00000
  27     28.12      135.7504        0.0875      156.4317      156.5192      20.768857       0.00000
  26     33.73      135.7459        0.1049      156.4099      156.5148      20.768857      -0.00000
  25     40.54      135.7405        0.1259      156.3834      156.5093      20.768857       0.00000
  24     48.69      135.7340        0.1513      156.3515      156.5028      20.768857       0.00000
  23     57.69      135.7268        0.1792      156.3164      156.4956      20.768857      -0.00000
  22     68.43      135.7182        0.2125      156.2746      156.4871      20.768857       0.00000
  21     81.20      135.7080        0.2522      156.2246      156.4768      20.768857      -0.00000
  20     96.49      135.6957        0.2997      156.1649      156.4646      20.768857       0.00000
  19     114.6      135.6812        0.3561      156.0940      156.4501      20.768857      -0.00000
  18     136.5      135.6639        0.4231      156.0097      156.4328      20.768857      -0.00000
  17     162.9      135.6433        0.5032      155.9090      156.4122      20.768857       0.00000
  16     196.4      135.6165        0.6072      155.7781      156.3854      20.768857      -0.00000
  15     218.7      135.5988        0.6758      155.6919      156.3677      20.768857       0.00000
  14     243.0      135.5796        0.7505      155.5980      156.3485      20.768857       0.00000
  13     269.0      135.5587        0.8316      155.4959      156.3275      20.768857       0.00000
  12     297.5      135.5360        0.9195      155.3853      156.3049      20.768857      -0.00000
  11     328.5      135.5114        1.0148      155.2654      156.2803      20.768857      -0.00000
  10     361.9      135.4848        1.1178      155.1359      156.2537      20.768857       0.00000
   9     398.1      135.4561        1.2291      154.9959      156.2250      20.768857      -0.00000
   8     437.6      135.4252        1.3491      154.8449      156.1940      20.768857      -0.00000
   7     480.5      135.3918        1.4783      154.6823      156.1607      20.768857       0.00000
   6     533.0      135.3505        1.6383      154.4810      156.1193      20.768857       0.00000
   5     589.8      135.3056        1.8119      154.2626      156.0745      20.768857       0.00000
   4     651.6      135.2570        1.9999      154.0260      156.0259      20.768857      -0.00000
   3     718.7      135.2044        2.2033      153.7700      155.9733      20.768857      -0.00000
   2     792.3      135.1477        2.4226      153.4939      155.9165      20.768857       0.00000
   1     891.5      135.0704        2.7213      153.1179      155.8392      20.768857       0.00000
   0    1013.0      134.9764        3.0840      152.6612      155.7452      20.768857      -0.00000



 Wavenumbers: 12850. - 16000. cm-1, ATM      1
 LEVEL PRESSURE   UPWARD FLUX   DIFDOWN FLUX  DIRDOWN FLUX  DOWNWARD FLUX   NET FLUX    HEATING RATE
          mb          W/m2          W/m2          W/m2        W/m2          W/m2       degree/day
  51    .06700       86.0675        0.0000       98.0872       98.0872      12.019695       0.00000
  50    .07753       86.0675        0.0001       98.0864       98.0864      12.018900       0.63739
  49    .09103       86.0676        0.0002       98.0853       98.0855      12.017901       0.62470
  48    0.1069       86.0676        0.0003       98.0841       98.0843      12.016751       0.61184
  47    0.1255       86.0676        0.0004       98.0826       98.0830      12.015429       0.59933
  46    0.1487       86.0676        0.0005       98.0809       98.0814      12.013759       0.60891
  45    0.1794       86.0677        0.0008       98.0784       98.0792      12.011483       0.62465
  44    0.2165       86.0678        0.0010       98.0756       98.0766      12.008803       0.60980
  43    0.2613       86.0680        0.0013       98.0723       98.0736      12.005645       0.59526
  42    0.3336       86.0683        0.0018       98.0670       98.0688      12.000479       0.60223
  41    0.4307       86.0688        0.0024       98.0602       98.0626      11.993783       0.58224
  40    0.5894       86.0699        0.0035       98.0496       98.0531      11.983192       0.56322
  39     1.339       86.0783        0.0085       98.0043       98.0128      11.934563       0.54747
  38     1.782       86.0857        0.0114       97.9793       97.9907      11.904955       0.56369
  37     2.292       86.0968        0.0148       97.9498       97.9646      11.867796       0.61546
  36     2.964       86.1149        0.0193       97.9088       97.9281      11.813123       0.68631
  35     3.853       86.1441        0.0251       97.8503       97.8755      11.731380       0.77576
  34     5.035       86.1879        0.0329       97.7680       97.8009      11.613049       0.84531
  33     6.613       86.2490        0.0434       97.6562       97.6996      11.450586       0.86853
  32     8.786       86.3286        0.0574       97.5107       97.5681      11.239513       0.81973
  31     11.80       86.4324        0.0775       97.3179       97.3953      10.962932       0.77434
  30     15.07       86.5322        0.0990       97.1283       97.2273      10.695145       0.69137
  29     18.79       86.6344        0.1233       96.9300       97.0533      10.418942       0.62624
  28     23.16       86.7416        0.1516       96.7166       96.8682      10.126621       0.56525
  27     28.12       86.8500        0.1840       96.4935       96.6775       9.827509       0.50847
  26     33.73       86.9511        0.2203       96.2731       96.4934       9.542320       0.42879
  25     40.54       87.0497        0.2642       96.0408       96.3050       9.255213       0.35619
  24     48.69       87.1459        0.3170       95.7946       96.1116       8.965735       0.29956
  23     57.69       87.2295        0.3751       95.5573       95.9324       8.702909       0.24636
  22     68.43       87.3053        0.4444       95.3106       95.7550       8.449640       0.19910
  21     81.20       87.3631        0.5270       95.0644       95.5913       8.228223       0.14631
  20     96.49       87.4019        0.6255       94.8153       95.4408       8.038959       0.10446
  19     114.6       87.4411        0.7435       94.5412       95.2846       7.843541       0.09125
  18     136.5       87.4759        0.8832       94.2324       95.1157       7.639733       0.07837
  17     162.9       87.5070        1.0497       93.8760       94.9257       7.418734       0.07064
  16     196.4       87.5246        1.2656       93.4359       94.7015       7.176863       0.06088
  15     218.7       87.5284        1.4074       93.1536       94.5610       7.032647       0.05475
  14     243.0       87.5292        1.5616       92.8489       94.4105       6.881276       0.05250
  13     269.0       87.5268        1.7286       92.5219       94.2506       6.723814       0.05108
  12     297.5       87.5213        1.9092       92.1720       94.0812       6.559937       0.04860
  11     328.5       87.5147        2.1043       91.7963       93.9006       6.385890       0.04732
  10     361.9       87.5074        2.3144       91.3943       93.7087       6.201285       0.04671
   9     398.1       87.4998        2.5406       90.9654       93.5059       6.006135       0.04547
   8     437.6       87.4930        2.7836       90.5078       93.2914       5.798419       0.04441
   7     480.5       87.4874        3.0442       90.0212       93.0653       5.577880       0.04331
   6     533.0       87.4844        3.3652       89.4254       92.7906       5.306230       0.04370
   5     589.8       87.4870        3.7116       88.7860       92.4976       5.010622       0.04388
   4     651.6       87.4984        4.0846       88.0992       92.1838       4.685376       0.04448
   3     718.7       87.5224        4.4851       87.3637       91.8488       4.326351       0.04512
   2     792.3       87.5640        4.9141       86.5776       91.4918       3.927759       0.04571
   1     891.5       87.6518        5.4936       85.5217       91.0153       3.363494       0.04802
   0    1013.0       87.8199        6.1897       84.2675       90.4573       2.637356       0.05042



 Wavenumbers: 16000. - 22650. cm-1, ATM      1
 LEVEL PRESSURE   UPWARD FLUX   DIFDOWN FLUX  DIRDOWN FLUX  DOWNWARD FLUX   NET FLUX    HEATING RATE
          mb          W/m2          W/m2          W/m2        W/m2          W/m2       degree/day
  51    .06700      142.0544        0.0000      156.3892      156.3892      14.334815       0.00000
  50    .07753      142.0544        0.0004      156.3887      156.3891      14.334666       0.11926
  49    .09103      142.0544        0.0009      156.3879      156.3888      14.334450       0.13527
  48    0.1069      142.0544        0.0015      156.3871      156.3885      14.334160       0.15425
  47    0.1255      142.0544        0.0021      156.3861      156.3882      14.333772       0.17582
  46    0.1487      142.0545        0.0030      156.3847      156.3877      14.333201       0.20835
  45    0.1794      142.0546        0.0041      156.3828      156.3869      14.332307       0.24531
  44    0.2165      142.0548        0.0054      156.3805      156.3859      14.331095       0.27570
  43    0.2613      142.0552        0.0070      156.3776      156.3847      14.329451       0.30996
  42    0.3336      142.0560        0.0097      156.3726      156.3823      14.326324       0.36450
  41    0.4307      142.0573        0.0132      156.3657      156.3789      14.321612       0.40974
  40    0.5894      142.0599        0.0189      156.3537      156.3726      14.312624       0.47795
  39     1.339      142.0831        0.0459      156.2834      156.3293      14.246223       0.74756
  38     1.782      142.1045        0.0618      156.2324      156.2941      14.189657       1.07693
  37     2.292      142.1365        0.0802      156.1641      156.2443      14.107776       1.35616
  36     2.964      142.1896        0.1043      156.0605      156.1648      13.975128       1.66514
  35     3.853      142.2755        0.1361      155.9041      156.0402      13.764644       1.99752
  34     5.035      142.4051        0.1784      155.6774      155.8557      13.450614       2.24330
  33     6.613      142.5861        0.2347      155.3656      155.6003      13.014193       2.33311
  32     8.786      142.8220        0.3106      154.9577      155.2683      12.446292       2.20553
  31     11.80      143.1289        0.4190      154.4153      154.8342      11.705294       2.07456
  30     15.07      143.4231        0.5352      153.8804      154.4155      10.992443       1.84044
  29     18.79      143.7235        0.6662      153.3191      153.9853      10.261801       1.65659
  28     23.16      144.0376        0.8191      152.7126      153.5316       9.494044       1.48459
  27     28.12      144.3537        0.9936      152.0755      153.0691       8.715368       1.32370
  26     33.73      144.6457        1.1887      151.4409      152.6296       7.983917       1.09976
  25     40.54      144.9270        1.4243      150.7637      152.1879       7.260942       0.89693
  24     48.69      145.1966        1.7079      150.0339      151.7418       6.545145       0.74074
  23     57.69      145.4256        2.0191      149.3151      151.3343       5.908695       0.59658
  22     68.43      145.6258        2.3894      148.5476      150.9370       5.311205       0.46971
  21     81.20      145.7651        2.8303      147.7517      150.5820       4.816915       0.32662
  20     96.49      145.8388        3.3551      146.9127      150.2678       4.429004       0.21410
  19     114.6      145.8783        3.9765      145.9763      149.9528       4.074557       0.16550
  18     136.5      145.8932        4.7102      144.9088      149.6191       3.725867       0.13408
  17     162.9      145.8820        5.5799      143.6786      149.2585       3.376588       0.11164
  16     196.4      145.8047        6.7020      142.1652      148.8673       3.062526       0.07905
  15     218.7      145.7310        7.4353      141.2037      148.6390       2.907991       0.05867
  14     243.0      145.6403        8.2290      140.1761      148.4051       2.764856       0.04964
  13     269.0      145.5307        9.0852      139.0814      148.1667       2.635951       0.04182
  12     297.5      145.4015       10.0060      137.9178      147.9238       2.522259       0.03372
  11     328.5      145.2567       10.9956      136.6743      147.6700       2.413307       0.02962
  10     361.9      145.0957       12.0551      135.3504      147.4055       2.309810       0.02619
   9     398.1      144.9177       13.1883      133.9413      147.1296       2.211830       0.02283
   8     437.6      144.7233       14.3973      132.4437      146.8410       2.117704       0.02012
   7     480.5      144.5113       15.6842      130.8557      146.5399       2.028655       0.01749
   6     533.0      144.2469       17.2559      128.9231      146.1790       1.932075       0.01554
   5     589.8      143.9600       18.9351      126.8640      145.7991       1.839033       0.01381
   4     651.6      143.6507       20.7230      124.6764      145.3994       1.748665       0.01236
   3     718.7      143.3187       22.6216      122.3579      144.9796       1.660872       0.01103
   2     792.3      142.9642       24.6296      119.9104      144.5400       1.575835       0.00975
   1     891.5      142.4890       27.2984      116.6626      143.9610       1.471945       0.00884
   0    1013.0      141.9258       30.4406      112.8439      143.2844       1.358682       0.00786



 Wavenumbers: 22650. - 29000. cm-1, ATM      1
 LEVEL PRESSURE   UPWARD FLUX   DIFDOWN FLUX  DIRDOWN FLUX  DOWNWARD FLUX   NET FLUX    HEATING RATE
          mb          W/m2          W/m2          W/m2        W/m2          W/m2       degree/day
  51    .06700       58.6820        0.0000       59.0156       59.0156       0.333634       0.00000
  50    .07753       58.6819        0.0005       59.0151       59.0155       0.333634       0.00000
  49    .09103       58.6818        0.0010       59.0144       59.0154       0.333634       0.00000
  48    0.1069       58.6816        0.0017       59.0136       59.0153       0.333634       0.00000
  47    0.1255       58.6815        0.0025       59.0127       59.0151       0.333634      -0.00000
  46    0.1487       58.6813        0.0035       59.0115       59.0149       0.333634       0.00000
  45    0.1794       58.6811        0.0048       59.0099       59.0147       0.333634       0.00000
  44    0.2165       58.6808        0.0063       59.0080       59.0144       0.333634       0.00000
  43    0.2613       58.6804        0.0082       59.0058       59.0140       0.333634      -0.00000
  42    0.3336       58.6798        0.0113       59.0022       59.0134       0.333634      -0.00000
  41    0.4307       58.6790        0.0154       58.9973       59.0127       0.333634       0.00000
  40    0.5894       58.6777        0.0220       58.9894       59.0114       0.333634      -0.00000
  39     1.339       58.6717        0.0535       58.9518       59.0053       0.333634       0.00000
  38     1.782       58.6681        0.0720       58.9297       59.0017       0.333634       0.00000
  37     2.292       58.6640        0.0934       58.9042       58.9976       0.333634      -0.00000
  36     2.964       58.6586        0.1216       58.8706       58.9922       0.333634       0.00000
  35     3.853       58.6514        0.1587       58.8264       58.9851       0.333634      -0.00000
  34     5.035       58.6419        0.2080       58.7676       58.9756       0.333634       0.00000
  33     6.613       58.6293        0.2738       58.6891       58.9629       0.333634       0.00000
  32     8.786       58.6122        0.3624       58.5834       58.9458       0.333634       0.00000
  31     11.80       58.5878        0.4890       58.4325       58.9215       0.333634      -0.00000
  30     15.07       58.5617        0.6247       58.2706       58.8953       0.333634       0.00000
  29     18.79       58.5323        0.7776       58.0882       58.8659       0.333634      -0.00000
  28     23.16       58.4979        0.9559       57.8757       58.8316       0.333634       0.00000
  27     28.12       58.4588        1.1591       57.6333       58.7924       0.333634       0.00000
  26     33.73       58.4152        1.3857       57.3631       58.7488       0.333634       0.00000
  25     40.54       58.3626        1.6584       57.0379       58.6963       0.333634      -0.00000
  24     48.69       58.2996        1.9854       56.6479       58.6333       0.333634       0.00000
  23     57.69       58.2309        2.3424       56.2221       58.5645       0.333634      -0.00000
  22     68.43       58.1495        2.7646       55.7186       58.4832       0.333634       0.00000
  21     81.20       58.0534        3.2632       55.1239       58.3871       0.333634       0.00000
  20     96.49       57.9402        3.8510       54.4228       58.2738       0.333634       0.00000
  19     114.6       57.8073        4.5400       53.6010       58.1410       0.333634       0.00000
  18     136.5       57.6522        5.3441       52.6418       57.9859       0.333634      -0.00000
  17     162.9       57.4709        6.2842       51.5204       57.8045       0.333634       0.00000
  16     196.4       57.2410        7.4752       50.0995       57.5747       0.333634       0.00000
  15     218.7       57.0933        8.2406       49.1863       57.4269       0.333634       0.00000
  14     243.0       56.9354        9.0577       48.2114       57.2691       0.333634      -0.00000
  13     269.0       56.7676        9.9261       47.1752       57.1013       0.333634       0.00000
  12     297.5       56.5900       10.8449       46.0788       56.9237       0.333634      -0.00000
  11     328.5       56.4023       11.8155       44.9205       56.7359       0.333634       0.00000
  10     361.9       56.2050       12.8352       43.7034       56.5386       0.333634      -0.00000
   9     398.1       55.9980       13.9042       42.4274       56.3316       0.333634       0.00000
   8     437.6       55.7817       15.0202       41.0951       56.1154       0.333634       0.00000
   7     480.5       55.5567       16.1807       39.7096       55.8903       0.333634      -0.00000
   6     533.0       55.2890       17.5599       38.0628       55.6227       0.333634       0.00000
   5     589.8       55.0115       18.9882       36.3569       55.3451       0.333634       0.00000
   4     651.6       54.7253       20.4593       34.5997       55.0590       0.333634       0.00000
   3     718.7       54.4318       21.9663       32.7991       54.7654       0.333634      -0.00000
   2     792.3       54.1322       23.5012       30.9646       54.4659       0.333634      -0.00000
   1     891.5       53.7520       25.4457       28.6400       54.0857       0.333634       0.00000
   0    1013.0       53.3289       27.6033       26.0593       53.6626       0.333634       0.00000



 Wavenumbers: 29000. - 38000. cm-1, ATM      1
 LEVEL PRESSURE   UPWARD FLUX   DIFDOWN FLUX  DIRDOWN FLUX  DOWNWARD FLUX   NET FLUX    HEATING RATE
          mb          W/m2          W/m2          W/m2        W/m2          W/m2       degree/day
  51    .06700        8.7676        0.0000       20.8114       20.8114      12.043771       0.00000
  50    .07753        8.7674        0.0003       20.8070       20.8074      12.039964       3.05155
  49    .09103        8.7672        0.0007       20.8009       20.8016      12.034426       3.46085
  48    0.1069        8.7669        0.0012       20.7928       20.7939      12.027017       3.94429
  47    0.1255        8.7666        0.0017       20.7820       20.7837      12.017112       4.49034
  46    0.1487        8.7663        0.0024       20.7665       20.7688      12.002549       5.30844
  45    0.1794        8.7658        0.0033       20.7424       20.7457      11.979884       6.22204
  44    0.2165        8.7653        0.0044       20.7103       20.7147      11.949361       6.94340
  43    0.2613        8.7647        0.0056       20.6675       20.6731      11.908366       7.72732
  42    0.3336        8.7638        0.0077       20.5880       20.5957      11.831806       8.92625
  41    0.4307        8.7628        0.0104       20.4722       20.4826      11.719853       9.73402
  40    0.5894        8.7612        0.0147       20.2637       20.2784      11.517169      10.77846
  39     1.339        8.7578        0.0331       19.0984       19.1315      10.373692      12.87347
  38     1.782        8.7583        0.0427       18.4394       18.4821       9.723768      12.37351
  37     2.292        8.7610        0.0530       17.7714       17.8244       9.063423      10.93703
  36     2.964        8.7675        0.0657       17.0421       17.1078       8.340300       9.07739
  35     3.853        8.7804        0.0816       16.2679       16.3495       7.569121       7.31863
  34     5.035        8.8015        0.1018       15.4803       15.5821       6.780627       5.63267
  33     6.613        8.8322        0.1276       14.7157       14.8433       6.011046       4.11418
  32     8.786        8.8728        0.1614       13.9936       14.1549       5.282100       2.83096
  31     11.80        8.9258        0.2084       13.2835       13.4920       4.566142       2.00446
  30     15.07        8.9769        0.2573       12.7394       12.9966       4.019673       1.41088
  29     18.79        9.0297        0.3114       12.2666       12.5780       3.548231       1.06890
  28     23.16        9.0858        0.3729       11.8300       12.2029       3.117096       0.83368
  27     28.12        9.1433        0.4418       11.4279       11.8697       2.726406       0.66415
  26     33.73        9.1963        0.5178       11.0695       11.5872       2.390902       0.50444
  25     40.54        9.2467        0.6085       10.7209       11.3294       2.082735       0.38232
  24     48.69        9.2942        0.7162       10.3742       11.0904       1.796179       0.29654
  23     57.69        9.3332        0.8328       10.0549       10.8877       1.554418       0.22661
  22     68.43        9.3648        0.9695        9.7327       10.7022       1.337378       0.17062
  21     81.20        9.3800        1.1309        9.4134       10.5443       1.164309       0.11436
  20     96.49        9.3769        1.3207        9.0887       10.4094       1.032561       0.07271
  19     114.6        9.3635        1.5400        8.7388       10.2788       0.915289       0.05476
  18     136.5        9.3428        1.7907        8.3549       10.1456       0.802761       0.04327
  17     162.9        9.3151        2.0765        7.9311       10.0076       0.692583       0.03522
  16     196.4        9.2682        2.4305        7.4333        9.8638       0.595603       0.02441
  15     218.7        9.2345        2.6532        7.1296        9.7828       0.548302       0.01796
  14     243.0        9.1975        2.8860        6.8161        9.7021       0.504625       0.01515
  13     269.0        9.1570        3.1280        6.4944        9.6224       0.465405       0.01272
  12     297.5        9.1132        3.3782        6.1659        9.5441       0.430831       0.01025
  11     328.5        9.0675        3.6356        5.8297        9.4652       0.397728       0.00900
  10     361.9        9.0204        3.8977        5.4889        9.3866       0.366244       0.00797
   9     398.1        8.9719        4.1639        5.1444        9.3083       0.336407       0.00695
   8     437.6        8.9226        4.4328        4.7974        9.2302       0.307645       0.00615
   7     480.5        8.8728        4.7023        4.4508        9.1531       0.280339       0.00536
   6     533.0        8.8158        5.0092        4.0571        9.0664       0.250577       0.00479
   5     589.8        8.7598        5.3112        3.6704        8.9815       0.221759       0.00428
   4     651.6        8.7055        5.6058        3.2932        8.8990       0.193561       0.00386
   3     718.7        8.6537        5.8898        2.9298        8.8196       0.165940       0.00347
   2     792.3        8.6049        6.1610        2.5828        8.7438       0.138900       0.00310
   1     891.5        8.5492        6.4792        2.1756        8.6547       0.105509       0.00284
   0    1013.0        8.4963        6.7985        1.7665        8.5649       0.068616       0.00256



 Wavenumbers: 38000. - 50000. cm-1, ATM      1
 LEVEL PRESSURE   UPWARD FLUX   DIFDOWN FLUX  DIRDOWN FLUX  DOWNWARD FLUX   NET FLUX    HEATING RATE
          mb          W/m2          W/m2          W/m2        W/m2          W/m2       degree/day
  51    .06700        0.0061        0.0000        1.2836        1.2836       1.277518       0.00000
  50    .07753        0.0061        0.0001        1.2812        1.2812       1.275183       1.87150
  49    .09103        0.0060        0.0002        1.2777        1.2778       1.271851       2.08247
  48    0.1069        0.0059        0.0002        1.2731        1.2734       1.267473       2.33059
  47    0.1255        0.0058        0.0004        1.2672        1.2675       1.261717       2.60908
  46    0.1487        0.0057        0.0005        1.2586        1.2591       1.253391       3.03499
  45    0.1794        0.0055        0.0007        1.2455        1.2462       1.240623       3.50520
  44    0.2165        0.0054        0.0009        1.2282        1.2291       1.223697       3.85037
  43    0.2613        0.0052        0.0011        1.2054        1.2065       1.201348       4.21261
  42    0.3336        0.0049        0.0015        1.1639        1.1654       1.160524       4.75970
  41    0.4307        0.0045        0.0020        1.1051        1.1070       1.102565       5.03943
  40    0.5894        0.0039        0.0026        1.0039        1.0064       1.002524       5.32007
  39     1.339        0.0022        0.0035        0.5438        0.5473       0.545105       5.14971
  38     1.782        0.0016        0.0032        0.3635        0.3666       0.365006       3.42879
  37     2.292        0.0012        0.0027        0.2356        0.2383       0.237058       2.11916
  36     2.964        0.0009        0.0022        0.1455        0.1477       0.146786       1.13318
  35     3.853        0.0006        0.0017        0.0858        0.0875       0.086906       0.56828
  34     5.035        0.0004        0.0013        0.0488        0.0501       0.049701       0.26578
  33     6.613        0.0003        0.0010        0.0273        0.0282       0.027974       0.11615
  32     8.786        0.0002        0.0007        0.0144        0.0151       0.014928       0.05067
  31     11.80        0.0001        0.0004        0.0065        0.0070       0.006903       0.02247
  30     15.07        0.0000        0.0003        0.0031        0.0034       0.003329       0.00923
  29     18.79        0.0000        0.0002        0.0014        0.0016       0.001583       0.00396
  28     23.16        0.0000        0.0001        0.0006        0.0007       0.000720       0.00167
  27     28.12        0.0000        0.0001        0.0003        0.0003       0.000317       0.00069
  26     33.73        0.0000        0.0000        0.0001        0.0001       0.000140       0.00027
  25     40.54        0.0000        0.0000        0.0000        0.0001       0.000057       0.00010
  24     48.69        0.0000        0.0000        0.0000        0.0000       0.000021       0.00004
  23     57.69        0.0000        0.0000        0.0000        0.0000       0.000008       0.00001
  22     68.43        0.0000        0.0000        0.0000        0.0000       0.000003       0.00000
  21     81.20        0.0000        0.0000        0.0000        0.0000       0.000001       0.00000
  20     96.49        0.0000        0.0000        0.0000        0.0000       0.000000       0.00000
  19     114.6        0.0000        0.0000        0.0000        0.0000       0.000000       0.00000
  18     136.5        0.0000        0.0000        0.0000        0.0000       0.000000       0.00000
  17     162.9        0.0000        0.0000        0.0000        0.0000       0.000000       0.00000
  16     196.4        0.0000        0.0000        0.0000        0.0000       0.000000       0.00000
  15     218.7        0.0000        0.0000        0.0000        0.0000       0.000000       0.00000
  14     243.0        0.0000        0.0000        0.0000        0.0000       0.000000       0.00000
  13     269.0        0.0000        0.0000        0.0000        0.0000       0.000000       0.00000
  12     297.5        0.0000        0.0000        0.0000        0.0000       0.000000       0.00000
  11     328.5        0.0000        0.0000        0.0000        0.0000       0.000000       0.00000
  10     361.9        0.0000        0.0000        0.0000        0.0000       0.000000       0.00000
   9     398.1        0.0000        0.0000        0.0000        0.0000       0.000000       0.00000
   8     437.6        0.0000        0.0000        0.0000        0.0000       0.000000       0.00000
   7     480.5        0.0000        0.0000        0.0000        0.0000       0.000000       0.00000
   6     533.0        0.0000        0.0000        0.0000        0.0000       0.000000       0.00000
   5     589.8        0.0000        0.0000        0.0000        0.0000       0.000000       0.00000
   4     651.6        0.0000        0.0000        0.0000        0.0000       0.000000       0.00000
   3     718.7        0.0000        0.0000        0.0000        0.0000       0.000000       0.00000
   2     792.3        0.0000        0.0000        0.0000        0.0000       0.000000       0.00000
   1     891.5        0.0000        0.0000        0.0000        0.0000       0.000000       0.00000
   0    1013.0        0.0000        0.0000        0.0000        0.0000       0.000000       0.00000



 Wavenumbers:   820. -  2600. cm-1, ATM      1
 LEVEL PRESSURE   UPWARD FLUX   DIFDOWN FLUX  DIRDOWN FLUX  DOWNWARD FLUX   NET FLUX    HEATING RATE
          mb          W/m2          W/m2          W/m2        W/m2          W/m2       degree/day
  51    .06700        0.0514        0.0000        6.0047        6.0047       5.953247       0.00000
  50    .07753        0.0514        0.0000        6.0009        6.0009       5.949467       3.02937
  49    .09103        0.0514        0.0000        6.0001        6.0001       5.948677       0.49378
  48    0.1069        0.0514        0.0000        5.9992        5.9992       5.947802       0.46572
  47    0.1255        0.0514        0.0000        5.9982        5.9982       5.946821       0.44470
  46    0.1487        0.0514        0.0000        5.9970        5.9970       5.945643       0.42941
  45    0.1794        0.0514        0.0000        5.9956        5.9956       5.944177       0.40259
  44    0.2165        0.0514        0.0000        5.9940        5.9940       5.942644       0.34860
  43    0.2613        0.0514        0.0000        5.9925        5.9925       5.941065       0.29770
  42    0.3336        0.0514        0.0000        5.9902        5.9902       5.938836       0.25991
  41    0.4307        0.0514        0.0000        5.9877        5.9877       5.936248       0.22503
  40    0.5894        0.0514        0.0000        5.9836        5.9836       5.932216       0.21442
  39     1.339        0.0514        0.0000        5.9651        5.9651       5.913705       0.20839
  38     1.782        0.0514        0.0000        5.9549        5.9549       5.903489       0.19451
  37     2.292        0.0514        0.0000        5.9434        5.9434       5.892034       0.18972
  36     2.964        0.0514        0.0000        5.9288        5.9288       5.877433       0.18329
  35     3.853        0.0514        0.0000        5.9102        5.9102       5.858825       0.17659
  34     5.035        0.0514        0.0000        5.8865        5.8865       5.835124       0.16931
  33     6.613        0.0514        0.0000        5.8556        5.8556       5.804236       0.16513
  32     8.786        0.0514        0.0000        5.8143        5.8143       5.762904       0.16052
  31     11.80        0.0514        0.0000        5.7591        5.7591       5.707720       0.15450
  30     15.07        0.0514        0.0000        5.7101        5.7101       5.658659       0.12667
  29     18.79        0.0514        0.0000        5.6693        5.6693       5.617848       0.09253
  28     23.16        0.0514        0.0000        5.6380        5.6380       5.586586       0.06045
  27     28.12        0.0514        0.0000        5.6156        5.6156       5.564214       0.03803
  26     33.73        0.0514        0.0000        5.5982        5.5982       5.546836       0.02613
  25     40.54        0.0514        0.0000        5.5805        5.5805       5.529098       0.02201
  24     48.69        0.0514        0.0000        5.5596        5.5596       5.508220       0.02161
  23     57.69        0.0514        0.0000        5.5362        5.5362       5.484775       0.02198
  22     68.43        0.0514        0.0000        5.5077        5.5077       5.456218       0.02245
  21     81.20        0.0515        0.0000        5.4739        5.4739       5.422425       0.02233
  20     96.49        0.0515        0.0000        5.4341        5.4341       5.382625       0.02197
  19     114.6        0.0515        0.0000        5.3886        5.3886       5.337140       0.02124
  18     136.5        0.0515        0.0000        5.3382        5.3382       5.286648       0.01942
  17     162.9        0.0516        0.0000        5.2823        5.2823       5.230764       0.01786
  16     196.4        0.0516        0.0000        5.2164        5.2165       5.164858       0.01659
  15     218.7        0.0516        0.0000        5.1769        5.1769       5.125246       0.01504
  14     243.0        0.0517        0.0000        5.1368        5.1368       5.085139       0.01391
  13     269.0        0.0517        0.0000        5.0966        5.0966       5.044885       0.01306
  12     297.5        0.0517        0.0000        5.0565        5.0566       5.004839       0.01188
  11     328.5        0.0518        0.0000        5.0171        5.0171       4.965337       0.01074
  10     361.9        0.0518        0.0000        4.9785        4.9785       4.926714       0.00977
   9     398.1        0.0519        0.0000        4.9410        4.9411       4.889169       0.00875
   8     437.6        0.0519        0.0000        4.9048        4.9049       4.852915       0.00775
   7     480.5        0.0520        0.0001        4.8702        4.8702       4.818225       0.00681
   6     533.0        0.0521        0.0001        4.8327        4.8328       4.780707       0.00604
   5     589.8        0.0522        0.0001        4.7978        4.7978       4.745649       0.00520
   4     651.6        0.0523        0.0001        4.7653        4.7654       4.713133       0.00445
   3     718.7        0.0524        0.0001        4.7354        4.7355       4.683102       0.00377
   2     792.3        0.0525        0.0001        4.7079        4.7080       4.655483       0.00317
   1     891.5        0.0527        0.0001        4.6765        4.6766       4.623928       0.00269
   0    1013.0        0.0530        0.0001        4.6452        4.6453       4.592351       0.00219

  Modules and versions used in this calculation:

       rrtmg_sw.1col.f90:  $Revision$                    rrtmg_sw_init.f90:  $Revision$        
     rrtmgsw_cldprop.f90:  $Revision$                  rrtmgsw_cldprmc.f90:  NOT USED          
     rrtmg_sw_reftra.f90:  $Revision$                  rrtmg_sw_spcvrt.f90:  NOT USED          
     rrtmg_sw_spcvmc.f90:  NOT USED                    rrtmgsw_setcoef.f90:  NOT USED          
     rrtmg_sw_taumol.f90:  $Revision$                  rrtmg_sw_vrtqdr.f90:  NOT USED          
                rrtatm.f:  NOT USED                             util_xxx.f:  NOT USED          
                 extra.f:  NOT USED                       rrtmg_sw_k_g.f90:  $Revision$        

