

 Wavenumbers:   820. - 50000. cm-1, ATM      1
 LEVEL PRESSURE   UPWARD FLUX   DIFDOWN FLUX  DIRDOWN FLUX  DOWNWARD FLUX   NET FLUX    HEATING RATE
          mb          W/m2          W/m2          W/m2        W/m2          W/m2       degree/day
  51    .06700      421.1990        0.0000      617.8126      617.8126     196.613576       0.00000
  50    .07753      421.1986        0.0013      617.7949      617.7962     196.597564      12.83337
  49    .09103      421.1982        0.0030      617.7782      617.7812     196.583025       9.08744
  48    0.1069      421.1977        0.0050      617.7588      617.7638     196.566122       8.99744
  47    0.1255      421.1972        0.0072      617.7352      617.7424     196.545203       9.48392
  46    0.1487      421.1966        0.0100      617.7026      617.7127     196.516060      10.62272
  45    0.1794      421.1959        0.0139      617.6546      617.6685     196.472566      11.94038
  44    0.2165      421.1952        0.0184      617.5929      617.6113     196.416121      12.84025
  43    0.2613      421.1945        0.0238      617.5134      617.5372     196.342672      13.84478
  42    0.3336      421.1936        0.0326      617.3704      617.4031     196.209410      15.53698
  41    0.4307      421.1930        0.0442      617.1680      617.2122     196.019272      16.53207
  40    0.5894      421.1929        0.0630      616.8136      616.8766     195.683717      17.84442
  39     1.339      421.2109        0.1478      614.9757      615.1236     193.912631      19.93921
  38     1.782      421.2344        0.1955      614.0080      614.2036     192.969126      17.96282
  37     2.292      421.3350        0.2894      601.1238      601.4132     180.078118     213.50872
  36     2.964      421.4292        0.3720      599.2144      599.5864     178.157232      24.11293
  35     3.853      421.5585        0.4702      597.6308      598.1010     176.542487      15.32423
  34     5.035      421.7435        0.5952      596.1164      596.7115     174.968084      11.24688
  33     6.613      421.9966        0.7587      594.5966      595.3554     173.358702       8.60376
  32     8.786      422.3223        0.9768      593.0249      594.0017     171.679319       6.52211
  31     11.80      422.7416        1.2864      591.2671      592.5535     169.811961       5.22802
  30     15.07      423.1396        1.6169      589.7168      591.3337     168.194124       4.17694
  29     18.79      423.5430        1.9881      588.1980      590.1861     166.643045       3.51677
  28     23.16      423.9615        2.4197      586.6243      589.0440     165.082503       3.01758
  27     28.12      424.3786        2.9110      585.0114      587.9224     163.543783       2.61572
  26     33.73      424.7555        3.4587      583.4136      586.8723     162.116725       2.14562
  25     40.54      425.1068        4.1181      581.6725      585.7906     160.683853       1.77764
  24     48.69      425.4290        4.9095      579.7782      584.6877     159.258732       1.47478
  23     57.69      425.6847        5.7746      577.8864      583.6610     157.976356       1.20203
  22     68.43      425.8828        6.7995      575.8290      582.6285     156.745782       0.96740
  21     81.20      425.9708        8.0146      573.6243      581.6389     155.668083       0.71213
  20     96.49      425.9387        9.4534      571.2284      580.6818     154.743086       0.51053
  19     114.6      425.8447       11.1459      568.4524      579.5982     153.753554       0.46204
  18     136.5      425.6884       13.1276      565.2973      578.4249     152.736509       0.39108
  17     162.9      425.4639       15.4533      561.6838      577.1372     151.673316       0.33984
  16     196.4      425.0847       18.4193      557.2117      575.6309     150.546248       0.28370
  15     218.7      424.8074       20.3370      554.2908      574.6277     149.820289       0.27562
  14     243.0      424.4953       22.3941      551.1819      573.5760     149.080671       0.25652
  13     269.0      424.1485       24.5922      547.7566      572.3488     148.200239       0.28561
  12     297.5      423.7683       26.9321      543.9419      570.8740     147.105731       0.32462
  11     328.5      423.3639       29.4200      539.6317      569.0518     145.687842       0.38552
  10     361.9      422.9405       32.0522      534.7182      566.7703     143.829829       0.47010
   9     398.1      422.5041       34.8334      529.0749      563.9083     141.404182       0.56512
   8     437.6      422.0669       37.7626      522.5872      560.3498     138.282886       0.66735
   7     480.5      421.6437       40.8378      515.1777      556.0156     134.371835       0.76812
   6     533.0      421.2052       44.5359      505.5708      550.1067     128.901471       0.88001
   5     589.8      420.8623       48.4167      494.9089      543.3256     122.463348       0.95563
   4     651.6      420.6935       52.4734      483.2886      535.7620     115.068520       1.01126
   3     718.7      420.7856       56.6986      471.0802      527.7789     106.993233       1.01484
   2     792.3      421.3030       61.0777      458.3636      519.4414      98.138388       1.01555
   1     891.5      422.8734       66.7614      442.0949      508.8563      85.982861       1.03438
   0    1013.0      426.5490       73.2690      424.0811      497.3501      70.801124       1.05415



 Wavenumbers:  2600. -  3250. cm-1, ATM      1
 LEVEL PRESSURE   UPWARD FLUX   DIFDOWN FLUX  DIRDOWN FLUX  DOWNWARD FLUX   NET FLUX    HEATING RATE
          mb          W/m2          W/m2          W/m2        W/m2          W/m2       degree/day
  51    .06700        1.8232        0.0000        5.4450        5.4450       3.621837       0.00000
  50    .07753        1.8232        0.0000        5.4450        5.4450       3.621829       0.00640
  49    .09103        1.8232        0.0000        5.4450        5.4450       3.621819       0.00627
  48    0.1069        1.8232        0.0000        5.4450        5.4450       3.621807       0.00613
  47    0.1255        1.8232        0.0000        5.4450        5.4450       3.621794       0.00599
  46    0.1487        1.8232        0.0000        5.4450        5.4450       3.621778       0.00608
  45    0.1794        1.8232        0.0000        5.4450        5.4450       3.621755       0.00625
  44    0.2165        1.8232        0.0000        5.4449        5.4449       3.621728       0.00612
  43    0.2613        1.8232        0.0000        5.4449        5.4449       3.621696       0.00600
  42    0.3336        1.8232        0.0000        5.4448        5.4448       3.621643       0.00617
  41    0.4307        1.8232        0.0000        5.4448        5.4448       3.621572       0.00620
  40    0.5894        1.8232        0.0000        5.4446        5.4446       3.621452       0.00637
  39     1.339        1.8232        0.0000        5.4439        5.4439       3.620745       0.00797
  38     1.782        1.8232        0.0000        5.4434        5.4434       3.620202       0.01034
  37     2.292        1.8232        0.0000        5.4427        5.4427       3.619486       0.01186
  36     2.964        1.8232        0.0000        5.4416        5.4416       3.618447       0.01304
  35     3.853        1.8232        0.0000        5.4402        5.4402       3.616969       0.01402
  34     5.035        1.8232        0.0000        5.4381        5.4381       3.614913       0.01469
  33     6.613        1.8232        0.0000        5.4353        5.4353       3.612132       0.01487
  32     8.786        1.8232        0.0000        5.4317        5.4317       3.608499       0.01411
  31     11.80        1.8232        0.0000        5.4269        5.4269       3.603716       0.01339
  30     15.07        1.8232        0.0000        5.4224        5.4224       3.599186       0.01169
  29     18.79        1.8232        0.0000        5.4180        5.4180       3.594770       0.01001
  28     23.16        1.8232        0.0000        5.4135        5.4135       3.590277       0.00869
  27     28.12        1.8232        0.0000        5.4088        5.4088       3.585619       0.00792
  26     33.73        1.8232        0.0000        5.4036        5.4036       3.580364       0.00790
  25     40.54        1.8233        0.0000        5.3966        5.3967       3.573401       0.00864
  24     48.69        1.8233        0.0000        5.3872        5.3872       3.563890       0.00984
  23     57.69        1.8233        0.0000        5.3754        5.3754       3.552060       0.01109
  22     68.43        1.8234        0.0000        5.3599        5.3599       3.536506       0.01223
  21     81.20        1.8235        0.0000        5.3401        5.3401       3.516578       0.01317
  20     96.49        1.8237        0.0000        5.3155        5.3155       3.491878       0.01363
  19     114.6        1.8240        0.0001        5.2790        5.2791       3.455086       0.01718
  18     136.5        1.8244        0.0001        5.2393        5.2393       3.414944       0.01544
  17     162.9        1.8249        0.0001        5.1970        5.1970       3.372136       0.01368
  16     196.4        1.8257        0.0001        5.1490        5.1491       3.323398       0.01227
  15     218.7        1.8264        0.0001        5.1188        5.1189       3.292557       0.01171
  14     243.0        1.8272        0.0001        5.0895        5.0896       3.262402       0.01046
  13     269.0        1.8283        0.0001        5.0572        5.0574       3.229065       0.01081
  12     297.5        1.8299        0.0001        5.0215        5.0216       3.191775       0.01106
  11     328.5        1.8319        0.0001        4.9808        4.9809       3.148978       0.01164
  10     361.9        1.8348        0.0002        4.9326        4.9328       3.098013       0.01289
   9     398.1        1.8386        0.0002        4.8734        4.8736       3.034998       0.01468
   8     437.6        1.8438        0.0002        4.7982        4.7984       2.954650       0.01718
   7     480.5        1.8509        0.0002        4.7018        4.7020       2.851083       0.02034
   6     533.0        1.8623        0.0002        4.5600        4.5602       2.697938       0.02464
   5     589.8        1.8786        0.0002        4.3843        4.3845       2.505941       0.02850
   4     651.6        1.9022        0.0002        4.1767        4.1769       2.274712       0.03162
   3     718.7        1.9356        0.0003        3.9530        3.9532       2.017648       0.03231
   2     792.3        1.9835        0.0003        3.7220        3.7223       1.738845       0.03198
   1     891.5        2.0735        0.0003        3.4323        3.4326       1.359054       0.03232
   0    1013.0        2.2350        0.0003        3.1121        3.1124       0.877358       0.03345



 Wavenumbers:  3250. -  4000. cm-1, ATM      1
 LEVEL PRESSURE   UPWARD FLUX   DIFDOWN FLUX  DIRDOWN FLUX  DOWNWARD FLUX   NET FLUX    HEATING RATE
          mb          W/m2          W/m2          W/m2        W/m2          W/m2       degree/day
  51    .06700        0.1266        0.0000        9.1795        9.1795       9.052974       0.00000
  50    .07753        0.1266        0.0000        9.1747        9.1747       9.048105       3.90281
  49    .09103        0.1266        0.0000        9.1713        9.1713       9.044785       2.07463
  48    0.1069        0.1266        0.0000        9.1689        9.1689       9.042379       1.28109
  47    0.1255        0.1266        0.0000        9.1668        9.1668       9.040258       0.96119
  46    0.1487        0.1266        0.0000        9.1645        9.1645       9.037986       0.82827
  45    0.1794        0.1266        0.0000        9.1619        9.1619       9.035317       0.73286
  44    0.2165        0.1266        0.0000        9.1592        9.1592       9.032628       0.61166
  43    0.2613        0.1266        0.0000        9.1565        9.1565       9.029931       0.50840
  42    0.3336        0.1266        0.0000        9.1528        9.1528       9.026234       0.43101
  41    0.4307        0.1266        0.0000        9.1487        9.1487       9.022136       0.35633
  40    0.5894        0.1266        0.0000        9.1428        9.1428       9.016243       0.31334
  39     1.339        0.1266        0.0000        9.1196        9.1196       8.993061       0.26099
  38     1.782        0.1266        0.0000        9.1090        9.1090       8.982478       0.20149
  37     2.292        0.1267        0.0000        6.9161        6.9161       6.789411      36.32290
  36     2.964        0.1267        0.0000        6.5989        6.5989       6.472175       3.98227
  35     3.853        0.1268        0.0000        6.4267        6.4267       6.299957       1.63438
  34     5.035        0.1268        0.0000        6.3137        6.3137       6.186867       0.80787
  33     6.613        0.1268        0.0000        6.2329        6.2329       6.106072       0.43193
  32     8.786        0.1268        0.0000        6.1720        6.1720       6.045169       0.23653
  31     11.80        0.1269        0.0000        6.1214        6.1214       5.994537       0.14176
  30     15.07        0.1269        0.0000        6.0851        6.0851       5.958224       0.09375
  29     18.79        0.1269        0.0000        6.0543        6.0543       5.927434       0.06981
  28     23.16        0.1269        0.0000        6.0239        6.0239       5.897065       0.05873
  27     28.12        0.1269        0.0000        5.9943        5.9944       5.867490       0.05027
  26     33.73        0.1269        0.0000        5.9650        5.9650       5.838175       0.04408
  25     40.54        0.1269        0.0000        5.9212        5.9213       5.794385       0.05433
  24     48.69        0.1269        0.0000        5.8739        5.8739       5.747066       0.04897
  23     57.69        0.1269        0.0001        5.8279        5.8279       5.701066       0.04312
  22     68.43        0.1269        0.0001        5.7793        5.7793       5.652468       0.03820
  21     81.20        0.1269        0.0001        5.7272        5.7273       5.600411       0.03440
  20     96.49        0.1269        0.0001        5.6724        5.6725       5.545602       0.03025
  19     114.6        0.1269        0.0001        5.6107        5.6108       5.483937       0.02879
  18     136.5        0.1269        0.0001        5.5418        5.5419       5.415027       0.02650
  17     162.9        0.1268        0.0001        5.4658        5.4660       5.339117       0.02426
  16     196.4        0.1268        0.0002        5.3709        5.3710       5.244201       0.02389
  15     218.7        0.1268        0.0002        5.2893        5.2895       5.162636       0.03097
  14     243.0        0.1269        0.0002        5.2049        5.2051       5.078279       0.02926
  13     269.0        0.1269        0.0002        5.0845        5.0847       4.957841       0.03907
  12     297.5        0.1270        0.0002        4.9147        4.9150       4.788020       0.05037
  11     328.5        0.1271        0.0003        4.6844        4.6847       4.557560       0.06266
  10     361.9        0.1273        0.0003        4.3864        4.3866       4.259296       0.07546
   9     398.1        0.1278        0.0003        4.0273        4.0275       3.899775       0.08376
   8     437.6        0.1285        0.0003        3.6283        3.6286       3.500062       0.08546
   7     480.5        0.1297        0.0003        3.2143        3.2146       3.084863       0.08154
   6     533.0        0.1321        0.0002        2.7466        2.7468       2.614677       0.07564
   5     589.8        0.1363        0.0002        2.3008        2.3010       2.164742       0.06679
   4     651.6        0.1433        0.0002        1.8812        1.8814       1.738064       0.05835
   3     718.7        0.1551        0.0002        1.5005        1.5006       1.345574       0.04933
   2     792.3        0.1750        0.0002        1.1491        1.1493       0.974255       0.04259
   1     891.5        0.2209        0.0001        0.7725        0.7727       0.551757       0.03595
   0    1013.0        0.3316        0.0001        0.4617        0.4618       0.130183       0.02927



 Wavenumbers:  4000. -  4650. cm-1, ATM      1
 LEVEL PRESSURE   UPWARD FLUX   DIFDOWN FLUX  DIRDOWN FLUX  DOWNWARD FLUX   NET FLUX    HEATING RATE
          mb          W/m2          W/m2          W/m2        W/m2          W/m2       degree/day
  51    .06700        5.5189        0.0000       10.7795       10.7795       5.260650       0.00000
  50    .07753        5.5189        0.0000       10.7795       10.7795       5.260649       0.00081
  49    .09103        5.5189        0.0000       10.7795       10.7795       5.260648       0.00079
  48    0.1069        5.5189        0.0000       10.7795       10.7795       5.260646       0.00078
  47    0.1255        5.5189        0.0000       10.7795       10.7795       5.260645       0.00076
  46    0.1487        5.5189        0.0000       10.7795       10.7795       5.260643       0.00077
  45    0.1794        5.5189        0.0000       10.7795       10.7795       5.260640       0.00079
  44    0.2165        5.5189        0.0000       10.7795       10.7795       5.260636       0.00078
  43    0.2613        5.5189        0.0000       10.7795       10.7795       5.260632       0.00076
  42    0.3336        5.5189        0.0000       10.7795       10.7795       5.260625       0.00078
  41    0.4307        5.5189        0.0000       10.7795       10.7795       5.260616       0.00079
  40    0.5894        5.5189        0.0000       10.7795       10.7795       5.260601       0.00081
  39     1.339        5.5189        0.0000       10.7794       10.7794       5.260510       0.00103
  38     1.782        5.5189        0.0000       10.7793       10.7793       5.260439       0.00136
  37     2.292        5.5189        0.0000       10.7792       10.7792       5.260343       0.00159
  36     2.964        5.5189        0.0000       10.7791       10.7791       5.260200       0.00179
  35     3.853        5.5189        0.0000       10.7789       10.7789       5.259988       0.00201
  34     5.035        5.5189        0.0000       10.7785       10.7786       5.259675       0.00223
  33     6.613        5.5189        0.0000       10.7781       10.7781       5.259215       0.00246
  32     8.786        5.5189        0.0000       10.7774       10.7774       5.258535       0.00264
  31     11.80        5.5189        0.0001       10.7763       10.7764       5.257467       0.00299
  30     15.07        5.5189        0.0001       10.7750       10.7751       5.256212       0.00324
  29     18.79        5.5189        0.0001       10.7735       10.7736       5.254692       0.00344
  28     23.16        5.5189        0.0001       10.7716       10.7717       5.252804       0.00365
  27     28.12        5.5189        0.0001       10.7693       10.7694       5.250515       0.00389
  26     33.73        5.5190        0.0002       10.7665       10.7667       5.247689       0.00425
  25     40.54        5.5190        0.0002       10.7627       10.7629       5.243849       0.00476
  24     48.69        5.5191        0.0002       10.7576       10.7578       5.238722       0.00531
  23     57.69        5.5192        0.0003       10.7516       10.7519       5.232631       0.00571
  22     68.43        5.5194        0.0003       10.7441       10.7444       5.224979       0.00602
  21     81.20        5.5197        0.0004       10.7348       10.7352       5.215531       0.00624
  20     96.49        5.5200        0.0005       10.7236       10.7240       5.203999       0.00636
  19     114.6        5.5208        0.0005       10.7061       10.7066       5.185813       0.00849
  18     136.5        5.5218        0.0006       10.6861       10.6867       5.164923       0.00803
  17     162.9        5.5231        0.0008       10.6629       10.6637       5.140538       0.00779
  16     196.4        5.5251        0.0009       10.6329       10.6339       5.108709       0.00801
  15     218.7        5.5268        0.0010       10.6115       10.6125       5.085769       0.00871
  14     243.0        5.5287        0.0011       10.5883       10.5894       5.060729       0.00868
  13     269.0        5.5312        0.0013       10.5606       10.5619       5.030737       0.00973
  12     297.5        5.5344        0.0014       10.5275       10.5289       4.994517       0.01074
  11     328.5        5.5386        0.0015       10.4875       10.4891       4.950410       0.01199
  10     361.9        5.5442        0.0017       10.4389       10.4406       4.896390       0.01367
   9     398.1        5.5514        0.0018       10.3783       10.3802       4.828773       0.01575
   8     437.6        5.5609        0.0020       10.3009       10.3029       4.742071       0.01854
   7     480.5        5.5735        0.0022       10.2012       10.2034       4.629867       0.02204
   6     533.0        5.5921        0.0024       10.0574       10.0598       4.467695       0.02609
   5     589.8        5.6166        0.0026        9.8847        9.8873       4.270706       0.02924
   4     651.6        5.6498        0.0029        9.6884        9.6912       4.041367       0.03136
   3     718.7        5.6953        0.0031        9.4767        9.4798       3.784514       0.03228
   2     792.3        5.7593        0.0034        9.2412        9.2445       3.485276       0.03432
   1     891.5        5.8784        0.0037        8.9020        8.9056       3.027226       0.03898
   0    1013.0        6.0942        0.0040        8.4821        8.4861       2.391930       0.04411



 Wavenumbers:  4650. -  5150. cm-1, ATM      1
 LEVEL PRESSURE   UPWARD FLUX   DIFDOWN FLUX  DIRDOWN FLUX  DOWNWARD FLUX   NET FLUX    HEATING RATE
          mb          W/m2          W/m2          W/m2        W/m2          W/m2       degree/day
  51    .06700        3.8182        0.0000       10.2033       10.2033       6.385130       0.00000
  50    .07753        3.8182        0.0000       10.2031       10.2031       6.384898       0.18561
  49    .09103        3.8182        0.0000       10.2028       10.2028       6.384609       0.18098
  48    0.1069        3.8182        0.0000       10.2025       10.2025       6.384278       0.17610
  47    0.1255        3.8182        0.0000       10.2021       10.2021       6.383900       0.17116
  46    0.1487        3.8182        0.0000       10.2016       10.2016       6.383428       0.17225
  45    0.1794        3.8182        0.0000       10.2010       10.2010       6.382789       0.17535
  44    0.2165        3.8182        0.0000       10.2003       10.2003       6.382043       0.16974
  43    0.2613        3.8182        0.0000       10.1994       10.1994       6.381173       0.16398
  42    0.3336        3.8182        0.0000       10.1980       10.1980       6.379765       0.16412
  41    0.4307        3.8182        0.0000       10.1962       10.1962       6.377956       0.15726
  40    0.5894        3.8182        0.0000       10.1933       10.1933       6.375131       0.15022
  39     1.339        3.8182        0.0000       10.1819       10.1819       6.363732       0.12834
  38     1.782        3.8182        0.0000       10.1765       10.1765       6.358292       0.10357
  37     2.292        3.8182        0.0000       10.1711       10.1711       6.352920       0.08896
  36     2.964        3.8182        0.0000       10.1653       10.1653       6.347086       0.07324
  35     3.853        3.8182        0.0000       10.1591       10.1592       6.340958       0.05815
  34     5.035        3.8182        0.0000       10.1529       10.1529       6.334701       0.04470
  33     6.613        3.8182        0.0000       10.1465       10.1465       6.328308       0.03418
  32     8.786        3.8182        0.0001       10.1395       10.1396       6.321345       0.02704
  31     11.80        3.8182        0.0001       10.1305       10.1306       6.312343       0.02520
  30     15.07        3.8182        0.0001       10.1206       10.1207       6.302491       0.02544
  29     18.79        3.8183        0.0001       10.1087       10.1088       6.290509       0.02717
  28     23.16        3.8183        0.0002       10.0934       10.0936       6.275231       0.02954
  27     28.12        3.8184        0.0002       10.0744       10.0746       6.256164       0.03241
  26     33.73        3.8185        0.0002       10.0514       10.0516       6.233095       0.03468
  25     40.54        3.8186        0.0003       10.0216       10.0219       6.203214       0.03707
  24     48.69        3.8188        0.0003        9.9836        9.9839       6.165055       0.03949
  23     57.69        3.8191        0.0004        9.9402        9.9406       6.121506       0.04082
  22     68.43        3.8195        0.0005        9.8878        9.8882       6.068726       0.04149
  21     81.20        3.8200        0.0005        9.8257        9.8263       6.006219       0.04130
  20     96.49        3.8208        0.0006        9.7543        9.7550       5.934177       0.03976
  19     114.6        3.8219        0.0008        9.6736        9.6744       5.852467       0.03815
  18     136.5        3.8234        0.0009        9.5868        9.5877       5.764320       0.03389
  17     162.9        3.8255        0.0011        9.4947        9.4958       5.670328       0.03004
  16     196.4        3.8286        0.0013        9.3888        9.3901       5.561499       0.02739
  15     218.7        3.8311        0.0014        9.3236        9.3250       5.493975       0.02564
  14     243.0        3.8340        0.0016        9.2549        9.2565       5.422458       0.02480
  13     269.0        3.8377        0.0017        9.1805        9.1822       5.344430       0.02531
  12     297.5        3.8424        0.0019        9.0978        9.0997       5.257279       0.02585
  11     328.5        3.8482        0.0021        9.0044        9.0064       5.158207       0.02694
  10     361.9        3.8557        0.0022        8.8972        8.8994       5.043675       0.02898
   9     398.1        3.8655        0.0024        8.7726        8.7750       4.909530       0.03125
   8     437.6        3.8781        0.0027        8.6278        8.6305       4.752318       0.03361
   7     480.5        3.8942        0.0029        8.4618        8.4647       4.570489       0.03571
   6     533.0        3.9184        0.0031        8.2421        8.2452       4.326818       0.03920
   5     589.8        3.9503        0.0034        7.9928        7.9962       4.045879       0.04170
   4     651.6        3.9933        0.0036        7.7129        7.7165       3.723258       0.04412
   3     718.7        4.0503        0.0039        7.4119        7.4158       3.365470       0.04496
   2     792.3        4.1275        0.0041        7.0937        7.0979       2.970361       0.04531
   1     891.5        4.2629        0.0044        6.6882        6.6927       2.429732       0.04600
   0    1013.0        4.4894        0.0048        6.2464        6.2512       1.761851       0.04637



 Wavenumbers:  5150. -  6150. cm-1, ATM      1
 LEVEL PRESSURE   UPWARD FLUX   DIFDOWN FLUX  DIRDOWN FLUX  DOWNWARD FLUX   NET FLUX    HEATING RATE
          mb          W/m2          W/m2          W/m2        W/m2          W/m2       degree/day
  51    .06700        9.5548        0.0000       25.5798       25.5798      16.025008       0.00000
  50    .07753        9.5548        0.0000       25.5798       25.5798      16.025007       0.00024
  49    .09103        9.5548        0.0000       25.5798       25.5798      16.025007       0.00024
  48    0.1069        9.5548        0.0000       25.5798       25.5798      16.025006       0.00023
  47    0.1255        9.5548        0.0000       25.5798       25.5798      16.025006       0.00023
  46    0.1487        9.5548        0.0000       25.5798       25.5798      16.025005       0.00023
  45    0.1794        9.5548        0.0000       25.5798       25.5798      16.025004       0.00024
  44    0.2165        9.5548        0.0000       25.5798       25.5798      16.025003       0.00023
  43    0.2613        9.5548        0.0000       25.5798       25.5798      16.025002       0.00023
  42    0.3336        9.5548        0.0000       25.5798       25.5798      16.025000       0.00024
  41    0.4307        9.5548        0.0000       25.5798       25.5798      16.024997       0.00024
  40    0.5894        9.5548        0.0000       25.5798       25.5798      16.024993       0.00025
  39     1.339        9.5548        0.0000       25.5797       25.5798      16.024965       0.00031
  38     1.782        9.5548        0.0001       25.5797       25.5797      16.024943       0.00041
  37     2.292        9.5570        0.0001       23.6336       23.6337      14.076699      32.26800
  36     2.964        9.5579        0.0001       23.4278       23.4279      13.869975       2.59502
  35     3.853        9.5585        0.0001       23.3135       23.3136      13.755086       1.09032
  34     5.035        9.5590        0.0002       23.2378       23.2380      13.678948       0.54389
  33     6.613        9.5594        0.0002       23.1843       23.1845      13.625134       0.28769
  32     8.786        9.5597        0.0003       23.1455       23.1457      13.586029       0.15187
  31     11.80        9.5600        0.0004       23.1151       23.1155      13.555504       0.08546
  30     15.07        9.5602        0.0005       23.0954       23.0958      13.535630       0.05131
  29     18.79        9.5604        0.0006       23.0807       23.0813      13.520901       0.03340
  28     23.16        9.5606        0.0007       23.0684       23.0691      13.508504       0.02397
  27     28.12        9.5608        0.0008       23.0573       23.0581      13.497275       0.01909
  26     33.73        9.5611        0.0010       23.0470       23.0479      13.486863       0.01566
  25     40.54        9.5615        0.0012       23.0304       23.0316      13.470109       0.02078
  24     48.69        9.5620        0.0014       23.0134       23.0148      13.452825       0.01789
  23     57.69        9.5626        0.0017       22.9975       22.9991      13.436550       0.01526
  22     68.43        9.5633        0.0020       22.9812       22.9832      13.419914       0.01308
  21     81.20        9.5642        0.0023       22.9647       22.9671      13.402893       0.01125
  20     96.49        9.5652        0.0028       22.9477       22.9505      13.385325       0.00970
  19     114.6        9.5664        0.0033       22.9290       22.9323      13.365903       0.00907
  18     136.5        9.5679        0.0039       22.9078       22.9118      13.343804       0.00850
  17     162.9        9.5698        0.0046       22.8842       22.8888      13.319035       0.00792
  16     196.4        9.5721        0.0056       22.8527       22.8583      13.286162       0.00827
  15     218.7        9.5738        0.0062       22.8213       22.8275      13.253737       0.01231
  14     243.0        9.5755        0.0069       22.7863       22.7932      13.217649       0.01252
  13     269.0        9.5776        0.0076       22.7278       22.7354      13.157829       0.01941
  12     297.5        9.5800        0.0084       22.6300       22.6384      13.058427       0.02948
  11     328.5        9.5829        0.0092       22.4712       22.4804      12.897547       0.04374
  10     361.9        9.5865        0.0101       22.2210       22.2311      12.644613       0.06399
   9     398.1        9.5911        0.0110       21.8467       21.8576      12.266589       0.08807
   8     437.6        9.5971        0.0118       21.3224       21.3343      11.737222       0.11318
   7     480.5        9.6051        0.0127       20.6447       20.6574      11.052256       0.13452
   6     533.0        9.6184        0.0136       19.7135       19.7271      10.108702       0.15179
   5     589.8        9.6384        0.0144       18.6818       18.6962       9.057857       0.15598
   4     651.6        9.6693        0.0153       17.6182       17.6335       7.964200       0.14956
   3     718.7        9.7164        0.0162       16.6413       16.6575       6.941064       0.12858
   2     792.3        9.7890        0.0171       15.7886       15.8057       6.016626       0.10602
   1     891.5        9.9359        0.0185       14.9380       14.9564       5.020502       0.08477
   0    1013.0       10.2301        0.0202       14.2237       14.2439       4.013821       0.06990



 Wavenumbers:  6150. -  7700. cm-1, ATM      1
 LEVEL PRESSURE   UPWARD FLUX   DIFDOWN FLUX  DIRDOWN FLUX  DOWNWARD FLUX   NET FLUX    HEATING RATE
          mb          W/m2          W/m2          W/m2        W/m2          W/m2       degree/day
  51    .06700       16.0458        0.0000       47.3109       47.3109      31.265034       0.00000
  50    .07753       16.0458        0.0000       47.3108       47.3108      31.265018       0.01303
  49    .09103       16.0458        0.0000       47.3108       47.3108      31.264998       0.01277
  48    0.1069       16.0458        0.0000       47.3108       47.3108      31.264974       0.01250
  47    0.1255       16.0458        0.0000       47.3108       47.3108      31.264947       0.01223
  46    0.1487       16.0458        0.0000       47.3107       47.3107      31.264913       0.01241
  45    0.1794       16.0458        0.0000       47.3107       47.3107      31.264867       0.01276
  44    0.2165       16.0458        0.0000       47.3106       47.3106      31.264812       0.01252
  43    0.2613       16.0458        0.0000       47.3105       47.3106      31.264747       0.01228
  42    0.3336       16.0458        0.0000       47.3104       47.3104      31.264639       0.01256
  41    0.4307       16.0458        0.0000       47.3102       47.3103      31.264496       0.01242
  40    0.5894       16.0458        0.0001       47.3100       47.3100      31.264263       0.01240
  39     1.339       16.0457        0.0002       47.3087       47.3089      31.263161       0.01240
  38     1.782       16.0457        0.0002       47.3080       47.3082      31.262515       0.01230
  37     2.292       16.0484        0.0003       43.7788       43.7791      27.730771      58.49489
  36     2.964       16.0495        0.0004       43.5252       43.5256      27.476079       3.19716
  35     3.853       16.0502        0.0005       43.3843       43.3848      27.334568       1.34296
  34     5.035       16.0507        0.0007       43.2917       43.2924      27.241682       0.66354
  33     6.613       16.0510        0.0009       43.2268       43.2277      27.176635       0.34774
  32     8.786       16.0512        0.0011       43.1798       43.1809      27.129738       0.18213
  31     11.80       16.0512        0.0015       43.1433       43.1448      27.093546       0.10133
  30     15.07       16.0512        0.0019       43.1196       43.1215      27.070320       0.05996
  29     18.79       16.0510        0.0023       43.1021       43.1044      27.053363       0.03845
  28     23.16       16.0508        0.0028       43.0873       43.0901      27.039299       0.02720
  27     28.12       16.0506        0.0034       43.0739       43.0773      27.026742       0.02134
  26     33.73       16.0502        0.0041       43.0615       43.0656      27.015393       0.01706
  25     40.54       16.0499        0.0049       43.0423       43.0472      26.997305       0.02244
  24     48.69       16.0495        0.0059       43.0228       43.0287      26.979222       0.01871
  23     57.69       16.0490        0.0070       43.0046       43.0116      26.962640       0.01554
  22     68.43       16.0483        0.0082       42.9861       42.9944      26.946037       0.01305
  21     81.20       16.0476        0.0098       42.9671       42.9768      26.929266       0.01108
  20     96.49       16.0467        0.0116       42.9471       42.9587      26.912007       0.00953
  19     114.6       16.0456        0.0138       42.9233       42.9371      26.891492       0.00958
  18     136.5       16.0444        0.0163       42.8952       42.9115      26.867144       0.00936
  17     162.9       16.0429        0.0194       42.8616       42.8810      26.838023       0.00931
  16     196.4       16.0412        0.0234       42.8138       42.8372      26.796001       0.01058
  15     218.7       16.0402        0.0260       42.7650       42.7910      26.750869       0.01713
  14     243.0       16.0391        0.0288       42.7096       42.7385      26.699349       0.01787
  13     269.0       16.0383        0.0319       42.6187       42.6506      26.612314       0.02823
  12     297.5       16.0380        0.0352       42.4692       42.5044      26.466449       0.04326
  11     328.5       16.0385        0.0387       42.2275       42.2662      26.227749       0.06490
  10     361.9       16.0404        0.0423       41.8445       41.8868      25.846382       0.09649
   9     398.1       16.0448        0.0461       41.2590       41.3051      25.260289       0.13655
   8     437.6       16.0532        0.0498       40.4086       40.4584      24.405247       0.18281
   7     480.5       16.0679        0.0535       39.2571       39.3106      23.242674       0.22832
   6     533.0       16.0972        0.0574       37.5987       37.6561      21.558868       0.27087
   5     589.8       16.1473        0.0611       35.6839       35.7449      19.597642       0.29111
   4     651.6       16.2316        0.0645       33.5991       33.6635      17.431938       0.29617
   3     718.7       16.3666        0.0677       31.5142       31.5819      15.215273       0.27857
   2     792.3       16.5834        0.0709       29.4974       29.5683      12.984861       0.25580
   1     891.5       17.0398        0.0750       27.1871       27.2621      10.222289       0.23508
   0    1013.0       17.9889        0.0798       24.9625       25.0423       7.053367       0.22003



 Wavenumbers:  7700. -  8050. cm-1, ATM      1
 LEVEL PRESSURE   UPWARD FLUX   DIFDOWN FLUX  DIRDOWN FLUX  DOWNWARD FLUX   NET FLUX    HEATING RATE
          mb          W/m2          W/m2          W/m2        W/m2          W/m2       degree/day
  51    .06700        6.5595        0.0000       11.1810       11.1810       4.621507       0.00000
  50    .07753        6.5595        0.0000       11.1809       11.1809       4.621484       0.01787
  49    .09103        6.5595        0.0000       11.1809       11.1809       4.621456       0.01751
  48    0.1069        6.5595        0.0000       11.1809       11.1809       4.621424       0.01714
  47    0.1255        6.5595        0.0000       11.1809       11.1809       4.621387       0.01677
  46    0.1487        6.5595        0.0000       11.1808       11.1808       4.621341       0.01702
  45    0.1794        6.5595        0.0000       11.1808       11.1808       4.621277       0.01751
  44    0.2165        6.5595        0.0000       11.1807       11.1807       4.621201       0.01718
  43    0.2613        6.5595        0.0000       11.1806       11.1806       4.621112       0.01686
  42    0.3336        6.5596        0.0000       11.1805       11.1805       4.620964       0.01725
  41    0.4307        6.5596        0.0000       11.1803       11.1804       4.620768       0.01706
  40    0.5894        6.5597        0.0000       11.1801       11.1801       4.620447       0.01704
  39     1.339        6.5600        0.0001       11.1788       11.1789       4.618931       0.01707
  38     1.782        6.5601        0.0001       11.1781       11.1782       4.618040       0.01696
  37     2.292        6.5603        0.0001       11.1772       11.1773       4.617009       0.01708
  36     2.964        6.5606        0.0002       11.1760       11.1762       4.615655       0.01699
  35     3.853        6.5609        0.0002       11.1745       11.1748       4.613867       0.01697
  34     5.035        6.5614        0.0003       11.1725       11.1729       4.611492       0.01697
  33     6.613        6.5620        0.0004       11.1699       11.1703       4.608319       0.01696
  32     8.786        6.5628        0.0005       11.1663       11.1669       4.604044       0.01660
  31     11.80        6.5640        0.0007       11.1612       11.1619       4.597933       0.01711
  30     15.07        6.5653        0.0009       11.1558       11.1566       4.591376       0.01693
  29     18.79        6.5667        0.0011       11.1496       11.1507       4.583976       0.01678
  28     23.16        6.5684        0.0013       11.1424       11.1438       4.575343       0.01669
  27     28.12        6.5704        0.0016       11.1342       11.1358       4.565484       0.01676
  26     33.73        6.5725        0.0019       11.1251       11.1270       4.554472       0.01656
  25     40.54        6.5752        0.0023       11.1141       11.1164       4.541196       0.01647
  24     48.69        6.5784        0.0028       11.1008       11.1036       4.525234       0.01652
  23     57.69        6.5819        0.0033       11.0864       11.0897       4.507756       0.01638
  22     68.43        6.5862        0.0039       11.0693       11.0732       4.487018       0.01630
  21     81.20        6.5913        0.0046       11.0491       11.0537       4.462423       0.01625
  20     96.49        6.5975        0.0055       11.0253       11.0307       4.433274       0.01609
  19     114.6        6.6048        0.0065       10.9972       11.0037       4.398857       0.01607
  18     136.5        6.6137        0.0077       10.9644       10.9721       4.358369       0.01557
  17     162.9        6.6244        0.0091       10.9259       10.9349       4.310563       0.01528
  16     196.4        6.6385        0.0109       10.8767       10.8877       4.249184       0.01545
  15     218.7        6.6479        0.0121       10.8450       10.8571       4.209199       0.01518
  14     243.0        6.6583        0.0135       10.8109       10.8243       4.166015       0.01498
  13     269.0        6.6698        0.0149       10.7744       10.7893       4.119491       0.01509
  12     297.5        6.6824        0.0164       10.7354       10.7518       4.069475       0.01483
  11     328.5        6.6962        0.0181       10.6938       10.7119       4.015664       0.01463
  10     361.9        6.7115        0.0199       10.6496       10.6694       3.957895       0.01462
   9     398.1        6.7284        0.0218       10.6024       10.6242       3.895792       0.01447
   8     437.6        6.7471        0.0238       10.5523       10.5761       3.828985       0.01428
   7     480.5        6.7678        0.0260       10.4988       10.5248       3.757000       0.01414
   6     533.0        6.7945        0.0287       10.4332       10.4619       3.667439       0.01441
   5     589.8        6.8248        0.0317       10.3623       10.3940       3.569148       0.01459
   4     651.6        6.8595        0.0348       10.2855       10.3203       3.460753       0.01482
   3     718.7        6.8992        0.0382       10.2021       10.2402       3.341018       0.01505
   2     792.3        6.9450        0.0418       10.1113       10.1530       3.208056       0.01525
   1     891.5        7.0124        0.0466        9.9860       10.0326       3.020237       0.01598
   0    1013.0        7.1019        0.0523        9.8320        9.8843       2.782427       0.01651



 Wavenumbers:  8050. - 12850. cm-1, ATM      1
 LEVEL PRESSURE   UPWARD FLUX   DIFDOWN FLUX  DIRDOWN FLUX  DOWNWARD FLUX   NET FLUX    HEATING RATE
          mb          W/m2          W/m2          W/m2        W/m2          W/m2       degree/day
  51    .06700       92.6569        0.0000      156.5418      156.5418      63.884821       0.00000
  50    .07753       92.6569        0.0000      156.5417      156.5417      63.884821       0.00000
  49    .09103       92.6569        0.0001      156.5417      156.5417      63.884821       0.00000
  48    0.1069       92.6569        0.0001      156.5416      156.5417      63.884821      -0.00000
  47    0.1255       92.6569        0.0002      156.5415      156.5417      63.884821       0.00000
  46    0.1487       92.6568        0.0002      156.5414      156.5417      63.884821       0.00000
  45    0.1794       92.6568        0.0003      156.5413      156.5416      63.884821      -0.00000
  44    0.2165       92.6568        0.0004      156.5412      156.5416      63.884821       0.00000
  43    0.2613       92.6567        0.0005      156.5410      156.5415      63.884821      -0.00000
  42    0.3336       92.6566        0.0008      156.5407      156.5414      63.884821      -0.00000
  41    0.4307       92.6565        0.0010      156.5403      156.5413      63.884821       0.00000
  40    0.5894       92.6563        0.0015      156.5397      156.5412      63.884821      -0.00000
  39     1.339       92.6555        0.0036      156.5367      156.5403      63.884821       0.00000
  38     1.782       92.6550        0.0048      156.5350      156.5398      63.884821       0.00000
  37     2.292       92.6540        0.0072      156.5316      156.5388      63.884821      -0.00000
  36     2.964       92.6531        0.0094      156.5285      156.5379      63.884821       0.00000
  35     3.853       92.6520        0.0121      156.5248      156.5368      63.884821      -0.00000
  34     5.035       92.6506        0.0155      156.5200      156.5355      63.884821       0.00000
  33     6.613       92.6488        0.0199      156.5137      156.5336      63.884821       0.00000
  32     8.786       92.6464        0.0259      156.5053      156.5312      63.884821      -0.00000
  31     11.80       92.6429        0.0344      156.4933      156.5277      63.884821       0.00000
  30     15.07       92.6392        0.0436      156.4804      156.5240      63.884821       0.00000
  29     18.79       92.6350        0.0540      156.4658      156.5198      63.884821      -0.00000
  28     23.16       92.6301        0.0661      156.4488      156.5149      63.884821       0.00000
  27     28.12       92.6244        0.0799      156.4293      156.5092      63.884821       0.00000
  26     33.73       92.6181        0.0955      156.4075      156.5029      63.884821       0.00000
  25     40.54       92.6105        0.1143      156.3810      156.4953      63.884821      -0.00000
  24     48.69       92.6012        0.1369      156.3491      156.4861      63.884821      -0.00000
  23     57.69       92.5911        0.1619      156.3140      156.4759      63.884821       0.00000
  22     68.43       92.5790        0.1917      156.2721      156.4638      63.884821       0.00000
  21     81.20       92.5645        0.2272      156.2222      156.4493      63.884821       0.00000
  20     96.49       92.5473        0.2696      156.1625      156.4321      63.884821       0.00000
  19     114.6       92.5290        0.3199      156.0359      156.3559      63.826885       0.02705
  18     136.5       92.5067        0.3798      155.8982      156.2780      63.771250       0.02139
  17     162.9       92.4794        0.4512      155.7459      156.1971      63.717703       0.01712
  16     196.4       92.4431        0.5441      155.5530      156.0971      63.653950       0.01605
  15     218.7       92.4196        0.6051      155.4037      156.0088      63.589215       0.02458
  14     243.0       92.3939        0.6717      155.2461      155.9178      63.523905       0.02265
  13     269.0       92.3669        0.7439      155.0423      155.7862      63.419309       0.03393
  12     297.5       92.3393        0.8219      154.7767      155.5986      63.259238       0.04748
  11     328.5       92.3123        0.9063      154.4321      155.3384      63.026187       0.06337
  10     361.9       92.2876        0.9971      153.9910      154.9881      62.700522       0.08240
   9     398.1       92.2684        1.0947      153.4315      154.5262      62.257807       0.10314
   8     437.6       92.2595        1.1992      152.7222      153.9214      61.661886       0.12741
   7     480.5       92.2686        1.3107      151.8130      153.1237      60.855105       0.15845
   6     533.0       92.3145        1.4467      150.4643      151.9109      59.596439       0.20248
   5     589.8       92.4199        1.5913      148.7434      150.3348      57.914899       0.24960
   4     651.6       92.6223        1.7441      146.5898      148.3338      55.711532       0.30132
   3     718.7       92.9631        1.9046      144.0366      145.9412      52.978080       0.34352
   2     792.3       93.5210        2.0720      141.0639      143.1359      49.614838       0.38573
   1     891.5       94.6766        2.2911      136.9123      139.2034      44.526814       0.43297
   0    1013.0       96.8583        2.5475      132.0646      134.6121      37.753801       0.47029



 Wavenumbers: 12850. - 16000. cm-1, ATM      1
 LEVEL PRESSURE   UPWARD FLUX   DIFDOWN FLUX  DIRDOWN FLUX  DOWNWARD FLUX   NET FLUX    HEATING RATE
          mb          W/m2          W/m2          W/m2        W/m2          W/m2       degree/day
  51    .06700       75.7136        0.0000       98.0872       98.0872      22.373676       0.00000
  50    .07753       75.7136        0.0001       98.0864       98.0864      22.372884       0.63486
  49    .09103       75.7136        0.0002       98.0853       98.0854      22.371889       0.62183
  48    0.1069       75.7136        0.0003       98.0841       98.0843      22.370746       0.60857
  47    0.1255       75.7136        0.0004       98.0826       98.0830      22.369432       0.59560
  46    0.1487       75.7136        0.0005       98.0809       98.0814      22.367774       0.60449
  45    0.1794       75.7136        0.0007       98.0784       98.0792      22.365517       0.61944
  44    0.2165       75.7137        0.0010       98.0756       98.0766      22.362863       0.60394
  43    0.2613       75.7138        0.0012       98.0723       98.0736      22.359739       0.58867
  42    0.3336       75.7141        0.0017       98.0670       98.0687      22.354641       0.59448
  41    0.4307       75.7145        0.0023       98.0602       98.0625      22.348044       0.57353
  40    0.5894       75.7153        0.0033       98.0496       98.0529      22.337644       0.55306
  39     1.339       75.7220        0.0081       98.0043       98.0124      22.290428       0.53157
  38     1.782       75.7281        0.0109       97.9793       97.9902      22.262023       0.54078
  37     2.292       75.7366        0.0163       97.9468       97.9632      22.226606       0.58660
  36     2.964       75.7515        0.0213       97.9049       97.9262      22.174757       0.65086
  35     3.853       75.7757        0.0273       97.8460       97.8732      22.097499       0.73320
  34     5.035       75.8124        0.0349       97.7633       97.7982      21.985869       0.79744
  33     6.613       75.8636        0.0450       97.6513       97.6963      21.832738       0.81864
  32     8.786       75.9303        0.0584       97.5057       97.5642      21.633844       0.77243
  31     11.80       76.0172        0.0776       97.3128       97.3904      21.373216       0.72967
  30     15.07       76.1005        0.0981       97.1233       97.2214      21.120846       0.65157
  29     18.79       76.1857        0.1212       96.9249       97.0462      20.860517       0.59025
  28     23.16       76.2748        0.1482       96.7115       96.8597      20.584959       0.53284
  27     28.12       76.3645        0.1791       96.4884       96.6675      20.302941       0.47941
  26     33.73       76.4477        0.2136       96.2680       96.4816      20.033906       0.40450
  25     40.54       76.5281        0.2554       96.0357       96.2910      19.762874       0.33625
  24     48.69       76.6057        0.3057       95.7894       96.0951      19.489456       0.28294
  23     57.69       76.6720        0.3609       95.5521       95.9131      19.241097       0.23280
  22     68.43       76.7306        0.4268       95.3055       95.7323      19.001654       0.18823
  21     81.20       76.7725        0.5054       95.0592       95.5646      18.792033       0.13851
  20     96.49       76.7967        0.5991       94.8101       95.4092      18.612543       0.09907
  19     114.6       76.8218        0.7113       94.5351       95.2465      18.424691       0.08771
  18     136.5       76.8409        0.8444       94.2254       95.0698      18.228879       0.07529
  17     162.9       76.8540        1.0027       93.8681       94.8708      18.016799       0.06779
  16     196.4       76.8504        1.2081       93.4269       94.6350      17.784610       0.05844
  15     218.7       76.8408        1.3430       93.1434       94.4864      17.645616       0.05277
  14     243.0       76.8272        1.4895       92.8376       94.3271      17.499960       0.05052
  13     269.0       76.8093        1.6483       92.5087       94.1570      17.347720       0.04939
  12     297.5       76.7874        1.8199       92.1556       93.9755      17.188117       0.04734
  11     328.5       76.7632        2.0053       91.7745       93.7798      17.016649       0.04662
  10     361.9       76.7374        2.2049       91.3642       93.5690      16.831666       0.04680
   9     398.1       76.7107        2.4196       90.9222       93.3418      16.631131       0.04672
   8     437.6       76.6848        2.6502       90.4447       93.0949      16.410081       0.04726
   7     480.5       76.6616        2.8972       89.9282       92.8254      16.163813       0.04837
   6     533.0       76.6421        3.2011       89.2816       92.4828      15.840638       0.05199
   5     589.8       76.6359        3.5284       88.5676       92.0960      15.460198       0.05647
   4     651.6       76.6521        3.8796       87.7733       91.6529      15.000876       0.06281
   3     718.7       76.6999        4.2555       86.8932       91.1487      14.448760       0.06939
   2     792.3       76.7974        4.6557       85.9157       90.5714      13.774026       0.07738
   1     891.5       77.0190        5.1918       84.5493       89.7410      12.722022       0.08952
   0    1013.0       77.4347        5.8299       82.8820       88.7119      11.277145       0.10033



 Wavenumbers: 16000. - 22650. cm-1, ATM      1
 LEVEL PRESSURE   UPWARD FLUX   DIFDOWN FLUX  DIRDOWN FLUX  DOWNWARD FLUX   NET FLUX    HEATING RATE
          mb          W/m2          W/m2          W/m2        W/m2          W/m2       degree/day
  51    .06700      141.3941        0.0000      156.3892      156.3892      14.995176       0.00000
  50    .07753      141.3940        0.0004      156.3887      156.3891      14.995028       0.11883
  49    .09103      141.3940        0.0009      156.3879      156.3888      14.994812       0.13478
  48    0.1069      141.3940        0.0015      156.3871      156.3885      14.994523       0.15370
  47    0.1255      141.3940        0.0021      156.3861      156.3882      14.994137       0.17520
  46    0.1487      141.3941        0.0030      156.3847      156.3877      14.993567       0.20760
  45    0.1794      141.3942        0.0041      156.3828      156.3869      14.992677       0.24444
  44    0.2165      141.3945        0.0054      156.3805      156.3859      14.991469       0.27472
  43    0.2613      141.3948        0.0070      156.3776      156.3846      14.989831       0.30885
  42    0.3336      141.3956        0.0097      156.3726      156.3823      14.986715       0.36321
  41    0.4307      141.3968        0.0132      156.3657      156.3789      14.982020       0.40828
  40    0.5894      141.3995        0.0189      156.3537      156.3725      14.973064       0.47624
  39     1.339      141.4224        0.0459      156.2834      156.3293      14.906900       0.74489
  38     1.782      141.4435        0.0617      156.2324      156.2941      14.850535       1.07309
  37     2.292      141.4723        0.0927      156.1485      156.2413      14.768948       1.35130
  36     2.964      141.5240        0.1209      156.0399      156.1608      14.636776       1.65915
  35     3.853      141.6086        0.1548      155.8809      156.0357      14.427052       1.99032
  34     5.035      141.7368        0.1981      155.6528      155.8509      14.114157       2.23519
  33     6.613      141.9160        0.2551      155.3402      155.5953      13.679320       2.32464
  32     8.786      142.1495        0.3313      154.9317      155.2630      13.113487       2.19749
  31     11.80      142.4536        0.4397      154.3891      154.8288      12.375203       2.06696
  30     15.07      142.7450        0.5558      153.8541      154.4099      11.664979       1.83366
  29     18.79      143.0425        0.6867      153.2928      153.9795      10.937044       1.65045
  28     23.16      143.3535        0.8393      152.6863      153.5256      10.172149       1.47906
  27     28.12      143.6664        1.0136      152.0493      153.0628       9.396394       1.31873
  26     33.73      143.9554        1.2084      151.4148      152.6231       8.667705       1.09560
  25     40.54      144.2336        1.4435      150.7376      152.1811       7.947477       0.89353
  24     48.69      144.5001        1.7267      150.0078      151.7345       7.234417       0.73791
  23     57.69      144.7262        2.0374      149.2892      151.3266       6.600415       0.59428
  22     68.43      144.9236        2.4071      148.5217      150.9288       6.005237       0.46789
  21     81.20      145.0602        2.8472      147.7259      150.5731       5.512872       0.32535
  20     96.49      145.1317        3.3711      146.8870      150.2582       5.126480       0.21326
  19     114.6      145.1692        3.9914      145.9507      149.9421       4.772974       0.16506
  18     136.5      145.1819        4.7239      144.8832      149.6071       4.425212       0.13372
  17     162.9      145.1683        5.5920      143.6531      149.2451       4.076872       0.11134
  16     196.4      145.0884        6.7122      142.1398      148.8520       3.763575       0.07886
  15     218.7      145.0132        7.4442      141.1783      148.6224       3.609245       0.05859
  14     243.0      144.9208        8.2364      140.1507      148.3871       3.466265       0.04959
  13     269.0      144.8097        9.0911      139.0559      148.1470       3.337240       0.04185
  12     297.5      144.6790       10.0102      137.8918      147.9021       3.223018       0.03388
  11     328.5      144.5329       10.9981      136.6477      147.6458       3.112970       0.02992
  10     361.9      144.3708       12.0557      135.3227      147.3783       3.007515       0.02668
   9     398.1      144.1922       13.1869      133.9116      147.0985       2.906281       0.02359
   8     437.6      143.9978       14.3938      132.4110      146.8048       2.807004       0.02123
   7     480.5      143.7870       15.6785      130.8185      146.4970       2.710049       0.01904
   6     533.0      143.5258       17.2476      128.8780      146.1255       2.599706       0.01775
   5     589.8      143.2450       18.9239      126.8072      145.7311       2.486042       0.01687
   4     651.6      142.9461       20.7088      124.6026      145.3114       2.365325       0.01651
   3     718.7      142.6297       22.6041      122.2610      144.8651       2.235383       0.01633
   2     792.3      142.2990       24.6081      119.7816      144.3896       2.090665       0.01660
   1     891.5      141.8687       27.2703      116.4790      143.7494       1.880619       0.01787
   0    1013.0      141.3739       30.4029      112.5842      142.9871       1.613285       0.01856



 Wavenumbers: 22650. - 29000. cm-1, ATM      1
 LEVEL PRESSURE   UPWARD FLUX   DIFDOWN FLUX  DIRDOWN FLUX  DOWNWARD FLUX   NET FLUX    HEATING RATE
          mb          W/m2          W/m2          W/m2        W/m2          W/m2       degree/day
  51    .06700       58.3821        0.0000       59.0156       59.0156       0.633501       0.00000
  50    .07753       58.3820        0.0005       59.0151       59.0155       0.633501      -0.00000
  49    .09103       58.3819        0.0010       59.0144       59.0154       0.633501      -0.00000
  48    0.1069       58.3818        0.0017       59.0136       59.0153       0.633501       0.00000
  47    0.1255       58.3816        0.0025       59.0127       59.0151       0.633501      -0.00000
  46    0.1487       58.3814        0.0034       59.0115       59.0149       0.633501       0.00000
  45    0.1794       58.3812        0.0048       59.0099       59.0147       0.633501       0.00000
  44    0.2165       58.3809        0.0063       59.0080       59.0144       0.633501      -0.00000
  43    0.2613       58.3805        0.0082       59.0058       59.0140       0.633501       0.00000
  42    0.3336       58.3799        0.0113       59.0022       59.0134       0.633501       0.00000
  41    0.4307       58.3791        0.0153       58.9973       59.0126       0.633501      -0.00000
  40    0.5894       58.3778        0.0220       58.9894       59.0113       0.633501      -0.00000
  39     1.339       58.3717        0.0534       58.9518       59.0052       0.633501       0.00000
  38     1.782       58.3681        0.0719       58.9297       59.0016       0.633501       0.00000
  37     2.292       58.3610        0.1080       58.8865       58.9945       0.633501       0.00000
  36     2.964       58.3547        0.1408       58.8473       58.9882       0.633501       0.00000
  35     3.853       58.3470        0.1803       58.8002       58.9805       0.633501      -0.00000
  34     5.035       58.3371        0.2309       58.7397       58.9706       0.633501       0.00000
  33     6.613       58.3241        0.2974       58.6603       58.9576       0.633501       0.00000
  32     8.786       58.3068        0.3863       58.5540       58.9403       0.633501      -0.00000
  31     11.80       58.2821        0.5128       58.4028       58.9156       0.633501       0.00000
  30     15.07       58.2557        0.6483       58.2409       58.8892       0.633501       0.00000
  29     18.79       58.2259        0.8010       58.0584       58.8594       0.633501      -0.00000
  28     23.16       58.1912        0.9788       57.8459       58.8247       0.633501       0.00000
  27     28.12       58.1517        1.1815       57.6036       58.7852       0.633501      -0.00000
  26     33.73       58.1076        1.4076       57.3335       58.7411       0.633501       0.00000
  25     40.54       58.0545        1.6796       57.0084       58.6880       0.633501      -0.00000
  24     48.69       57.9908        2.0057       56.6186       58.6243       0.633501       0.00000
  23     57.69       57.9213        2.3618       56.1930       58.5548       0.633501      -0.00000
  22     68.43       57.8391        2.7829       55.6897       58.4726       0.633501      -0.00000
  21     81.20       57.7419        3.2801       55.0954       58.3754       0.633501       0.00000
  20     96.49       57.6274        3.8663       54.3946       58.2609       0.633501      -0.00000
  19     114.6       57.4931        4.5533       53.5732       58.1266       0.633501       0.00000
  18     136.5       57.3362        5.3552       52.6145       57.9697       0.633501      -0.00000
  17     162.9       57.1528        6.2925       51.4937       57.7863       0.633501       0.00000
  16     196.4       56.9201        7.4800       50.0736       57.5536       0.633501      -0.00000
  15     218.7       56.7705        8.2431       49.1609       57.4040       0.633501       0.00000
  14     243.0       56.6107        9.0577       48.1865       57.2442       0.633501       0.00000
  13     269.0       56.4407        9.9234       47.1508       57.0742       0.633501       0.00000
  12     297.5       56.2608       10.8393       46.0550       56.8943       0.633501      -0.00000
  11     328.5       56.0705       11.8068       44.8972       56.7040       0.633501      -0.00000
  10     361.9       55.8704       12.8233       43.6806       56.5039       0.633501       0.00000
   9     398.1       55.6603       13.8888       42.4050       56.2938       0.633501      -0.00000
   8     437.6       55.4408       15.0012       41.0731       56.0743       0.633501       0.00000
   7     480.5       55.2122       16.1579       39.6878       55.8457       0.633501      -0.00000
   6     533.0       54.9398       17.5335       38.0398       55.5733       0.633501       0.00000
   5     589.8       54.6573       18.9578       36.3330       55.2908       0.633501       0.00000
   4     651.6       54.3656       20.4245       34.5746       54.9991       0.633501      -0.00000
   3     718.7       54.0661       21.9269       32.7727       54.6996       0.633501      -0.00000
   2     792.3       53.7603       23.4562       30.9376       54.3938       0.633501      -0.00000
   1     891.5       53.3710       25.3954       28.6091       54.0045       0.633501       0.00000
   0    1013.0       52.9369       27.5462       26.0242       53.5704       0.633501       0.00000



 Wavenumbers: 29000. - 38000. cm-1, ATM      1
 LEVEL PRESSURE   UPWARD FLUX   DIFDOWN FLUX  DIRDOWN FLUX  DOWNWARD FLUX   NET FLUX    HEATING RATE
          mb          W/m2          W/m2          W/m2        W/m2          W/m2       degree/day
  51    .06700        8.7412        0.0000       20.8114       20.8114      12.070154       0.00000
  50    .07753        8.7410        0.0003       20.8070       20.8074      12.066346       3.05183
  49    .09103        8.7408        0.0007       20.8009       20.8016      12.060808       3.46117
  48    0.1069        8.7405        0.0012       20.7928       20.7939      12.053398       3.94466
  47    0.1255        8.7403        0.0017       20.7820       20.7837      12.043492       4.49076
  46    0.1487        8.7399        0.0024       20.7665       20.7688      12.028928       5.30894
  45    0.1794        8.7395        0.0033       20.7424       20.7457      12.006261       6.22263
  44    0.2165        8.7389        0.0044       20.7103       20.7147      11.975735       6.94407
  43    0.2613        8.7384        0.0056       20.6675       20.6731      11.934736       7.72808
  42    0.3336        8.7375        0.0077       20.5880       20.5956      11.858168       8.92714
  41    0.4307        8.7364        0.0104       20.4722       20.4826      11.746203       9.73504
  40    0.5894        8.7349        0.0147       20.2637       20.2784      11.543497      10.77968
  39     1.339        8.7317        0.0331       19.0984       19.1315      10.399828      12.87563
  38     1.782        8.7324        0.0427       18.4394       18.4821       9.749700      12.37738
  37     2.292        8.7303        0.0613       17.7580       17.8193       9.089028      10.94246
  36     2.964        8.7354        0.0762       17.0254       17.1017       8.366223       9.07338
  35     3.853        8.7475        0.0929       16.2501       16.3430       7.595482       7.31447
  34     5.035        8.7682        0.1131       15.4629       15.5760       6.807810       5.62680
  33     6.613        8.7986        0.1387       14.6991       14.8378       6.039203       4.10897
  32     8.786        8.8389        0.1721       13.9779       14.1500       5.311086       2.82775
  31     11.80        8.8915        0.2187       13.2687       13.4874       4.595904       2.00228
  30     15.07        8.9423        0.2673       12.7245       12.9918       4.049487       1.41074
  29     18.79        8.9948        0.3208       12.2524       12.5732       3.578431       1.06803
  28     23.16        9.0505        0.3820       11.8164       12.1984       3.147877       0.83255
  27     28.12        9.1076        0.4505       11.4149       11.8653       2.757736       0.66321
  26     33.73        9.1603        0.5261       11.0569       11.5830       2.422724       0.50370
  25     40.54        9.2102        0.6164       10.7088       11.3253       2.115030       0.38173
  24     48.69        9.2573        0.7237       10.3625       11.0862       1.828932       0.29607
  23     57.69        9.2959        0.8398       10.0437       10.8835       1.587574       0.22624
  22     68.43        9.3271        0.9761        9.7219       10.6980       1.370911       0.17033
  21     81.20        9.3418        1.1370        9.4029       10.5400       1.198154       0.11416
  20     96.49        9.3382        1.3262        9.0786       10.4049       1.066654       0.07258
  19     114.6        9.3243        1.5448        8.7291       10.2739       0.949609       0.05465
  18     136.5        9.3031        1.7948        8.3456       10.1404       0.837309       0.04318
  17     162.9        9.2747        2.0797        7.9224       10.0021       0.727364       0.03514
  16     196.4        9.2271        2.4325        7.4251        9.8577       0.630600       0.02436
  15     218.7        9.1928        2.6545        7.1217        9.7762       0.583409       0.01792
  14     243.0        9.1553        2.8865        6.8086        9.6951       0.539836       0.01511
  13     269.0        9.1143        3.1277        6.4872        9.6150       0.500714       0.01269
  12     297.5        9.0699        3.3770        6.1591        9.5361       0.466229       0.01023
  11     328.5        9.0235        3.6335        5.8232        9.4567       0.433214       0.00898
  10     361.9        8.9756        3.8946        5.4828        9.3774       0.401818       0.00794
   9     398.1        8.9263        4.1598        5.1386        9.2984       0.372067       0.00693
   8     437.6        8.8762        4.4276        4.7920        9.2196       0.343393       0.00613
   7     480.5        8.8255        4.6959        4.4458        9.1417       0.316174       0.00535
   6     533.0        8.7674        5.0013        4.0526        9.0539       0.286512       0.00477
   5     589.8        8.7102        5.3017        3.6663        8.9680       0.257796       0.00426
   4     651.6        8.6545        5.5950        3.2892        8.8842       0.229700       0.00384
   3     718.7        8.6010        5.8780        2.9252        8.8032       0.202186       0.00346
   2     792.3        8.5505        6.1481        2.5777        8.7258       0.175259       0.00309
   1     891.5        8.4926        6.4642        2.1704        8.6346       0.142017       0.00283
   0    1013.0        8.4369        6.7809        1.7614        8.5422       0.105316       0.00255



 Wavenumbers: 38000. - 50000. cm-1, ATM      1
 LEVEL PRESSURE   UPWARD FLUX   DIFDOWN FLUX  DIRDOWN FLUX  DOWNWARD FLUX   NET FLUX    HEATING RATE
          mb          W/m2          W/m2          W/m2        W/m2          W/m2       degree/day
  51    .06700        0.0064        0.0000        1.2836        1.2836       1.277213       0.00000
  50    .07753        0.0064        0.0001        1.2812        1.2812       1.274878       1.87171
  49    .09103        0.0063        0.0002        1.2777        1.2778       1.271545       2.08269
  48    0.1069        0.0062        0.0002        1.2731        1.2734       1.267167       2.33083
  47    0.1255        0.0061        0.0004        1.2672        1.2675       1.261411       2.60933
  46    0.1487        0.0060        0.0005        1.2586        1.2591       1.253084       3.03527
  45    0.1794        0.0058        0.0007        1.2455        1.2462       1.240315       3.50551
  44    0.2165        0.0057        0.0009        1.2282        1.2291       1.223387       3.85070
  43    0.2613        0.0055        0.0011        1.2054        1.2065       1.201037       4.21296
  42    0.3336        0.0052        0.0015        1.1639        1.1654       1.160209       4.76011
  41    0.4307        0.0048        0.0020        1.1051        1.1070       1.102245       5.03987
  40    0.5894        0.0042        0.0026        1.0039        1.0064       1.002194       5.32059
  39     1.339        0.0026        0.0035        0.5438        0.5473       0.544693       5.15062
  38     1.782        0.0022        0.0032        0.3635        0.3666       0.364498       3.43063
  37     2.292        0.0013        0.0031        0.2348        0.2379       0.236561       2.11897
  36     2.964        0.0009        0.0025        0.1448        0.1473       0.146423       1.13151
  35     3.853        0.0006        0.0019        0.0854        0.0873       0.086699       0.56679
  34     5.035        0.0004        0.0014        0.0486        0.0500       0.049581       0.26515
  33     6.613        0.0003        0.0010        0.0271        0.0282       0.027910       0.11585
  32     8.786        0.0002        0.0007        0.0143        0.0151       0.014896       0.05054
  31     11.80        0.0001        0.0005        0.0065        0.0070       0.006890       0.02242
  30     15.07        0.0000        0.0003        0.0031        0.0034       0.003323       0.00921
  29     18.79        0.0000        0.0002        0.0014        0.0016       0.001581       0.00395
  28     23.16        0.0000        0.0001        0.0006        0.0007       0.000719       0.00167
  27     28.12        0.0000        0.0001        0.0003        0.0003       0.000317       0.00068
  26     33.73        0.0000        0.0000        0.0001        0.0001       0.000139       0.00027
  25     40.54        0.0000        0.0000        0.0000        0.0001       0.000057       0.00010
  24     48.69        0.0000        0.0000        0.0000        0.0000       0.000021       0.00004
  23     57.69        0.0000        0.0000        0.0000        0.0000       0.000008       0.00001
  22     68.43        0.0000        0.0000        0.0000        0.0000       0.000003       0.00000
  21     81.20        0.0000        0.0000        0.0000        0.0000       0.000001       0.00000
  20     96.49        0.0000        0.0000        0.0000        0.0000       0.000000       0.00000
  19     114.6        0.0000        0.0000        0.0000        0.0000       0.000000       0.00000
  18     136.5        0.0000        0.0000        0.0000        0.0000       0.000000       0.00000
  17     162.9        0.0000        0.0000        0.0000        0.0000       0.000000       0.00000
  16     196.4        0.0000        0.0000        0.0000        0.0000       0.000000       0.00000
  15     218.7        0.0000        0.0000        0.0000        0.0000       0.000000       0.00000
  14     243.0        0.0000        0.0000        0.0000        0.0000       0.000000       0.00000
  13     269.0        0.0000        0.0000        0.0000        0.0000       0.000000       0.00000
  12     297.5        0.0000        0.0000        0.0000        0.0000       0.000000       0.00000
  11     328.5        0.0000        0.0000        0.0000        0.0000       0.000000       0.00000
  10     361.9        0.0000        0.0000        0.0000        0.0000       0.000000       0.00000
   9     398.1        0.0000        0.0000        0.0000        0.0000       0.000000       0.00000
   8     437.6        0.0000        0.0000        0.0000        0.0000       0.000000       0.00000
   7     480.5        0.0000        0.0000        0.0000        0.0000       0.000000       0.00000
   6     533.0        0.0000        0.0000        0.0000        0.0000       0.000000       0.00000
   5     589.8        0.0000        0.0000        0.0000        0.0000       0.000000       0.00000
   4     651.6        0.0000        0.0000        0.0000        0.0000       0.000000       0.00000
   3     718.7        0.0000        0.0000        0.0000        0.0000       0.000000       0.00000
   2     792.3        0.0000        0.0000        0.0000        0.0000       0.000000       0.00000
   1     891.5        0.0000        0.0000        0.0000        0.0000       0.000000       0.00000
   0    1013.0        0.0000        0.0000        0.0000        0.0000       0.000000       0.00000



 Wavenumbers:   820. -  2600. cm-1, ATM      1
 LEVEL PRESSURE   UPWARD FLUX   DIFDOWN FLUX  DIRDOWN FLUX  DOWNWARD FLUX   NET FLUX    HEATING RATE
          mb          W/m2          W/m2          W/m2        W/m2          W/m2       degree/day
  51    .06700        0.8578        0.0000        6.0047        6.0047       5.146896       0.00000
  50    .07753        0.8578        0.0000        6.0009        6.0009       5.143117       3.02937
  49    .09103        0.8578        0.0000        6.0001        6.0001       5.142327       0.49378
  48    0.1069        0.8578        0.0000        5.9992        5.9992       5.141452       0.46572
  47    0.1255        0.8578        0.0000        5.9982        5.9982       5.140471       0.44470
  46    0.1487        0.8578        0.0000        5.9970        5.9970       5.139293       0.42941
  45    0.1794        0.8578        0.0000        5.9956        5.9956       5.137826       0.40259
  44    0.2165        0.8578        0.0000        5.9940        5.9940       5.136294       0.34860
  43    0.2613        0.8578        0.0000        5.9925        5.9925       5.134714       0.29770
  42    0.3336        0.8578        0.0000        5.9902        5.9902       5.132485       0.25991
  41    0.4307        0.8578        0.0000        5.9877        5.9877       5.129897       0.22503
  40    0.5894        0.8578        0.0000        5.9836        5.9836       5.125865       0.21442
  39     1.339        0.8578        0.0000        5.9651        5.9651       5.107355       0.20839
  38     1.782        0.8578        0.0000        5.9549        5.9549       5.097138       0.19451
  37     2.292        0.9269        0.0000        1.7189        1.7189       0.792013      71.30410
  36     2.964        0.9546        0.0000        1.6097        1.6097       0.655113       1.71851
  35     3.853        0.9702        0.0000        1.5663        1.5663       0.596039       0.56063
  34     5.035        0.9798        0.0000        1.5438        1.5438       0.564066       0.22840
  33     6.613        0.9857        0.0000        1.5311        1.5311       0.545393       0.09982
  32     8.786        0.9894        0.0000        1.5237        1.5237       0.534327       0.04298
  31     11.80        0.9918        0.0000        1.5191        1.5191       0.527381       0.01945
  30     15.07        0.9930        0.0000        1.5167        1.5167       0.523728       0.00943
  29     18.79        0.9938        0.0000        1.5153        1.5153       0.521505       0.00504
  28     23.16        0.9943        0.0000        1.5143        1.5143       0.519954       0.00300
  27     28.12        0.9947        0.0000        1.5135        1.5135       0.518782       0.00199
  26     33.73        0.9951        0.0000        1.5129        1.5129       0.517878       0.00136
  25     40.54        0.9955        0.0000        1.5121        1.5121       0.516635       0.00154
  24     48.69        0.9959        0.0000        1.5114        1.5114       0.515570       0.00110
  23     57.69        0.9962        0.0000        1.5109        1.5109       0.514731       0.00079
  22     68.43        0.9964        0.0000        1.5104        1.5104       0.514007       0.00057
  21     81.20        0.9966        0.0000        1.5100        1.5100       0.513380       0.00041
  20     96.49        0.9968        0.0000        1.5096        1.5097       0.512825       0.00031
  19     114.6        0.9970        0.0000        1.5093        1.5093       0.512338       0.00023
  18     136.5        0.9972        0.0000        1.5090        1.5090       0.511825       0.00020
  17     162.9        0.9974        0.0000        1.5087        1.5087       0.511339       0.00016
  16     196.4        0.9975        0.0000        1.5084        1.5084       0.510859       0.00012
  15     218.7        0.9976        0.0000        1.5082        1.5082       0.510562       0.00011
  14     243.0        0.9977        0.0000        1.5080        1.5080       0.510324       0.00008
  13     269.0        0.9978        0.0000        1.5078        1.5079       0.510049       0.00009
  12     297.5        0.9979        0.0000        1.5076        1.5076       0.509686       0.00011
  11     328.5        0.9981        0.0000        1.5073        1.5073       0.509205       0.00013
  10     361.9        0.9983        0.0000        1.5069        1.5069       0.508544       0.00017
   9     398.1        0.9987        0.0000        1.5063        1.5063       0.507650       0.00021
   8     437.6        0.9991        0.0000        1.5055        1.5056       0.506466       0.00025
   7     480.5        0.9996        0.0000        1.5046        1.5046       0.504962       0.00030
   6     533.0        1.0005        0.0000        1.5030        1.5031       0.502540       0.00039
   5     589.8        1.0018        0.0000        1.5008        1.5008       0.498997       0.00053
   4     651.6        1.0040        0.0000        1.4972        1.4973       0.493294       0.00078
   3     718.7        1.0072        0.0000        1.4919        1.4919       0.484762       0.00107
   2     792.3        1.0121        0.0000        1.4838        1.4839       0.471819       0.00148
   1     891.5        1.0215        0.0000        1.4686        1.4686       0.447090       0.00210
   0    1013.0        1.0371        0.0000        1.4442        1.4443       0.407139       0.00277

  Modules and versions used in this calculation:

       rrtmg_sw.1col.f90:  $Revision$                    rrtmg_sw_init.f90:  $Revision$        
     rrtmgsw_cldprop.f90:  $Revision$                  rrtmgsw_cldprmc.f90:  NOT USED          
     rrtmg_sw_reftra.f90:  $Revision$                  rrtmg_sw_spcvrt.f90:  NOT USED          
     rrtmg_sw_spcvmc.f90:  NOT USED                    rrtmgsw_setcoef.f90:  NOT USED          
     rrtmg_sw_taumol.f90:  $Revision$                  rrtmg_sw_vrtqdr.f90:  NOT USED          
                rrtatm.f:  NOT USED                             util_xxx.f:  NOT USED          
                 extra.f:  NOT USED                       rrtmg_sw_k_g.f90:  $Revision$        

