

 Wavenumbers:   820. - 50000. cm-1, ATM      1
 LEVEL PRESSURE   UPWARD FLUX   DIFDOWN FLUX  DIRDOWN FLUX  DOWNWARD FLUX   NET FLUX    HEATING RATE
          mb          W/m2          W/m2          W/m2        W/m2          W/m2       degree/day
  51    .06700      391.5081        0.0000      617.8126      617.8126     226.304455       0.00000
  50    .07753      391.5077        0.0013      617.7948      617.7962     226.288440      12.83572
  49    .09103      391.5073        0.0030      617.7782      617.7812     226.273898       9.08950
  48    0.1069      391.5068        0.0050      617.7588      617.7638     226.256992       8.99918
  47    0.1255      391.5063        0.0072      617.7352      617.7424     226.236069       9.48533
  46    0.1487      391.5057        0.0100      617.7026      617.7126     226.206924      10.62380
  45    0.1794      391.5050        0.0138      617.6545      617.6684     226.163426      11.94112
  44    0.2165      391.5042        0.0184      617.5928      617.6112     226.106980      12.84057
  43    0.2613      391.5035        0.0237      617.5133      617.5370     226.033532      13.84464
  42    0.3336      391.5026        0.0325      617.3703      617.4029     225.900276      15.53631
  41    0.4307      391.5018        0.0441      617.1679      617.2120     225.710152      16.53087
  40    0.5894      391.5016        0.0628      616.8134      616.8762     225.374632      17.84253
  39     1.339      391.5189        0.1474      614.9754      615.1227     223.603855      19.93573
  38     1.782      391.5421        0.1950      614.0075      614.2025     222.660449      17.96094
  37     2.292      391.5958        0.4262      595.6436      596.0698     204.474004     301.21496
  36     2.964      391.6707        0.5503      593.0338      593.5841     201.913344      32.14403
  35     3.853      391.7864        0.6679      591.0956      591.7635     199.977115      18.37517
  34     5.035      391.9587        0.8027      589.3594      590.1620     198.203300      12.67140
  33     6.613      392.1983        0.9708      587.6884      588.6592     196.460923       9.31475
  32     8.786      392.5082        1.1903      586.0101      587.2004     194.692143       6.86930
  31     11.80      392.9081        1.4990      584.1737      585.6727     192.764629       5.39643
  30     15.07      393.2876        1.8277      582.5761      584.4038     191.116184       4.25596
  29     18.79      393.6722        2.1966      581.0264      583.2230     189.550885       3.54902
  28     23.16      394.0706        2.6254      579.4315      582.0569     187.986252       3.02549
  27     28.12      394.4671        3.1135      577.8013      580.9148     186.447708       2.61542
  26     33.73      394.8243        3.6578      576.1897      579.8475     185.023165       2.14184
  25     40.54      395.1553        4.3135      574.4220      578.7355     183.580191       1.79017
  24     48.69      395.4566        5.1002      572.5038      577.6040     182.147436       1.48268
  23     57.69      395.6928        5.9604      570.5920      576.5524     180.859571       1.20718
  22     68.43      395.8713        6.9794      568.5173      575.4967     179.625360       0.97026
  21     81.20      395.9410        8.1877      566.2990      574.4866     178.545597       0.71349
  20     96.49      395.8916        9.6184      563.8918      573.5102     177.618613       0.51163
  19     114.6      395.7884       11.3014      560.8897      572.1911     176.402676       0.56776
  18     136.5      395.6205       13.2720      557.5477      570.8197     175.199218       0.46276
  17     162.9      395.3805       15.5844      553.7746      569.3591     173.978572       0.39017
  16     196.4      394.9801       18.5341      549.1215      567.6556     172.675444       0.32801
  15     218.7      394.6887       20.4406      546.0061      566.4467     171.758000       0.34832
  14     243.0      394.3603       22.4857      542.7029      565.1885     170.828203       0.32248
  13     269.0      393.9962       24.6707      538.9500      563.6207     169.624440       0.39050
  12     297.5      393.5982       26.9963      534.6144      561.6107     168.012556       0.47807
  11     328.5      393.1760       29.4687      529.5146      558.9833     165.807331       0.59959
  10     361.9      392.7357       32.0837      523.4510      555.5347     162.799046       0.76113
   9     398.1      392.2851       34.8458      516.2393      551.0851     158.799974       0.93169
   8     437.6      391.8392       37.7533      507.7843      545.5375     153.698324       1.09076
   7     480.5      391.4175       40.8040      498.1235      538.9275     147.510012       1.21536
   6     533.0      391.0033       44.4699      485.8269      530.2968     139.293465       1.32178
   5     589.8      390.7231       48.3150      472.5665      520.8816     130.158438       1.35594
   4     651.6      390.6730       52.3290      458.4902      510.8192     120.146183       1.36920
   3     718.7      390.9662       56.5041      443.9484      500.4524     109.486258       1.33966
   2     792.3      391.8290       60.8225      428.7663      489.5888      97.759843       1.34489
   1     891.5      394.1679       66.4113      409.2582      475.6695      81.501582       1.38350
   0    1013.0      399.4526       72.7894      387.9565      460.7460      61.293343       1.40316



 Wavenumbers:  2600. -  3250. cm-1, ATM      1
 LEVEL PRESSURE   UPWARD FLUX   DIFDOWN FLUX  DIRDOWN FLUX  DOWNWARD FLUX   NET FLUX    HEATING RATE
          mb          W/m2          W/m2          W/m2        W/m2          W/m2       degree/day
  51    .06700        1.1108        0.0000        5.4450        5.4450       4.334203       0.00000
  50    .07753        1.1108        0.0000        5.4450        5.4450       4.334195       0.00640
  49    .09103        1.1108        0.0000        5.4450        5.4450       4.334185       0.00627
  48    0.1069        1.1108        0.0000        5.4450        5.4450       4.334174       0.00613
  47    0.1255        1.1108        0.0000        5.4450        5.4450       4.334160       0.00599
  46    0.1487        1.1108        0.0000        5.4450        5.4450       4.334144       0.00608
  45    0.1794        1.1108        0.0000        5.4450        5.4450       4.334121       0.00625
  44    0.2165        1.1108        0.0000        5.4449        5.4449       4.334094       0.00612
  43    0.2613        1.1108        0.0000        5.4449        5.4449       4.334062       0.00600
  42    0.3336        1.1108        0.0000        5.4448        5.4448       4.334009       0.00617
  41    0.4307        1.1108        0.0000        5.4448        5.4448       4.333938       0.00620
  40    0.5894        1.1108        0.0000        5.4446        5.4446       4.333818       0.00637
  39     1.339        1.1108        0.0000        5.4439        5.4439       4.333111       0.00797
  38     1.782        1.1108        0.0000        5.4434        5.4434       4.332568       0.01034
  37     2.292        1.1108        0.0000        5.4427        5.4427       4.331852       0.01186
  36     2.964        1.1108        0.0000        5.4416        5.4416       4.330813       0.01304
  35     3.853        1.1108        0.0000        5.4402        5.4402       4.329336       0.01402
  34     5.035        1.1108        0.0000        5.4381        5.4381       4.327280       0.01468
  33     6.613        1.1108        0.0000        5.4353        5.4353       4.324499       0.01487
  32     8.786        1.1108        0.0000        5.4317        5.4317       4.320867       0.01411
  31     11.80        1.1108        0.0000        5.4269        5.4269       4.316086       0.01338
  30     15.07        1.1108        0.0000        5.4224        5.4224       4.311559       0.01169
  29     18.79        1.1108        0.0000        5.4180        5.4180       4.307146       0.01001
  28     23.16        1.1108        0.0000        5.4135        5.4135       4.302659       0.00868
  27     28.12        1.1108        0.0000        5.4088        5.4088       4.298010       0.00790
  26     33.73        1.1108        0.0000        5.4036        5.4036       4.292766       0.00788
  25     40.54        1.1108        0.0000        5.3966        5.3967       4.285820       0.00862
  24     48.69        1.1108        0.0000        5.3872        5.3872       4.276337       0.00981
  23     57.69        1.1109        0.0000        5.3754        5.3754       4.264543       0.01105
  22     68.43        1.1109        0.0000        5.3599        5.3599       4.249042       0.01219
  21     81.20        1.1109        0.0000        5.3401        5.3401       4.229188       0.01312
  20     96.49        1.1109        0.0000        5.3155        5.3155       4.204592       0.01358
  19     114.6        1.1111        0.0000        5.2604        5.2605       4.149369       0.02579
  18     136.5        1.1114        0.0001        5.2062        5.2063       4.094914       0.02094
  17     162.9        1.1117        0.0001        5.1540        5.1540       4.042362       0.01680
  16     196.4        1.1122        0.0001        5.0978        5.0979       3.985752       0.01425
  15     218.7        1.1126        0.0001        5.0600        5.0601       3.947471       0.01453
  14     243.0        1.1131        0.0001        5.0238        5.0239       3.910783       0.01272
  13     269.0        1.1138        0.0001        4.9808        4.9809       3.867064       0.01418
  12     297.5        1.1148        0.0001        4.9279        4.9280       3.813207       0.01597
  11     328.5        1.1162        0.0001        4.8602        4.8604       3.744166       0.01877
  10     361.9        1.1182        0.0001        4.7702        4.7704       3.652203       0.02327
   9     398.1        1.1210        0.0001        4.6499        4.6501       3.529097       0.02868
   8     437.6        1.1249        0.0002        4.4926        4.4928       3.367899       0.03447
   7     480.5        1.1304        0.0002        4.2974        4.2976       3.167193       0.03942
   6     533.0        1.1398        0.0002        4.0360        4.0362       2.896449       0.04355
   5     589.8        1.1535        0.0002        3.7608        3.7610       2.607466       0.04289
   4     651.6        1.1739        0.0002        3.4750        3.4752       2.301375       0.04186
   3     718.7        1.2036        0.0002        3.1785        3.1787       1.975154       0.04100
   2     792.3        1.2479        0.0002        2.8656        2.8658       1.617873       0.04098
   1     891.5        1.3351        0.0002        2.4789        2.4791       1.143933       0.04033
   0    1013.0        1.5049        0.0002        2.0955        2.0957       0.590765       0.03841



 Wavenumbers:  3250. -  4000. cm-1, ATM      1
 LEVEL PRESSURE   UPWARD FLUX   DIFDOWN FLUX  DIRDOWN FLUX  DOWNWARD FLUX   NET FLUX    HEATING RATE
          mb          W/m2          W/m2          W/m2        W/m2          W/m2       degree/day
  51    .06700        0.0004        0.0000        9.1795        9.1795       9.179177       0.00000
  50    .07753        0.0004        0.0000        9.1747        9.1747       9.174308       3.90287
  49    .09103        0.0004        0.0000        9.1713        9.1713       9.170988       2.07467
  48    0.1069        0.0004        0.0000        9.1689        9.1689       9.168581       1.28112
  47    0.1255        0.0004        0.0000        9.1668        9.1668       9.166461       0.96122
  46    0.1487        0.0004        0.0000        9.1645        9.1645       9.164189       0.82829
  45    0.1794        0.0004        0.0000        9.1619        9.1619       9.161519       0.73288
  44    0.2165        0.0004        0.0000        9.1592        9.1592       9.158830       0.61167
  43    0.2613        0.0004        0.0000        9.1565        9.1565       9.156133       0.50841
  42    0.3336        0.0004        0.0000        9.1528        9.1528       9.152436       0.43101
  41    0.4307        0.0004        0.0000        9.1487        9.1487       9.148338       0.35634
  40    0.5894        0.0004        0.0000        9.1428        9.1428       9.142446       0.31334
  39     1.339        0.0004        0.0000        9.1196        9.1196       9.119264       0.26099
  38     1.782        0.0004        0.0000        9.1090        9.1090       9.108680       0.20149
  37     2.292        0.0004        0.0000        5.3773        5.3773       5.376913      61.80780
  36     2.964        0.0004        0.0000        5.0073        5.0073       5.006983       4.64374
  35     3.853        0.0004        0.0000        4.8116        4.8116       4.811267       1.85738
  34     5.035        0.0004        0.0000        4.6825        4.6825       4.682135       0.92246
  33     6.613        0.0004        0.0000        4.5901        4.5901       4.589774       0.49377
  32     8.786        0.0004        0.0000        4.5216        4.5216       4.521239       0.26616
  31     11.80        0.0004        0.0000        4.4669        4.4669       4.466574       0.15305
  30     15.07        0.0004        0.0000        4.4306        4.4306       4.430224       0.09385
  29     18.79        0.0004        0.0000        4.4030        4.4031       4.402690       0.06243
  28     23.16        0.0004        0.0000        4.3793        4.3793       4.378920       0.04596
  27     28.12        0.0004        0.0000        4.3571        4.3572       4.356798       0.03761
  26     33.73        0.0004        0.0000        4.3362        4.3362       4.335860       0.03148
  25     40.54        0.0004        0.0000        4.3034        4.3034       4.303047       0.04071
  24     48.69        0.0003        0.0000        4.2694        4.2694       4.269094       0.03514
  23     57.69        0.0003        0.0000        4.2371        4.2372       4.236836       0.03024
  22     68.43        0.0003        0.0000        4.2043        4.2043       4.203962       0.02584
  21     81.20        0.0003        0.0001        4.1711        4.1711       4.170780       0.02193
  20     96.49        0.0003        0.0001        4.1368        4.1369       4.136591       0.01887
  19     114.6        0.0003        0.0001        4.0981        4.0982       4.097887       0.01807
  18     136.5        0.0003        0.0001        4.0537        4.0538       4.053498       0.01707
  17     162.9        0.0003        0.0001        4.0029        4.0030       4.002754       0.01622
  16     196.4        0.0003        0.0001        3.9333        3.9334       3.933165       0.01752
  15     218.7        0.0002        0.0001        3.8612        3.8613       3.861084       0.02737
  14     243.0        0.0002        0.0002        3.7837        3.7839       3.783633       0.02686
  13     269.0        0.0002        0.0002        3.6638        3.6640       3.663769       0.03888
  12     297.5        0.0002        0.0002        3.4901        3.4903       3.490106       0.05151
  11     328.5        0.0002        0.0002        3.2589        3.2591       3.258927       0.06286
  10     361.9        0.0002        0.0002        2.9730        2.9731       2.972972       0.07235
   9     398.1        0.0002        0.0002        2.6468        2.6470       2.646797       0.07599
   8     437.6        0.0002        0.0002        2.2964        2.2965       2.296378       0.07492
   7     480.5        0.0001        0.0002        1.9338        1.9340       1.933827       0.07120
   6     533.0        0.0001        0.0001        1.5214        1.5216       1.521408       0.06635
   5     589.8        0.0002        0.0001        1.1242        1.1243       1.124130       0.05897
   4     651.6        0.0002        0.0001        0.7598        0.7598       0.759652       0.04984
   3     718.7        0.0003        0.0001        0.4697        0.4698       0.469519       0.03646
   2     792.3        0.0004        0.0000        0.2482        0.2483       0.247836       0.02542
   1     891.5        0.0013        0.0000        0.0770        0.0771       0.075762       0.01464
   0    1013.0        0.0077        0.0000        0.0107        0.0107       0.003028       0.00505



 Wavenumbers:  4000. -  4650. cm-1, ATM      1
 LEVEL PRESSURE   UPWARD FLUX   DIFDOWN FLUX  DIRDOWN FLUX  DOWNWARD FLUX   NET FLUX    HEATING RATE
          mb          W/m2          W/m2          W/m2        W/m2          W/m2       degree/day
  51    .06700        4.4998        0.0000       10.7795       10.7795       6.279702       0.00000
  50    .07753        4.4998        0.0000       10.7795       10.7795       6.279701       0.00080
  49    .09103        4.4998        0.0000       10.7795       10.7795       6.279700       0.00078
  48    0.1069        4.4998        0.0000       10.7795       10.7795       6.279699       0.00076
  47    0.1255        4.4998        0.0000       10.7795       10.7795       6.279697       0.00074
  46    0.1487        4.4998        0.0000       10.7795       10.7795       6.279695       0.00075
  45    0.1794        4.4998        0.0000       10.7795       10.7795       6.279692       0.00078
  44    0.2165        4.4998        0.0000       10.7795       10.7795       6.279689       0.00076
  43    0.2613        4.4998        0.0000       10.7795       10.7795       6.279685       0.00074
  42    0.3336        4.4998        0.0000       10.7795       10.7795       6.279678       0.00077
  41    0.4307        4.4998        0.0000       10.7795       10.7795       6.279669       0.00077
  40    0.5894        4.4998        0.0000       10.7795       10.7795       6.279655       0.00079
  39     1.339        4.4998        0.0000       10.7794       10.7794       6.279566       0.00100
  38     1.782        4.4998        0.0000       10.7793       10.7793       6.279496       0.00132
  37     2.292        4.4998        0.0000       10.7792       10.7792       6.279402       0.00155
  36     2.964        4.4998        0.0000       10.7791       10.7791       6.279263       0.00175
  35     3.853        4.4998        0.0000       10.7789       10.7789       6.279055       0.00197
  34     5.035        4.4998        0.0000       10.7785       10.7786       6.278750       0.00218
  33     6.613        4.4998        0.0000       10.7781       10.7781       6.278300       0.00241
  32     8.786        4.4998        0.0001       10.7774       10.7774       6.277636       0.00258
  31     11.80        4.4998        0.0001       10.7763       10.7764       6.276592       0.00292
  30     15.07        4.4998        0.0001       10.7751       10.7752       6.275369       0.00316
  29     18.79        4.4998        0.0001       10.7736       10.7737       6.273889       0.00336
  28     23.16        4.4998        0.0001       10.7717       10.7718       6.272052       0.00355
  27     28.12        4.4998        0.0001       10.7695       10.7696       6.269828       0.00378
  26     33.73        4.4998        0.0002       10.7667       10.7669       6.267087       0.00412
  25     40.54        4.4998        0.0002       10.7630       10.7632       6.263370       0.00461
  24     48.69        4.4998        0.0002       10.7580       10.7582       6.258418       0.00512
  23     57.69        4.4998        0.0003       10.7521       10.7524       6.252550       0.00550
  22     68.43        4.4998        0.0003       10.7447       10.7450       6.245197       0.00578
  21     81.20        4.4999        0.0004       10.7357       10.7361       6.236148       0.00598
  20     96.49        4.5000        0.0004       10.7247       10.7251       6.225140       0.00608
  19     114.6        4.5004        0.0005       10.6971       10.6976       6.197140       0.01307
  18     136.5        4.5010        0.0006       10.6699       10.6705       6.169510       0.01062
  17     162.9        4.5018        0.0007       10.6411       10.6418       6.140014       0.00943
  16     196.4        4.5030        0.0009       10.6049       10.6058       6.102820       0.00936
  15     218.7        4.5040        0.0010       10.5774       10.5784       6.074324       0.01082
  14     243.0        4.5053        0.0011       10.5478       10.5489       6.043637       0.01064
  13     269.0        4.5071        0.0012       10.5098       10.5110       6.003953       0.01287
  12     297.5        4.5095        0.0013       10.4593       10.4606       5.951091       0.01568
  11     328.5        4.5129        0.0015       10.3908       10.3923       5.879353       0.01951
  10     361.9        4.5173        0.0016       10.2983       10.2999       5.782533       0.02450
   9     398.1        4.5229        0.0017       10.1765       10.1783       5.655307       0.02964
   8     437.6        4.5302        0.0019       10.0254       10.0272       5.496996       0.03385
   7     480.5        4.5398        0.0020        9.8508        9.8529       5.313096       0.03612
   6     533.0        4.5548        0.0022        9.6292        9.6315       5.076673       0.03803
   5     589.8        4.5766        0.0024        9.3706        9.3730       4.796436       0.04160
   4     651.6        4.6090        0.0026        9.0424        9.0450       4.436037       0.04929
   3     718.7        4.6564        0.0028        8.6503        8.6531       3.996686       0.05521
   2     792.3        4.7270        0.0029        8.2170        8.2200       3.492909       0.05778
   1     891.5        4.8652        0.0031        7.6829        7.6860       2.820845       0.05719
   0    1013.0        5.1256        0.0034        7.1340        7.1374       2.011777       0.05618



 Wavenumbers:  4650. -  5150. cm-1, ATM      1
 LEVEL PRESSURE   UPWARD FLUX   DIFDOWN FLUX  DIRDOWN FLUX  DOWNWARD FLUX   NET FLUX    HEATING RATE
          mb          W/m2          W/m2          W/m2        W/m2          W/m2       degree/day
  51    .06700        3.1263        0.0000       10.2033       10.2033       7.077072       0.00000
  50    .07753        3.1263        0.0000       10.2031       10.2031       7.076837       0.18911
  49    .09103        3.1263        0.0000       10.2028       10.2028       7.076542       0.18438
  48    0.1069        3.1263        0.0000       10.2025       10.2025       7.076204       0.17941
  47    0.1255        3.1263        0.0000       10.2021       10.2021       7.075820       0.17435
  46    0.1487        3.1263        0.0000       10.2016       10.2016       7.075339       0.17546
  45    0.1794        3.1263        0.0000       10.2010       10.2010       7.074688       0.17860
  44    0.2165        3.1263        0.0000       10.2002       10.2002       7.073928       0.17287
  43    0.2613        3.1263        0.0000       10.1993       10.1993       7.073042       0.16699
  42    0.3336        3.1263        0.0000       10.1979       10.1979       7.071609       0.16711
  41    0.4307        3.1263        0.0000       10.1960       10.1960       7.069767       0.16011
  40    0.5894        3.1263        0.0000       10.1932       10.1932       7.066892       0.15292
  39     1.339        3.1263        0.0000       10.1816       10.1816       7.055293       0.13058
  38     1.782        3.1263        0.0000       10.1760       10.1760       7.049761       0.10532
  37     2.292        3.1263        0.0000       10.1705       10.1706       7.044302       0.09043
  36     2.964        3.1263        0.0000       10.1646       10.1646       7.038375       0.07440
  35     3.853        3.1262        0.0000       10.1584       10.1584       7.032157       0.05901
  34     5.035        3.1262        0.0000       10.1520       10.1521       7.025817       0.04529
  33     6.613        3.1262        0.0001       10.1455       10.1456       7.019355       0.03454
  32     8.786        3.1262        0.0001       10.1385       10.1386       7.012339       0.02725
  31     11.80        3.1262        0.0001       10.1294       10.1295       7.003291       0.02533
  30     15.07        3.1262        0.0001       10.1195       10.1196       6.993403       0.02553
  29     18.79        3.1262        0.0001       10.1075       10.1076       6.981385       0.02725
  28     23.16        3.1262        0.0002       10.0921       10.0923       6.966065       0.02962
  27     28.12        3.1263        0.0002       10.0730       10.0732       6.946951       0.03249
  26     33.73        3.1263        0.0002       10.0499       10.0501       6.923832       0.03476
  25     40.54        3.1263        0.0003       10.0200       10.0202       6.893895       0.03714
  24     48.69        3.1264        0.0003        9.9818        9.9821       6.855677       0.03955
  23     57.69        3.1265        0.0004        9.9382        9.9386       6.812082       0.04086
  22     68.43        3.1266        0.0005        9.8855        9.8859       6.759277       0.04151
  21     81.20        3.1269        0.0005        9.8231        9.8236       6.696791       0.04129
  20     96.49        3.1271        0.0006        9.7514        9.7520       6.624852       0.03971
  19     114.6        3.1277        0.0007        9.6656        9.6663       6.538594       0.04028
  18     136.5        3.1285        0.0009        9.5746        9.5754       6.446962       0.03523
  17     162.9        3.1295        0.0010        9.4789        9.4799       6.350403       0.03086
  16     196.4        3.1310        0.0012        9.3687        9.3700       6.238920       0.02806
  15     218.7        3.1324        0.0014        9.2984        9.2998       6.167414       0.02715
  14     243.0        3.1340        0.0015        9.2242        9.2257       6.091745       0.02624
  13     269.0        3.1362        0.0017        9.1397        9.1413       6.005154       0.02809
  12     297.5        3.1391        0.0018        9.0411        9.0429       5.903725       0.03008
  11     328.5        3.1430        0.0020        8.9250        8.9270       5.783961       0.03256
  10     361.9        3.1482        0.0021        8.7860        8.7881       5.639863       0.03646
   9     398.1        3.1551        0.0023        8.6193        8.6216       5.466491       0.04039
   8     437.6        3.1643        0.0025        8.4198        8.4223       5.257982       0.04458
   7     480.5        3.1765        0.0027        8.1833        8.1860       5.009423       0.04882
   6     533.0        3.1957        0.0029        7.8678        7.8707       4.674996       0.05380
   5     589.8        3.2224        0.0031        7.5119        7.5150       4.292626       0.05676
   4     651.6        3.2605        0.0033        7.1239        7.1271       3.866612       0.05826
   3     718.7        3.3142        0.0034        6.7246        6.7280       3.413878       0.05690
   2     792.3        3.3905        0.0036        6.3216        6.3253       2.934761       0.05495
   1     891.5        3.5343        0.0038        5.8204        5.8242       2.289881       0.05488
   0    1013.0        3.7963        0.0040        5.2821        5.2861       1.489847       0.05555



 Wavenumbers:  5150. -  6150. cm-1, ATM      1
 LEVEL PRESSURE   UPWARD FLUX   DIFDOWN FLUX  DIRDOWN FLUX  DOWNWARD FLUX   NET FLUX    HEATING RATE
          mb          W/m2          W/m2          W/m2        W/m2          W/m2       degree/day
  51    .06700        8.0310        0.0000       25.5798       25.5798      17.548858       0.00000
  50    .07753        8.0310        0.0000       25.5798       25.5798      17.548858       0.00021
  49    .09103        8.0310        0.0000       25.5798       25.5798      17.548858       0.00021
  48    0.1069        8.0310        0.0000       25.5798       25.5798      17.548857       0.00020
  47    0.1255        8.0310        0.0000       25.5798       25.5798      17.548857       0.00020
  46    0.1487        8.0310        0.0000       25.5798       25.5798      17.548856       0.00020
  45    0.1794        8.0310        0.0000       25.5798       25.5798      17.548856       0.00021
  44    0.2165        8.0310        0.0000       25.5798       25.5798      17.548855       0.00020
  43    0.2613        8.0310        0.0000       25.5798       25.5798      17.548854       0.00020
  42    0.3336        8.0310        0.0000       25.5798       25.5798      17.548852       0.00021
  41    0.4307        8.0310        0.0000       25.5798       25.5798      17.548850       0.00021
  40    0.5894        8.0310        0.0000       25.5798       25.5798      17.548846       0.00021
  39     1.339        8.0309        0.0000       25.5797       25.5798      17.548822       0.00027
  38     1.782        8.0309        0.0001       25.5797       25.5797      17.548803       0.00036
  37     2.292        8.0332        0.0001       22.3073       22.3074      14.274126      54.23719
  36     2.964        8.0343        0.0001       21.8870       21.8871      13.852835       5.28847
  35     3.853        8.0350        0.0002       21.6643       21.6645      13.629484       2.11964
  34     5.035        8.0356        0.0002       21.5200       21.5202      13.484664       1.03453
  33     6.613        8.0360        0.0002       21.4185       21.4188      13.382737       0.54490
  32     8.786        8.0364        0.0003       21.3443       21.3446      13.308227       0.28937
  31     11.80        8.0367        0.0004       21.2858       21.2862      13.249512       0.16438
  30     15.07        8.0369        0.0005       21.2475       21.2480      13.211029       0.09936
  29     18.79        8.0371        0.0006       21.2189       21.2195      13.182368       0.06498
  28     23.16        8.0373        0.0007       21.1948       21.1955      13.158178       0.04677
  27     28.12        8.0375        0.0008       21.1729       21.1737      13.136231       0.03731
  26     33.73        8.0377        0.0009       21.1527       21.1536      13.115954       0.03049
  25     40.54        8.0380        0.0011       21.1198       21.1209      13.082857       0.04106
  24     48.69        8.0384        0.0013       21.0860       21.0873      13.048931       0.03511
  23     57.69        8.0389        0.0016       21.0545       21.0561      13.017226       0.02972
  22     68.43        8.0394        0.0018       21.0227       21.0245      12.985116       0.02524
  21     81.20        8.0400        0.0022       20.9905       20.9926      12.952653       0.02145
  20     96.49        8.0406        0.0025       20.9578       20.9603      12.919681       0.01820
  19     114.6        8.0414        0.0030       20.9219       20.9249      12.883525       0.01688
  18     136.5        8.0424        0.0036       20.8817       20.8853      12.842949       0.01560
  17     162.9        8.0434        0.0042       20.8380       20.8422      12.798831       0.01410
  16     196.4        8.0447        0.0051       20.7819       20.7870      12.742269       0.01424
  15     218.7        8.0457        0.0056       20.7262       20.7318      12.686124       0.02132
  14     243.0        8.0466        0.0062       20.6654       20.6716      12.624951       0.02122
  13     269.0        8.0478        0.0069       20.5626       20.5694      12.521655       0.03351
  12     297.5        8.0492        0.0075       20.3908       20.3983      12.349083       0.05118
  11     328.5        8.0511        0.0082       20.1171       20.1254      12.074265       0.07472
  10     361.9        8.0536        0.0089       19.7026       19.7115      11.657955       0.10533
   9     398.1        8.0569        0.0096       19.1211       19.1307      11.073747       0.13611
   8     437.6        8.0615        0.0102       18.3760       18.3862      10.324673       0.16016
   7     480.5        8.0679        0.0108       17.5216       17.5324       9.464508       0.16893
   6     533.0        8.0786        0.0115       16.5223       16.5337       8.455117       0.16238
   5     589.8        8.0952        0.0121       15.6166       15.6288       7.533554       0.13679
   4     651.6        8.1215        0.0129       14.8487       14.8616       6.740067       0.10851
   3     718.7        8.1623        0.0138       14.2175       14.2312       6.068918       0.08434
   2     792.3        8.2275        0.0147       13.6247       13.6394       5.411931       0.07535
   1     891.5        8.3676        0.0159       12.8616       12.8774       4.509850       0.07676
   0    1013.0        8.6819        0.0172       12.0711       12.0883       3.406386       0.07662



 Wavenumbers:  6150. -  7700. cm-1, ATM      1
 LEVEL PRESSURE   UPWARD FLUX   DIFDOWN FLUX  DIRDOWN FLUX  DOWNWARD FLUX   NET FLUX    HEATING RATE
          mb          W/m2          W/m2          W/m2        W/m2          W/m2       degree/day
  51    .06700       11.8768        0.0000       47.3109       47.3109      35.434033       0.00000
  50    .07753       11.8768        0.0000       47.3108       47.3108      35.434017       0.01303
  49    .09103       11.8768        0.0000       47.3108       47.3108      35.433997       0.01277
  48    0.1069       11.8768        0.0000       47.3108       47.3108      35.433973       0.01250
  47    0.1255       11.8768        0.0000       47.3108       47.3108      35.433946       0.01223
  46    0.1487       11.8768        0.0000       47.3107       47.3107      35.433912       0.01241
  45    0.1794       11.8768        0.0000       47.3107       47.3107      35.433866       0.01276
  44    0.2165       11.8768        0.0000       47.3106       47.3106      35.433811       0.01252
  43    0.2613       11.8768        0.0000       47.3105       47.3106      35.433745       0.01228
  42    0.3336       11.8768        0.0000       47.3104       47.3104      35.433638       0.01256
  41    0.4307       11.8768        0.0000       47.3102       47.3103      35.433495       0.01242
  40    0.5894       11.8768        0.0001       47.3100       47.3100      35.433262       0.01240
  39     1.339       11.8767        0.0002       47.3087       47.3089      35.432160       0.01240
  38     1.782       11.8767        0.0002       47.3080       47.3082      35.431514       0.01230
  37     2.292       11.8785        0.0004       41.8783       41.8788      30.000288      89.95527
  36     2.964       11.8794        0.0006       41.2334       41.2340      29.354620       8.10508
  35     3.853       11.8800        0.0007       40.8937       40.8944      29.014430       3.22847
  34     5.035       11.8804        0.0008       40.6768       40.6776      28.797223       1.55164
  33     6.613       11.8807        0.0010       40.5268       40.5278      28.647122       0.80244
  32     8.786       11.8809        0.0012       40.4191       40.4204      28.539488       0.41801
  31     11.80       11.8809        0.0016       40.3359       40.3375      28.456552       0.23220
  30     15.07       11.8808        0.0019       40.2823       40.2842      28.403379       0.13728
  29     18.79       11.8807        0.0023       40.2430       40.2453      28.364593       0.08794
  28     23.16       11.8805        0.0028       40.2102       40.2130      28.332486       0.06209
  27     28.12       11.8802        0.0033       40.1808       40.1841      28.303907       0.04858
  26     33.73       11.8799        0.0039       40.1542       40.1581      28.278200       0.03865
  25     40.54       11.8796        0.0046       40.1120       40.1166      28.237090       0.05100
  24     48.69       11.8791        0.0055       40.0699       40.0754      28.196316       0.04219
  23     57.69       11.8786        0.0064       40.0315       40.0379      28.159314       0.03468
  22     68.43       11.8780        0.0076       39.9932       40.0007      28.122769       0.02873
  21     81.20       11.8772        0.0089       39.9548       39.9637      28.086509       0.02396
  20     96.49       11.8762        0.0106       39.9157       39.9263      28.050026       0.02014
  19     114.6       11.8751        0.0125       39.8716       39.8841      28.008973       0.01917
  18     136.5       11.8738        0.0148       39.8203       39.8351      27.961269       0.01834
  17     162.9       11.8723        0.0175       39.7604       39.7779      27.905596       0.01780
  16     196.4       11.8703        0.0210       39.6749       39.6959      27.825652       0.02012
  15     218.7       11.8692        0.0233       39.5795       39.6029      27.733706       0.03491
  14     243.0       11.8679        0.0258       39.4718       39.4977      27.629720       0.03607
  13     269.0       11.8669        0.0285       39.2861       39.3146      27.447691       0.05905
  12     297.5       11.8662        0.0313       38.9743       39.0056      27.139434       0.09143
  11     328.5       11.8662        0.0342       38.4745       38.5086      26.642466       0.13512
  10     361.9       11.8673        0.0370       37.7126       37.7497      25.882363       0.19231
   9     398.1       11.8704        0.0398       36.6243       36.6641      24.793687       0.25364
   8     437.6       11.8767        0.0423       35.1831       35.2254      23.348768       0.30893
   7     480.5       11.8878        0.0446       33.4340       33.4786      21.590740       0.34527
   6     533.0       11.9105        0.0468       31.2169       31.2638      19.353294       0.35993
   5     589.8       11.9499        0.0489       28.9629       29.0118      17.061950       0.34011
   4     651.6       12.0171        0.0507       26.7553       26.8060      14.788969       0.31084
   3     718.7       12.1257        0.0526       24.7072       24.7598      12.634072       0.27081
   2     792.3       12.3021        0.0545       22.8083       22.8627      10.560572       0.23781
   1     891.5       12.6799        0.0570       20.7014       20.7583       8.078396       0.21122
   0    1013.0       13.4927        0.0600       18.7231       18.7831       5.290400       0.19358



 Wavenumbers:  7700. -  8050. cm-1, ATM      1
 LEVEL PRESSURE   UPWARD FLUX   DIFDOWN FLUX  DIRDOWN FLUX  DOWNWARD FLUX   NET FLUX    HEATING RATE
          mb          W/m2          W/m2          W/m2        W/m2          W/m2       degree/day
  51    .06700        6.3209        0.0000       11.1810       11.1810       4.860017       0.00000
  50    .07753        6.3210        0.0000       11.1809       11.1809       4.859995       0.01755
  49    .09103        6.3210        0.0000       11.1809       11.1809       4.859968       0.01720
  48    0.1069        6.3210        0.0000       11.1809       11.1809       4.859936       0.01684
  47    0.1255        6.3210        0.0000       11.1809       11.1809       4.859900       0.01648
  46    0.1487        6.3210        0.0000       11.1808       11.1808       4.859854       0.01672
  45    0.1794        6.3210        0.0000       11.1808       11.1808       4.859791       0.01721
  44    0.2165        6.3210        0.0000       11.1807       11.1807       4.859717       0.01688
  43    0.2613        6.3210        0.0000       11.1806       11.1806       4.859629       0.01656
  42    0.3336        6.3210        0.0000       11.1805       11.1805       4.859484       0.01695
  41    0.4307        6.3211        0.0000       11.1803       11.1804       4.859291       0.01676
  40    0.5894        6.3211        0.0000       11.1801       11.1801       4.858976       0.01675
  39     1.339        6.3214        0.0001       11.1788       11.1789       4.857486       0.01677
  38     1.782        6.3216        0.0001       11.1781       11.1782       4.856611       0.01666
  37     2.292        6.3217        0.0002       11.1771       11.1773       4.855598       0.01678
  36     2.964        6.3219        0.0003       11.1759       11.1762       4.854268       0.01670
  35     3.853        6.3222        0.0003       11.1744       11.1747       4.852512       0.01667
  34     5.035        6.3226        0.0004       11.1724       11.1728       4.850178       0.01667
  33     6.613        6.3232        0.0005       11.1697       11.1703       4.847061       0.01666
  32     8.786        6.3240        0.0006       11.1662       11.1668       4.842862       0.01631
  31     11.80        6.3250        0.0008       11.1611       11.1619       4.836859       0.01681
  30     15.07        6.3262        0.0010       11.1556       11.1566       4.830420       0.01663
  29     18.79        6.3275        0.0012       11.1495       11.1507       4.823152       0.01648
  28     23.16        6.3291        0.0015       11.1423       11.1437       4.814675       0.01639
  27     28.12        6.3308        0.0017       11.1341       11.1358       4.804995       0.01645
  26     33.73        6.3328        0.0020       11.1250       11.1270       4.794183       0.01626
  25     40.54        6.3352        0.0024       11.1140       11.1164       4.781151       0.01617
  24     48.69        6.3382        0.0029       11.1008       11.1037       4.765485       0.01621
  23     57.69        6.3414        0.0034       11.0864       11.0897       4.748336       0.01608
  22     68.43        6.3453        0.0040       11.0693       11.0733       4.727992       0.01599
  21     81.20        6.3499        0.0047       11.0491       11.0538       4.703870       0.01594
  20     96.49        6.3555        0.0055       11.0253       11.0308       4.675292       0.01577
  19     114.6        6.3623        0.0065       10.9972       11.0037       4.641465       0.01580
  18     136.5        6.3703        0.0077       10.9643       10.9720       4.601706       0.01529
  17     162.9        6.3801        0.0091       10.9258       10.9349       4.554808       0.01499
  16     196.4        6.3929        0.0109       10.8766       10.8876       4.494640       0.01514
  15     218.7        6.4015        0.0121       10.8448       10.8569       4.455406       0.01490
  14     243.0        6.4110        0.0134       10.8106       10.8241       4.413053       0.01469
  13     269.0        6.4215        0.0148       10.7740       10.7888       4.367333       0.01483
  12     297.5        6.4330        0.0164       10.7347       10.7510       4.318009       0.01463
  11     328.5        6.4459        0.0180       10.6925       10.7105       4.264643       0.01451
  10     361.9        6.4602        0.0198       10.6472       10.6670       4.206835       0.01463
   9     398.1        6.4762        0.0216       10.5984       10.6201       4.143836       0.01468
   8     437.6        6.4943        0.0237       10.5456       10.5693       4.074924       0.01473
   7     480.5        6.5149        0.0259       10.4881       10.5139       3.998975       0.01492
   6     533.0        6.5423        0.0285       10.4153       10.4438       3.901494       0.01568
   5     589.8        6.5747        0.0314       10.3338       10.3651       3.790415       0.01649
   4     651.6        6.6138        0.0345       10.2411       10.2756       3.661791       0.01759
   3     718.7        6.6611        0.0377       10.1357       10.1734       3.512250       0.01879
   2     792.3        6.7193        0.0412       10.0147       10.0558       3.336562       0.02015
   1     891.5        6.8112        0.0457        9.8392        9.8849       3.073677       0.02237
   0    1013.0        6.9437        0.0511        9.6131        9.6642       2.720452       0.02453



 Wavenumbers:  8050. - 12850. cm-1, ATM      1
 LEVEL PRESSURE   UPWARD FLUX   DIFDOWN FLUX  DIRDOWN FLUX  DOWNWARD FLUX   NET FLUX    HEATING RATE
          mb          W/m2          W/m2          W/m2        W/m2          W/m2       degree/day
  51    .06700       77.2756        0.0000      156.5418      156.5418      79.266112       0.00000
  50    .07753       77.2756        0.0000      156.5417      156.5417      79.266112       0.00000
  49    .09103       77.2756        0.0001      156.5417      156.5417      79.266112      -0.00000
  48    0.1069       77.2756        0.0001      156.5416      156.5417      79.266112       0.00000
  47    0.1255       77.2756        0.0002      156.5415      156.5417      79.266112      -0.00000
  46    0.1487       77.2755        0.0002      156.5414      156.5416      79.266112      -0.00000
  45    0.1794       77.2755        0.0003      156.5413      156.5416      79.266112       0.00000
  44    0.2165       77.2754        0.0004      156.5412      156.5416      79.266112       0.00000
  43    0.2613       77.2754        0.0005      156.5410      156.5415      79.266112       0.00000
  42    0.3336       77.2753        0.0007      156.5407      156.5414      79.266112      -0.00000
  41    0.4307       77.2752        0.0010      156.5403      156.5413      79.266112       0.00000
  40    0.5894       77.2750        0.0014      156.5397      156.5411      79.266112      -0.00000
  39     1.339       77.2740        0.0034      156.5367      156.5401      79.266112       0.00000
  38     1.782       77.2735        0.0046      156.5350      156.5396      79.266112       0.00000
  37     2.292       77.2708        0.0102      156.5267      156.5370      79.266112      -0.00000
  36     2.964       77.2694        0.0134      156.5221      156.5355      79.266112       0.00000
  35     3.853       77.2679        0.0165      156.5175      156.5340      79.266112      -0.00000
  34     5.035       77.2662        0.0201      156.5123      156.5324      79.266112       0.00000
  33     6.613       77.2642        0.0245      156.5057      156.5303      79.266112      -0.00000
  32     8.786       77.2614        0.0304      156.4972      156.5275      79.266112       0.00000
  31     11.80       77.2576        0.0386      156.4850      156.5237      79.266112      -0.00000
  30     15.07       77.2534        0.0474      156.4721      156.5195      79.266112      -0.00000
  29     18.79       77.2488        0.0574      156.4575      156.5149      79.266112       0.00000
  28     23.16       77.2433        0.0690      156.4404      156.5094      79.266112       0.00000
  27     28.12       77.2371        0.0823      156.4209      156.5032      79.266112      -0.00000
  26     33.73       77.2301        0.0972      156.3991      156.4963      79.266112       0.00000
  25     40.54       77.2217        0.1152      156.3726      156.4878      79.266112       0.00000
  24     48.69       77.2115        0.1369      156.3407      156.4776      79.266112      -0.00000
  23     57.69       77.2003        0.1609      156.3056      156.4664      79.266112       0.00000
  22     68.43       77.1870        0.1894      156.2637      156.4531      79.266112      -0.00000
  21     81.20       77.1710        0.2234      156.2137      156.4371      79.266112       0.00000
  20     96.49       77.1520        0.2640      156.1541      156.4181      79.266112       0.00000
  19     114.6       77.1357        0.3121      155.8498      156.1619      79.026191       0.11203
  18     136.5       77.1148        0.3692      155.5681      155.9374      78.822607       0.07828
  17     162.9       77.0876        0.4374      155.2955      155.7329      78.645345       0.05666
  16     196.4       77.0499        0.5260      154.9768      155.5028      78.452884       0.04844
  15     218.7       77.0248        0.5842      154.7146      155.2989      78.274097       0.06788
  14     243.0       76.9969        0.6476      154.4537      155.1013      78.104445       0.05884
  13     269.0       76.9676        0.7162      154.0968      154.8130      77.845394       0.08403
  12     297.5       76.9379        0.7902      153.6108      154.4010      77.463053       0.11340
  11     328.5       76.9091        0.8697      152.9471      153.8168      76.907709       0.15100
  10     361.9       76.8835        0.9547      152.0361      152.9908      76.107334       0.20250
   9     398.1       76.8648        1.0451      150.8010      151.8461      74.981278       0.26235
   8     437.6       76.8590        1.1406      149.1780      150.3185      73.459489       0.32537
   7     480.5       76.8751        1.2406      147.1052      148.3458      71.470662       0.39060
   6     533.0       76.9374        1.3601      144.1377      145.4978      68.560351       0.46818
   5     589.8       77.0736        1.4842      140.5728      142.0569      64.983309       0.53095
   4     651.6       77.3318        1.6123      136.4460      138.0583      60.726425       0.58214
   3     718.7       77.7679        1.7439      131.9323      133.6762      55.908301       0.60550
   2     792.3       78.4914        1.8780      126.9699      128.8478      50.356417       0.63674
   1     891.5       80.0362        2.0474      120.4032      122.4506      42.414336       0.67583
   0    1013.0       83.1347        2.2402      113.2934      115.5337      32.398902       0.69542



 Wavenumbers: 12850. - 16000. cm-1, ATM      1
 LEVEL PRESSURE   UPWARD FLUX   DIFDOWN FLUX  DIRDOWN FLUX  DOWNWARD FLUX   NET FLUX    HEATING RATE
          mb          W/m2          W/m2          W/m2        W/m2          W/m2       degree/day
  51    .06700       71.6170        0.0000       98.0872       98.0872      26.470276       0.00000
  50    .07753       71.6170        0.0001       98.0864       98.0864      26.469486       0.63311
  49    .09103       71.6170        0.0002       98.0853       98.0854      26.468495       0.61985
  48    0.1069       71.6169        0.0003       98.0841       98.0843      26.467356       0.60630
  47    0.1255       71.6170        0.0004       98.0826       98.0830      26.466048       0.59302
  46    0.1487       71.6170        0.0005       98.0809       98.0814      26.464398       0.60143
  45    0.1794       71.6170        0.0007       98.0784       98.0791      26.462154       0.61584
  44    0.2165       71.6170        0.0009       98.0756       98.0766      26.459517       0.59989
  43    0.2613       71.6171        0.0012       98.0723       98.0735      26.456418       0.58412
  42    0.3336       71.6173        0.0017       98.0670       98.0687      26.451366       0.58912
  41    0.4307       71.6176        0.0023       98.0602       98.0625      26.444839       0.56750
  40    0.5894       71.6183        0.0032       98.0496       98.0528      26.434571       0.54603
  39     1.339       71.6239        0.0079       98.0043       98.0122      26.388332       0.52056
  38     1.782       71.6291        0.0106       97.9793       97.9899      26.360761       0.52492
  37     2.292       71.6335        0.0236       97.9365       97.9601      26.326551       0.56661
  36     2.964       71.6455        0.0309       97.8913       97.9221      26.276660       0.62628
  35     3.853       71.6660        0.0380       97.8306       97.8686      26.202511       0.70368
  34     5.035       71.6976        0.0462       97.7470       97.7931      26.095529       0.76423
  33     6.613       71.7419        0.0564       97.6344       97.6908      25.948874       0.78402
  32     8.786       71.7997        0.0698       97.4884       97.5582      25.758431       0.73961
  31     11.80       71.8750        0.0886       97.2953       97.3839      25.508879       0.69867
  30     15.07       71.9470        0.1087       97.1056       97.2142      25.267212       0.62394
  29     18.79       72.0205        0.1313       96.9072       97.0384      25.017907       0.56525
  28     23.16       72.0973        0.1576       96.6936       96.8513      24.753996       0.51032
  27     28.12       72.1744        0.1878       96.4705       96.6582      24.483858       0.45922
  26     33.73       72.2454        0.2214       96.2500       96.4714      24.226053       0.38762
  25     40.54       72.3136        0.2621       96.0176       96.2798      23.966206       0.32237
  24     48.69       72.3786        0.3112       95.7714       96.0826      23.703984       0.27136
  23     57.69       72.4334        0.3651       95.5341       95.8991      23.465748       0.22331
  22     68.43       72.4806        0.4293       95.2874       95.7166      23.236042       0.18058
  21     81.20       72.5121        0.5058       95.0411       95.5469      23.034803       0.13298
  20     96.49       72.5268        0.5972       94.7920       95.3892      22.862374       0.09517
  19     114.6       72.5460        0.7068       94.5139       95.2207      22.674685       0.08764
  18     136.5       72.5583        0.8367       94.2012       95.0379      22.479630       0.07500
  17     162.9       72.5632        0.9914       93.8409       94.8323      22.269142       0.06728
  16     196.4       72.5490        1.1920       93.3962       94.5881      22.039136       0.05790
  15     218.7       72.5326        1.3237       93.1087       94.4324      21.899783       0.05291
  14     243.0       72.5113        1.4668       92.7988       94.2656      21.754325       0.05045
  13     269.0       72.4852        1.6218       92.4630       94.0848      21.599605       0.05019
  12     297.5       72.4548        1.7894       92.0984       93.8878      21.432986       0.04942
  11     328.5       72.4221        1.9704       91.6988       93.6692      21.247182       0.05052
  10     361.9       72.3884        2.1652       91.2594       93.4247      21.036266       0.05336
   9     398.1       72.3558        2.3748       90.7725       93.1473      20.791524       0.05702
   8     437.6       72.3278        2.5997       90.2270       92.8267      20.498942       0.06256
   7     480.5       72.3092        2.8404       89.6096       92.4500      20.140843       0.07033
   6     533.0       72.3085        3.1358       88.7935       91.9293      19.620781       0.08366
   5     589.8       72.3425        3.4526       87.8400       91.2925      18.950009       0.09956
   4     651.6       72.4245        3.7896       86.7388       90.5284      18.103841       0.11572
   3     718.7       72.5741        4.1466       85.4834       89.6299      17.055857       0.13170
   2     792.3       72.8325        4.5217       84.0489       88.5706      15.738065       0.15114
   1     891.5       73.3734        5.0158       82.0229       87.0387      13.665294       0.17638
   0    1013.0       74.3425        5.5952       79.5742       85.1694      10.826892       0.19708



 Wavenumbers: 16000. - 22650. cm-1, ATM      1
 LEVEL PRESSURE   UPWARD FLUX   DIFDOWN FLUX  DIRDOWN FLUX  DOWNWARD FLUX   NET FLUX    HEATING RATE
          mb          W/m2          W/m2          W/m2        W/m2          W/m2       degree/day
  51    .06700      140.2053        0.0000      156.3892      156.3892      16.183926       0.00000
  50    .07753      140.2053        0.0004      156.3887      156.3891      16.183779       0.11789
  49    .09103      140.2053        0.0009      156.3879      156.3888      16.183565       0.13371
  48    0.1069      140.2053        0.0015      156.3871      156.3885      16.183279       0.15247
  47    0.1255      140.2053        0.0021      156.3861      156.3882      16.182895       0.17380
  46    0.1487      140.2053        0.0029      156.3847      156.3877      16.182330       0.20595
  45    0.1794      140.2055        0.0041      156.3828      156.3869      16.181447       0.24249
  44    0.2165      140.2057        0.0054      156.3805      156.3859      16.180249       0.27253
  43    0.2613      140.2060        0.0070      156.3776      156.3846      16.178623       0.30639
  42    0.3336      140.2067        0.0096      156.3726      156.3823      16.175533       0.36031
  41    0.4307      140.2080        0.0131      156.3657      156.3788      16.170875       0.40503
  40    0.5894      140.2105        0.0188      156.3537      156.3725      16.161991       0.47245
  39     1.339      140.2328        0.0458      156.2834      156.3292      16.096354       0.73895
  38     1.782      140.2535        0.0616      156.2324      156.2939      16.040439       1.06452
  37     2.292      140.2713        0.1369      156.0940      156.2308      15.959506       1.34046
  36     2.964      140.3187        0.1792      155.9679      156.1471      15.828402       1.64575
  35     3.853      140.3998        0.2202      155.8000      156.0202      15.620377       1.97419
  34     5.035      140.5244        0.2677      155.5667      155.8344      15.310027       2.21701
  33     6.613      140.6994        0.3269      155.2512      155.5781      14.878739       2.30567
  32     8.786      140.9278        0.4043      154.8411      155.2454      14.317545       2.17947
  31     11.80      141.2254        0.5133      154.2975      154.8108      13.585349       2.04992
  30     15.07      141.5106        0.6294      153.7622      154.3916      12.881016       1.81845
  29     18.79      141.8017        0.7601      153.2008      153.9609      12.159156       1.63668
  28     23.16      142.1060        0.9123      152.5943      153.5067      11.400686       1.46664
  27     28.12      142.4121        1.0861      151.9575      153.0435      10.631490       1.30758
  26     33.73      142.6945        1.2803      151.3232      152.6035       9.909002       1.08628
  25     40.54      142.9660        1.5148      150.6461      152.1609       9.194942       0.88587
  24     48.69      143.2257        1.7972      149.9166      151.7138       8.488030       0.73154
  23     57.69      143.4457        2.1070      149.1983      151.3052       7.859530       0.58912
  22     68.43      143.6371        2.4755      148.4312      150.9066       7.269550       0.46380
  21     81.20      143.7685        2.9143      147.6357      150.5500       6.781510       0.32249
  20     96.49      143.8353        3.4366      146.7973      150.2339       6.398531       0.21138
  19     114.6      143.8693        4.0550      145.8610      149.9160       6.046696       0.16428
  18     136.5      143.8782        4.7851      144.7937      149.5788       5.700580       0.13309
  17     162.9      143.8605        5.6505      143.5639      149.2144       5.353910       0.11081
  16     196.4      143.7762        6.7671      142.0509      148.8180       5.041863       0.07855
  15     218.7      143.6985        7.4968      141.0893      148.5861       4.887634       0.05855
  14     243.0      143.6036        8.2866      140.0617      148.3483       4.744675       0.04958
  13     269.0      143.4900        9.1386      138.9664      148.1050       4.614941       0.04209
  12     297.5      143.3571       10.0549      137.8011      147.8560       4.498872       0.03442
  11     328.5      143.2091       11.0398      136.5547      147.5945       4.385362       0.03086
  10     361.9      143.0458       12.0942      135.2256      147.3198       4.273971       0.02818
   9     398.1      142.8670       13.2222      133.8079      147.0301       4.163068       0.02584
   8     437.6      142.6741       14.4258      132.2970      146.7227       4.048643       0.02446
   7     480.5      142.4672       15.7072      130.6886      146.3958       3.928596       0.02358
   6     533.0      142.2153       17.2725      128.7210      145.9935       3.778239       0.02419
   5     589.8      141.9507       18.9450      126.6105      145.5555       3.604881       0.02573
   4     651.6      141.6785       20.7262      124.3490      145.0752       3.396720       0.02847
   3     718.7      141.4026       22.6175      121.9311      144.5486       3.146001       0.03151
   2     792.3      141.1350       24.6164      119.3487      143.9651       2.830046       0.03624
   1     891.5      140.8294       27.2693      115.8741      143.1434       2.314026       0.04391
   0    1013.0      140.5330       30.3866      111.7504      142.1369       1.603989       0.04930



 Wavenumbers: 22650. - 29000. cm-1, ATM      1
 LEVEL PRESSURE   UPWARD FLUX   DIFDOWN FLUX  DIRDOWN FLUX  DOWNWARD FLUX   NET FLUX    HEATING RATE
          mb          W/m2          W/m2          W/m2        W/m2          W/m2       degree/day
  51    .06700       58.3821        0.0000       59.0156       59.0156       0.633462       0.00000
  50    .07753       58.3821        0.0005       59.0151       59.0155       0.633462       0.00000
  49    .09103       58.3819        0.0010       59.0144       59.0154       0.633462      -0.00000
  48    0.1069       58.3818        0.0017       59.0136       59.0153       0.633462       0.00000
  47    0.1255       58.3817        0.0025       59.0127       59.0151       0.633462       0.00000
  46    0.1487       58.3815        0.0034       59.0115       59.0149       0.633462      -0.00000
  45    0.1794       58.3812        0.0048       59.0099       59.0147       0.633462       0.00000
  44    0.2165       58.3809        0.0063       59.0080       59.0144       0.633462       0.00000
  43    0.2613       58.3806        0.0082       59.0058       59.0140       0.633462       0.00000
  42    0.3336       58.3800        0.0113       59.0022       59.0134       0.633462      -0.00000
  41    0.4307       58.3792        0.0153       58.9973       59.0126       0.633462       0.00000
  40    0.5894       58.3779        0.0220       58.9894       59.0113       0.633462      -0.00000
  39     1.339       58.3717        0.0534       58.9518       59.0052       0.633462       0.00000
  38     1.782       58.3681        0.0719       58.9297       59.0016       0.633462       0.00000
  37     2.292       58.3510        0.1597       58.8248       58.9845       0.633462      -0.00000
  36     2.964       58.3414        0.2091       58.7658       58.9748       0.633462       0.00000
  35     3.853       58.3320        0.2570       58.7085       58.9655       0.633462       0.00000
  34     5.035       58.3212        0.3124       58.6423       58.9547       0.633462      -0.00000
  33     6.613       58.3077        0.3817       58.5595       58.9412       0.633462       0.00000
  32     8.786       58.2901        0.4722       58.4514       58.9235       0.633462      -0.00000
  31     11.80       58.2652        0.5996       58.2990       58.8987       0.633462       0.00000
  30     15.07       58.2387        0.7354       58.1367       58.8722       0.633462      -0.00000
  29     18.79       58.2089        0.8882       57.9542       58.8424       0.633462       0.00000
  28     23.16       58.1743        1.0659       57.7418       58.8077       0.633462       0.00000
  27     28.12       58.1348        1.2684       57.4998       58.7682       0.633462      -0.00000
  26     33.73       58.0907        1.4942       57.2300       58.7242       0.633462       0.00000
  25     40.54       58.0377        1.7658       56.9054       58.6711       0.633462      -0.00000
  24     48.69       57.9741        2.0915       56.5161       58.6076       0.633462      -0.00000
  23     57.69       57.9047        2.4470       56.0912       58.5382       0.633462       0.00000
  22     68.43       57.8226        2.8673       55.5888       58.4561       0.633462       0.00000
  21     81.20       57.7257        3.3637       54.9955       58.3591       0.633462      -0.00000
  20     96.49       57.6113        3.9488       54.2960       58.2448       0.633462       0.00000
  19     114.6       57.4772        4.6345       53.4762       58.1107       0.633462      -0.00000
  18     136.5       57.3207        5.4349       52.5193       57.9541       0.633462       0.00000
  17     162.9       57.1375        6.3704       51.4006       57.7710       0.633462       0.00000
  16     196.4       56.9053        7.5557       49.9831       57.5388       0.633462       0.00000
  15     218.7       56.7560        8.3173       49.0722       57.3895       0.633462       0.00000
  14     243.0       56.5965        9.1304       48.0995       57.2299       0.633462      -0.00000
  13     269.0       56.4268        9.9946       47.0657       57.0603       0.633462       0.00000
  12     297.5       56.2471       10.9089       45.9717       56.8806       0.633462      -0.00000
  11     328.5       56.0571       11.8748       44.8158       56.6906       0.633462      -0.00000
  10     361.9       55.8573       12.8899       43.6009       56.4907       0.633462       0.00000
   9     398.1       55.6475       13.9541       42.3268       56.2809       0.633462       0.00000
   8     437.6       55.4281       15.0655       40.9961       56.0616       0.633462      -0.00000
   7     480.5       55.1996       16.2217       39.6114       55.8331       0.633462      -0.00000
   6     533.0       54.9273       17.5969       37.9638       55.5608       0.633462       0.00000
   5     589.8       54.6445       19.0225       36.2554       55.2779       0.633462      -0.00000
   4     651.6       54.3524       20.4913       34.4945       54.9858       0.633462       0.00000
   3     718.7       54.0521       21.9974       32.6882       54.6855       0.633462      -0.00000
   2     792.3       53.7453       23.5310       30.8478       54.3788       0.633462      -0.00000
   1     891.5       53.3543       25.4785       28.5093       53.9878       0.633462       0.00000
   0    1013.0       52.9180       27.6398       25.9116       53.5514       0.633462       0.00000



 Wavenumbers: 29000. - 38000. cm-1, ATM      1
 LEVEL PRESSURE   UPWARD FLUX   DIFDOWN FLUX  DIRDOWN FLUX  DOWNWARD FLUX   NET FLUX    HEATING RATE
          mb          W/m2          W/m2          W/m2        W/m2          W/m2       degree/day
  51    .06700        8.7577        0.0000       20.8114       20.8114      12.053644       0.00000
  50    .07753        8.7575        0.0003       20.8070       20.8074      12.049835       3.05293
  49    .09103        8.7573        0.0007       20.8009       20.8016      12.044295       3.46242
  48    0.1069        8.7571        0.0012       20.7928       20.7939      12.036882       3.94609
  47    0.1255        8.7568        0.0017       20.7820       20.7837      12.026973       4.49240
  46    0.1487        8.7564        0.0024       20.7665       20.7688      12.012403       5.31089
  45    0.1794        8.7560        0.0033       20.7424       20.7457      11.989727       6.22494
  44    0.2165        8.7555        0.0044       20.7103       20.7147      11.959190       6.94669
  43    0.2613        8.7549        0.0056       20.6675       20.6731      11.918176       7.73104
  42    0.3336        8.7541        0.0077       20.5880       20.5957      11.841577       8.93067
  41    0.4307        8.7530        0.0104       20.4722       20.4826      11.729566       9.73907
  40    0.5894        8.7516        0.0147       20.2637       20.2784      11.526769      10.78448
  39     1.339        8.7492        0.0331       19.0984       19.1315      10.382353      12.88405
  38     1.782        8.7506        0.0427       18.4394       18.4821       9.731450      12.39215
  37     2.292        8.7322        0.0905       17.7124       17.8030       9.070717      10.94346
  36     2.964        8.7326        0.1130       16.9688       17.0818       8.349172       9.05757
  35     3.853        8.7425        0.1323       16.1906       16.3229       7.580360       7.29617
  34     5.035        8.7620        0.1530       15.4037       15.5566       6.794595       5.61318
  33     6.613        8.7918        0.1780       14.6413       14.8194       6.027578       4.10047
  32     8.786        8.8317        0.2105       13.9219       14.1324       5.300688       2.82298
  31     11.80        8.8841        0.2554       13.2158       13.4712       4.587076       1.99789
  30     15.07        8.9348        0.3028       12.6739       12.9767       4.041953       1.40740
  29     18.79        8.9872        0.3551       12.2040       12.5591       3.571961       1.06562
  28     23.16        9.0428        0.4152       11.7699       12.1852       3.142325       0.83078
  27     28.12        9.0998        0.4827       11.3701       11.8529       2.753015       0.66180
  26     33.73        9.1525        0.5574       11.0138       11.5712       2.418693       0.50266
  25     40.54        9.2024        0.6468       10.6672       11.3140       2.111616       0.38096
  24     48.69        9.2494        0.7531       10.3224       11.0755       1.826075       0.29549
  23     57.69        9.2880        0.8684       10.0048       10.8732       1.585173       0.22581
  22     68.43        9.3192        1.0037        9.6844       10.6881       1.368908       0.17001
  21     81.20        9.3340        1.1637        9.3667       10.5305       1.196462       0.11395
  20     96.49        9.3305        1.3520        9.0437       10.3957       1.065193       0.07245
  19     114.6        9.3167        1.5695        8.6956       10.2651       0.948349       0.05456
  18     136.5        9.2957        1.8183        8.3136       10.1319       0.836238       0.04311
  17     162.9        9.2674        2.1019        7.8920        9.9939       0.726472       0.03509
  16     196.4        9.2199        2.4540        7.3958        9.8498       0.629821       0.02433
  15     218.7        9.1858        2.6750        7.0936        9.7685       0.582705       0.01789
  14     243.0        9.1485        2.9060        6.7817        9.6877       0.539199       0.01509
  13     269.0        9.1076        3.1462        6.4616        9.6078       0.500136       0.01267
  12     297.5        9.0634        3.3944        6.1347        9.5291       0.465702       0.01021
  11     328.5        9.0172        3.6498        5.8001        9.4499       0.432736       0.00896
  10     361.9        8.9695        3.9099        5.4610        9.3709       0.401386       0.00793
   9     398.1        8.9204        4.1740        5.1180        9.2921       0.371679       0.00692
   8     437.6        8.8705        4.4407        4.7728        9.2135       0.343043       0.00612
   7     480.5        8.8200        4.7079        4.4280        9.1358       0.315863       0.00534
   6     533.0        8.7620        5.0124        4.0359        9.0482       0.286238       0.00477
   5     589.8        8.7048        5.3125        3.6498        8.9623       0.257559       0.00426
   4     651.6        8.6491        5.6054        3.2732        8.8786       0.229501       0.00384
   3     718.7        8.5956        5.8882        2.9095        8.7977       0.202022       0.00345
   2     792.3        8.5451        6.1583        2.5619        8.7202       0.175131       0.00308
   1     891.5        8.4870        6.4746        2.1543        8.6289       0.141934       0.00282
   0    1013.0        8.4311        6.7917        1.7446        8.5364       0.105272       0.00255



 Wavenumbers: 38000. - 50000. cm-1, ATM      1
 LEVEL PRESSURE   UPWARD FLUX   DIFDOWN FLUX  DIRDOWN FLUX  DOWNWARD FLUX   NET FLUX    HEATING RATE
          mb          W/m2          W/m2          W/m2        W/m2          W/m2       degree/day
  51    .06700        0.0075        0.0000        1.2836        1.2836       1.276155       0.00000
  50    .07753        0.0074        0.0001        1.2812        1.2812       1.273819       1.87245
  49    .09103        0.0073        0.0002        1.2777        1.2778       1.270486       2.08346
  48    0.1069        0.0073        0.0002        1.2731        1.2734       1.266105       2.33164
  47    0.1255        0.0072        0.0004        1.2672        1.2675       1.260348       2.61019
  46    0.1487        0.0071        0.0005        1.2586        1.2591       1.252018       3.03622
  45    0.1794        0.0069        0.0007        1.2455        1.2462       1.239245       3.50657
  44    0.2165        0.0068        0.0009        1.2282        1.2291       1.222312       3.85185
  43    0.2613        0.0066        0.0011        1.2054        1.2065       1.199955       4.21420
  42    0.3336        0.0063        0.0015        1.1639        1.1654       1.159116       4.76152
  41    0.4307        0.0059        0.0020        1.1051        1.1071       1.101133       5.04143
  40    0.5894        0.0054        0.0026        1.0039        1.0064       1.001048       5.32239
  39     1.339        0.0041        0.0035        0.5438        0.5473       0.543266       5.15380
  38     1.782        0.0039        0.0032        0.3635        0.3667       0.362734       3.43704
  37     2.292        0.0017        0.0045        0.2320        0.2365       0.234825       2.11851
  36     2.964        0.0010        0.0037        0.1426        0.1463       0.145252       1.12442
  35     3.853        0.0006        0.0027        0.0839        0.0866       0.085975       0.56255
  34     5.035        0.0004        0.0019        0.0477        0.0496       0.049164       0.26296
  33     6.613        0.0003        0.0013        0.0266        0.0279       0.027675       0.11488
  32     8.786        0.0002        0.0009        0.0140        0.0149       0.014775       0.05010
  31     11.80        0.0001        0.0005        0.0064        0.0069       0.006840       0.02222
  30     15.07        0.0000        0.0003        0.0030        0.0033       0.003302       0.00913
  29     18.79        0.0000        0.0002        0.0014        0.0016       0.001572       0.00392
  28     23.16        0.0000        0.0001        0.0006        0.0007       0.000716       0.00166
  27     28.12        0.0000        0.0001        0.0003        0.0003       0.000316       0.00068
  26     33.73        0.0000        0.0000        0.0001        0.0001       0.000139       0.00027
  25     40.54        0.0000        0.0000        0.0000        0.0001       0.000057       0.00010
  24     48.69        0.0000        0.0000        0.0000        0.0000       0.000021       0.00004
  23     57.69        0.0000        0.0000        0.0000        0.0000       0.000008       0.00001
  22     68.43        0.0000        0.0000        0.0000        0.0000       0.000003       0.00000
  21     81.20        0.0000        0.0000        0.0000        0.0000       0.000001       0.00000
  20     96.49        0.0000        0.0000        0.0000        0.0000       0.000000       0.00000
  19     114.6        0.0000        0.0000        0.0000        0.0000       0.000000       0.00000
  18     136.5        0.0000        0.0000        0.0000        0.0000       0.000000       0.00000
  17     162.9        0.0000        0.0000        0.0000        0.0000       0.000000       0.00000
  16     196.4        0.0000        0.0000        0.0000        0.0000       0.000000       0.00000
  15     218.7        0.0000        0.0000        0.0000        0.0000       0.000000       0.00000
  14     243.0        0.0000        0.0000        0.0000        0.0000       0.000000       0.00000
  13     269.0        0.0000        0.0000        0.0000        0.0000       0.000000       0.00000
  12     297.5        0.0000        0.0000        0.0000        0.0000       0.000000       0.00000
  11     328.5        0.0000        0.0000        0.0000        0.0000       0.000000       0.00000
  10     361.9        0.0000        0.0000        0.0000        0.0000       0.000000       0.00000
   9     398.1        0.0000        0.0000        0.0000        0.0000       0.000000       0.00000
   8     437.6        0.0000        0.0000        0.0000        0.0000       0.000000       0.00000
   7     480.5        0.0000        0.0000        0.0000        0.0000       0.000000       0.00000
   6     533.0        0.0000        0.0000        0.0000        0.0000       0.000000       0.00000
   5     589.8        0.0000        0.0000        0.0000        0.0000       0.000000       0.00000
   4     651.6        0.0000        0.0000        0.0000        0.0000       0.000000       0.00000
   3     718.7        0.0000        0.0000        0.0000        0.0000       0.000000       0.00000
   2     792.3        0.0000        0.0000        0.0000        0.0000       0.000000       0.00000
   1     891.5        0.0000        0.0000        0.0000        0.0000       0.000000       0.00000
   0    1013.0        0.0000        0.0000        0.0000        0.0000       0.000000       0.00000



 Wavenumbers:   820. -  2600. cm-1, ATM      1
 LEVEL PRESSURE   UPWARD FLUX   DIFDOWN FLUX  DIRDOWN FLUX  DOWNWARD FLUX   NET FLUX    HEATING RATE
          mb          W/m2          W/m2          W/m2        W/m2          W/m2       degree/day
  51    .06700        0.2968        0.0000        6.0047        6.0047       5.707815       0.00000
  50    .07753        0.2968        0.0000        6.0009        6.0009       5.704036       3.02937
  49    .09103        0.2968        0.0000        6.0001        6.0001       5.703246       0.49378
  48    0.1069        0.2968        0.0000        5.9992        5.9992       5.702371       0.46572
  47    0.1255        0.2968        0.0000        5.9982        5.9982       5.701390       0.44470
  46    0.1487        0.2968        0.0000        5.9970        5.9970       5.700212       0.42941
  45    0.1794        0.2968        0.0000        5.9956        5.9956       5.698745       0.40259
  44    0.2165        0.2968        0.0000        5.9940        5.9940       5.697213       0.34860
  43    0.2613        0.2968        0.0000        5.9925        5.9925       5.695634       0.29770
  42    0.3336        0.2968        0.0000        5.9902        5.9902       5.693404       0.25991
  41    0.4307        0.2968        0.0000        5.9877        5.9877       5.690816       0.22503
  40    0.5894        0.2968        0.0000        5.9836        5.9836       5.686784       0.21442
  39     1.339        0.2968        0.0000        5.9651        5.9651       5.668274       0.20839
  38     1.782        0.2968        0.0000        5.9549        5.9549       5.658057       0.19451
  37     2.292        0.3644        0.0000        1.1848        1.1848       0.820350      80.12505
  36     2.964        0.3894        0.0000        1.0865        1.0865       0.697127       1.54683
  35     3.853        0.4029        0.0000        1.0430        1.0430       0.640077       0.54141
  34     5.035        0.4110        0.0000        1.0193        1.0193       0.608362       0.22655
  33     6.613        0.4159        0.0000        1.0055        1.0055       0.589634       0.10012
  32     8.786        0.4189        0.0000        0.9974        0.9974       0.578472       0.04335
  31     11.80        0.4208        0.0000        0.9923        0.9923       0.571445       0.01967
  30     15.07        0.4218        0.0000        0.9896        0.9896       0.567745       0.00955
  29     18.79        0.4225        0.0000        0.9879        0.9879       0.565492       0.00511
  28     23.16        0.4229        0.0000        0.9868        0.9868       0.563920       0.00304
  27     28.12        0.4232        0.0000        0.9859        0.9859       0.562734       0.00202
  26     33.73        0.4235        0.0000        0.9853        0.9853       0.561821       0.00137
  25     40.54        0.4238        0.0000        0.9844        0.9844       0.560564       0.00156
  24     48.69        0.4241        0.0000        0.9836        0.9836       0.559492       0.00111
  23     57.69        0.4243        0.0000        0.9830        0.9830       0.558650       0.00079
  22     68.43        0.4245        0.0000        0.9825        0.9825       0.557928       0.00057
  21     81.20        0.4247        0.0000        0.9820        0.9820       0.557308       0.00041
  20     96.49        0.4249        0.0000        0.9816        0.9816       0.556766       0.00030
  19     114.6        0.4250        0.0000        0.9813        0.9813       0.556339       0.00020
  18     136.5        0.4251        0.0000        0.9810        0.9810       0.555891       0.00017
  17     162.9        0.4252        0.0000        0.9807        0.9807       0.555473       0.00013
  16     196.4        0.4253        0.0000        0.9804        0.9804       0.555060       0.00010
  15     218.7        0.4254        0.0000        0.9802        0.9802       0.554790       0.00010
  14     243.0        0.4255        0.0000        0.9800        0.9801       0.554574       0.00007
  13     269.0        0.4256        0.0000        0.9798        0.9798       0.554283       0.00009
  12     297.5        0.4257        0.0000        0.9795        0.9795       0.553826       0.00014
  11     328.5        0.4259        0.0000        0.9790        0.9790       0.553099       0.00020
  10     361.9        0.4262        0.0000        0.9781        0.9781       0.551903       0.00030
   9     398.1        0.4268        0.0000        0.9768        0.9768       0.550002       0.00044
   8     437.6        0.4276        0.0000        0.9747        0.9747       0.547125       0.00061
   7     480.5        0.4288        0.0000        0.9716        0.9716       0.542824       0.00084
   6     533.0        0.4311        0.0000        0.9660        0.9660       0.534961       0.00126
   5     589.8        0.4346        0.0000        0.9573        0.9573       0.522643       0.00183
   4     651.6        0.4408        0.0000        0.9425        0.9425       0.501731       0.00286
   3     718.7        0.4503        0.0000        0.9205        0.9205       0.470139       0.00397
   2     792.3        0.4648        0.0000        0.8890        0.8891       0.424279       0.00526
   1     891.5        0.4929        0.0000        0.8331        0.8331       0.340186       0.00716
   0    1013.0        0.5405        0.0000        0.7526        0.7527       0.212171       0.00889

  Modules and versions used in this calculation:

       rrtmg_sw.1col.f90:  $Revision$                    rrtmg_sw_init.f90:  $Revision$        
     rrtmgsw_cldprop.f90:  $Revision$                  rrtmgsw_cldprmc.f90:  NOT USED          
     rrtmg_sw_reftra.f90:  $Revision$                  rrtmg_sw_spcvrt.f90:  NOT USED          
     rrtmg_sw_spcvmc.f90:  NOT USED                    rrtmgsw_setcoef.f90:  NOT USED          
     rrtmg_sw_taumol.f90:  $Revision$                  rrtmg_sw_vrtqdr.f90:  NOT USED          
                rrtatm.f:  NOT USED                             util_xxx.f:  NOT USED          
                 extra.f:  NOT USED                       rrtmg_sw_k_g.f90:  $Revision$        

