

 Wavenumbers:   820. - 50000. cm-1, ATM      1
 LEVEL PRESSURE   UPWARD FLUX   DIFDOWN FLUX  DIRDOWN FLUX  DOWNWARD FLUX   NET FLUX    HEATING RATE
          mb          W/m2          W/m2          W/m2        W/m2          W/m2       degree/day
  51    .06700      394.1547        0.0000      617.8126      617.8126     223.657859       0.00000
  50    .07753      394.1543        0.0013      617.7948      617.7962     223.641844      12.83581
  49    .09103      394.1539        0.0030      617.7782      617.7812     223.627302       9.08961
  48    0.1069      394.1534        0.0050      617.7588      617.7638     223.610395       8.99931
  47    0.1255      394.1529        0.0072      617.7352      617.7424     223.589472       9.48547
  46    0.1487      394.1523        0.0100      617.7026      617.7126     223.560326      10.62397
  45    0.1794      394.1516        0.0139      617.6545      617.6684     223.516828      11.94132
  44    0.2165      394.1508        0.0184      617.5928      617.6112     223.460381      12.84079
  43    0.2613      394.1501        0.0237      617.5133      617.5370     223.386931      13.84488
  42    0.3336      394.1492        0.0325      617.3703      617.4029     223.253673      15.53659
  41    0.4307      394.1485        0.0441      617.1679      617.2120     223.063546      16.53118
  40    0.5894      394.1482        0.0628      616.8134      616.8763     222.728019      17.84287
  39     1.339      394.1656        0.1474      614.9754      615.1228     220.957215      19.93604
  38     1.782      394.1887        0.1950      614.0075      614.2026     220.013819      17.96073
  37     2.292      394.2514        0.4066      596.1896      596.5962     202.344877     292.64378
  36     2.964      394.3292        0.5248      593.6332      594.1580     199.828785      31.58456
  35     3.853      394.4467        0.6397      591.7225      592.3622     197.915488      18.15754
  34     5.035      394.6206        0.7730      590.0040      590.7770     196.156455      12.56580
  33     6.613      394.8617        0.9405      588.3456      589.2861     194.424354       9.25981
  32     8.786      395.1735        1.1598      586.6762      587.8360     192.662465       6.84254
  31     11.80      395.5756        1.4686      584.8466      586.3152     190.739611       5.38338
  30     15.07      395.9572        1.7975      583.2533      585.0507     189.093546       4.24982
  29     18.79      396.3439        2.1667      581.7066      583.8733     187.529358       3.54650
  28     23.16      396.7446        2.5958      580.1139      582.7098     185.965113       3.02474
  27     28.12      397.1434        3.0843      578.4857      581.5700     184.426550       2.61545
  26     33.73      397.5029        3.6290      576.8756      580.5046     183.001777       2.14218
  25     40.54      397.8361        4.2851      575.1109      579.3960     181.559913       1.78880
  24     48.69      398.1398        5.0725      573.1954      578.2678     180.128057       1.48175
  23     57.69      398.3781        5.9332      571.2858      577.2189     178.840797       1.20661
  22     68.43      398.5588        6.9529      569.2134      576.1663     177.607486       0.96955
  21     81.20      398.6305        8.1620      566.9972      575.1591     176.528661       0.71287
  20     96.49      398.5828        9.5936      564.5918      574.1855     175.602609       0.51111
  19     114.6      398.4805       11.2778      561.6200      572.8978     174.417228       0.55349
  18     136.5      398.3137       13.2496      558.3011      571.5508     173.237073       0.45380
  17     162.9      398.0751       15.5637      554.5458      570.1095     172.034390       0.38443
  16     196.4      397.6766       18.5153      549.9107      568.4261     170.749415       0.32344
  15     218.7      397.3865       20.4232      546.8124      567.2356     169.849102       0.34182
  14     243.0      397.0595       22.4696      543.5260      565.9956     168.936092       0.31666
  13     269.0      396.6969       24.6561      539.8025      564.4586     167.761643       0.38099
  12     297.5      396.3004       26.9834      535.5152      562.4986     166.198232       0.46369
  11     328.5      395.8798       29.4575      530.4943      559.9519     164.072054       0.57810
  10     361.9      395.4410       32.0745      524.5481      556.6226     161.181586       0.73132
   9     398.1      394.9914       34.8387      517.4907      552.3294     157.337947       0.89548
   8     437.6      394.5460       37.7485      509.2193      546.9678     152.421743       1.05111
   7     480.5      394.1236       40.8019      499.7560      540.5579     146.434209       1.17593
   6     533.0      393.7065       44.4713      487.6795      532.1508     138.444228       1.28533
   5     589.8      393.4210       48.3203      474.6179      522.9382     129.517264       1.32505
   4     651.6      393.3620       52.3392      460.7301      513.0694     119.707368       1.34153
   3     718.7      393.6397       56.5195      446.4025      502.9220     109.282304       1.31014
   2     792.3      394.4749       60.8439      431.4855      492.3294      97.854543       1.31064
   1     891.5      396.7562       66.4430      412.2767      478.7197      81.963554       1.35225
   0    1013.0      401.9231       72.8307      391.2209      464.0516      62.128528       1.37725



 Wavenumbers:  2600. -  3250. cm-1, ATM      1
 LEVEL PRESSURE   UPWARD FLUX   DIFDOWN FLUX  DIRDOWN FLUX  DOWNWARD FLUX   NET FLUX    HEATING RATE
          mb          W/m2          W/m2          W/m2        W/m2          W/m2       degree/day
  51    .06700        1.1703        0.0000        5.4450        5.4450       4.274774       0.00000
  50    .07753        1.1703        0.0000        5.4450        5.4450       4.274766       0.00640
  49    .09103        1.1703        0.0000        5.4450        5.4450       4.274756       0.00627
  48    0.1069        1.1703        0.0000        5.4450        5.4450       4.274744       0.00613
  47    0.1255        1.1703        0.0000        5.4450        5.4450       4.274731       0.00599
  46    0.1487        1.1703        0.0000        5.4450        5.4450       4.274715       0.00608
  45    0.1794        1.1703        0.0000        5.4450        5.4450       4.274692       0.00625
  44    0.2165        1.1703        0.0000        5.4449        5.4449       4.274665       0.00612
  43    0.2613        1.1703        0.0000        5.4449        5.4449       4.274633       0.00600
  42    0.3336        1.1703        0.0000        5.4448        5.4448       4.274580       0.00617
  41    0.4307        1.1703        0.0000        5.4448        5.4448       4.274509       0.00620
  40    0.5894        1.1703        0.0000        5.4446        5.4446       4.274389       0.00637
  39     1.339        1.1703        0.0000        5.4439        5.4439       4.273682       0.00797
  38     1.782        1.1703        0.0000        5.4434        5.4434       4.273139       0.01034
  37     2.292        1.1703        0.0000        5.4427        5.4427       4.272423       0.01186
  36     2.964        1.1703        0.0000        5.4416        5.4416       4.271384       0.01304
  35     3.853        1.1703        0.0000        5.4402        5.4402       4.269907       0.01402
  34     5.035        1.1703        0.0000        5.4381        5.4381       4.267851       0.01468
  33     6.613        1.1703        0.0000        5.4353        5.4353       4.265070       0.01487
  32     8.786        1.1703        0.0000        5.4317        5.4317       4.261438       0.01411
  31     11.80        1.1703        0.0000        5.4269        5.4269       4.256657       0.01338
  30     15.07        1.1703        0.0000        5.4224        5.4224       4.252130       0.01169
  29     18.79        1.1703        0.0000        5.4180        5.4180       4.247717       0.01001
  28     23.16        1.1703        0.0000        5.4135        5.4135       4.243229       0.00868
  27     28.12        1.1703        0.0000        5.4088        5.4088       4.238579       0.00790
  26     33.73        1.1703        0.0000        5.4036        5.4036       4.233336       0.00788
  25     40.54        1.1703        0.0000        5.3966        5.3967       4.226389       0.00862
  24     48.69        1.1703        0.0000        5.3872        5.3872       4.216904       0.00982
  23     57.69        1.1703        0.0000        5.3754        5.3754       4.205109       0.01106
  22     68.43        1.1703        0.0000        5.3599        5.3599       4.189605       0.01219
  21     81.20        1.1703        0.0000        5.3401        5.3401       4.169748       0.01312
  20     96.49        1.1704        0.0000        5.3155        5.3155       4.145147       0.01358
  19     114.6        1.1706        0.0000        5.2626        5.2626       4.092047       0.02479
  18     136.5        1.1708        0.0001        5.2102        5.2102       4.039374       0.02025
  17     162.9        1.1712        0.0001        5.1590        5.1590       3.987865       0.01646
  16     196.4        1.1717        0.0001        5.1036        5.1036       3.931971       0.01407
  15     218.7        1.1721        0.0001        5.0663        5.0664       3.894276       0.01431
  14     243.0        1.1726        0.0001        5.0307        5.0307       3.858106       0.01255
  13     269.0        1.1734        0.0001        4.9889        4.9890       3.815585       0.01379
  12     297.5        1.1744        0.0001        4.9380        4.9381       3.763702       0.01539
  11     328.5        1.1759        0.0001        4.8735        4.8736       3.697760       0.01793
  10     361.9        1.1779        0.0001        4.7887        4.7888       3.610912       0.02197
   9     398.1        1.1808        0.0002        4.6756        4.6758       3.494982       0.02701
   8     437.6        1.1848        0.0002        4.5267        4.5269       3.342080       0.03269
   7     480.5        1.1905        0.0002        4.3411        4.3412       3.150750       0.03758
   6     533.0        1.2000        0.0002        4.0894        4.0896       2.889611       0.04201
   5     589.8        1.2141        0.0002        3.8183        3.8185       2.604395       0.04234
   4     651.6        1.2348        0.0002        3.5382        3.5384       2.303542       0.04114
   3     718.7        1.2650        0.0002        3.2501        3.2503       1.985278       0.04000
   2     792.3        1.3097        0.0002        2.9464        2.9466       1.636926       0.03995
   1     891.5        1.3972        0.0002        2.5653        2.5655       1.168328       0.03988
   0    1013.0        1.5674        0.0002        2.1824        2.1826       0.615270       0.03840



 Wavenumbers:  3250. -  4000. cm-1, ATM      1
 LEVEL PRESSURE   UPWARD FLUX   DIFDOWN FLUX  DIRDOWN FLUX  DOWNWARD FLUX   NET FLUX    HEATING RATE
          mb          W/m2          W/m2          W/m2        W/m2          W/m2       degree/day
  51    .06700        0.0006        0.0000        9.1795        9.1795       9.178978       0.00000
  50    .07753        0.0006        0.0000        9.1747        9.1747       9.174108       3.90287
  49    .09103        0.0006        0.0000        9.1713        9.1713       9.170789       2.07467
  48    0.1069        0.0006        0.0000        9.1689        9.1689       9.168382       1.28112
  47    0.1255        0.0006        0.0000        9.1668        9.1668       9.166262       0.96122
  46    0.1487        0.0006        0.0000        9.1645        9.1645       9.163990       0.82829
  45    0.1794        0.0006        0.0000        9.1619        9.1619       9.161320       0.73288
  44    0.2165        0.0006        0.0000        9.1592        9.1592       9.158631       0.61167
  43    0.2613        0.0006        0.0000        9.1565        9.1565       9.155934       0.50841
  42    0.3336        0.0006        0.0000        9.1528        9.1528       9.152237       0.43101
  41    0.4307        0.0006        0.0000        9.1487        9.1487       9.148139       0.35634
  40    0.5894        0.0006        0.0000        9.1428        9.1428       9.142247       0.31334
  39     1.339        0.0006        0.0000        9.1196        9.1196       9.119064       0.26099
  38     1.782        0.0006        0.0000        9.1090        9.1090       9.108481       0.20149
  37     2.292        0.0006        0.0000        5.4999        5.4999       5.499297      59.77751
  36     2.964        0.0006        0.0000        5.1298        5.1298       5.129214       4.64565
  35     3.853        0.0006        0.0000        4.9366        4.9366       4.936073       1.83294
  34     5.035        0.0006        0.0000        4.8100        4.8100       4.809454       0.90452
  33     6.613        0.0006        0.0000        4.7198        4.7198       4.719199       0.48250
  32     8.786        0.0006        0.0000        4.6528        4.6528       4.652202       0.26019
  31     11.80        0.0006        0.0000        4.5993        4.5993       4.598695       0.14980
  30     15.07        0.0006        0.0000        4.5636        4.5636       4.563029       0.09208
  29     18.79        0.0006        0.0000        4.5364        4.5365       4.535889       0.06153
  28     23.16        0.0006        0.0000        4.5129        4.5129       4.512324       0.04557
  27     28.12        0.0006        0.0000        4.4908        4.4908       4.490253       0.03752
  26     33.73        0.0006        0.0000        4.4697        4.4698       4.469209       0.03164
  25     40.54        0.0006        0.0000        4.4369        4.4369       4.436360       0.04075
  24     48.69        0.0005        0.0000        4.4026        4.4027       4.402134       0.03542
  23     57.69        0.0005        0.0000        4.3699        4.3699       4.369362       0.03072
  22     68.43        0.0005        0.0000        4.3367        4.3367       4.336201       0.02607
  21     81.20        0.0005        0.0001        4.3030        4.3031       4.302522       0.02225
  20     96.49        0.0005        0.0001        4.2680        4.2681       4.267571       0.01929
  19     114.6        0.0005        0.0001        4.2285        4.2286       4.228059       0.01845
  18     136.5        0.0005        0.0001        4.1832        4.1833       4.182783       0.01741
  17     162.9        0.0005        0.0001        4.1312        4.1314       4.130873       0.01659
  16     196.4        0.0005        0.0001        4.0600        4.0601       4.059636       0.01793
  15     218.7        0.0004        0.0001        3.9862        3.9864       3.985928       0.02798
  14     243.0        0.0004        0.0002        3.9071        3.9073       3.906845       0.02743
  13     269.0        0.0004        0.0002        3.7850        3.7852       3.784796       0.03959
  12     297.5        0.0004        0.0002        3.6083        3.6085       3.608093       0.05241
  11     328.5        0.0004        0.0002        3.3727        3.3729       3.372509       0.06405
  10     361.9        0.0004        0.0002        3.0824        3.0826       3.082242       0.07344
   9     398.1        0.0004        0.0002        2.7495        2.7496       2.749279       0.07757
   8     437.6        0.0004        0.0002        2.3947        2.3949       2.394514       0.07585
   7     480.5        0.0004        0.0002        2.0284        2.0286       2.028222       0.07194
   6     533.0        0.0004        0.0001        1.6125        1.6126       1.612239       0.06692
   5     589.8        0.0004        0.0001        1.2126        1.2127       1.212278       0.05937
   4     651.6        0.0005        0.0001        0.8390        0.8391       0.838652       0.05109
   3     718.7        0.0007        0.0001        0.5350        0.5351       0.534415       0.03823
   2     792.3        0.0011        0.0000        0.2997        0.2997       0.298647       0.02704
   1     891.5        0.0027        0.0000        0.1059        0.1059       0.103177       0.01663
   0    1013.0        0.0133        0.0000        0.0185        0.0185       0.005223       0.00680



 Wavenumbers:  4000. -  4650. cm-1, ATM      1
 LEVEL PRESSURE   UPWARD FLUX   DIFDOWN FLUX  DIRDOWN FLUX  DOWNWARD FLUX   NET FLUX    HEATING RATE
          mb          W/m2          W/m2          W/m2        W/m2          W/m2       degree/day
  51    .06700        4.6059        0.0000       10.7795       10.7795       6.173644       0.00000
  50    .07753        4.6059        0.0000       10.7795       10.7795       6.173643       0.00080
  49    .09103        4.6059        0.0000       10.7795       10.7795       6.173642       0.00078
  48    0.1069        4.6059        0.0000       10.7795       10.7795       6.173641       0.00076
  47    0.1255        4.6059        0.0000       10.7795       10.7795       6.173639       0.00075
  46    0.1487        4.6059        0.0000       10.7795       10.7795       6.173637       0.00076
  45    0.1794        4.6059        0.0000       10.7795       10.7795       6.173634       0.00078
  44    0.2165        4.6059        0.0000       10.7795       10.7795       6.173631       0.00076
  43    0.2613        4.6059        0.0000       10.7795       10.7795       6.173627       0.00075
  42    0.3336        4.6059        0.0000       10.7795       10.7795       6.173620       0.00077
  41    0.4307        4.6059        0.0000       10.7795       10.7795       6.173611       0.00077
  40    0.5894        4.6059        0.0000       10.7795       10.7795       6.173596       0.00079
  39     1.339        4.6059        0.0000       10.7794       10.7794       6.173507       0.00100
  38     1.782        4.6059        0.0000       10.7793       10.7793       6.173438       0.00133
  37     2.292        4.6059        0.0000       10.7792       10.7792       6.173344       0.00155
  36     2.964        4.6059        0.0000       10.7791       10.7791       6.173204       0.00176
  35     3.853        4.6059        0.0000       10.7789       10.7789       6.172997       0.00197
  34     5.035        4.6059        0.0000       10.7785       10.7786       6.172691       0.00219
  33     6.613        4.6059        0.0000       10.7781       10.7781       6.172240       0.00241
  32     8.786        4.6059        0.0001       10.7774       10.7774       6.171575       0.00258
  31     11.80        4.6059        0.0001       10.7763       10.7764       6.170531       0.00292
  30     15.07        4.6059        0.0001       10.7751       10.7752       6.169306       0.00316
  29     18.79        4.6059        0.0001       10.7736       10.7737       6.167824       0.00336
  28     23.16        4.6059        0.0001       10.7717       10.7718       6.165984       0.00356
  27     28.12        4.6058        0.0001       10.7695       10.7696       6.163758       0.00379
  26     33.73        4.6058        0.0002       10.7667       10.7669       6.161012       0.00413
  25     40.54        4.6059        0.0002       10.7629       10.7631       6.157289       0.00462
  24     48.69        4.6059        0.0002       10.7580       10.7582       6.152328       0.00513
  23     57.69        4.6059        0.0003       10.7521       10.7523       6.146449       0.00551
  22     68.43        4.6059        0.0003       10.7447       10.7450       6.139081       0.00579
  21     81.20        4.6060        0.0004       10.7356       10.7360       6.130011       0.00599
  20     96.49        4.6061        0.0004       10.7246       10.7251       6.118976       0.00609
  19     114.6        4.6066        0.0005       10.6983       10.6988       6.092274       0.01247
  18     136.5        4.6072        0.0006       10.6719       10.6725       6.065380       0.01034
  17     162.9        4.6080        0.0007       10.6437       10.6444       6.036432       0.00925
  16     196.4        4.6092        0.0009       10.6082       10.6091       5.999869       0.00920
  15     218.7        4.6103        0.0010       10.5813       10.5823       5.972009       0.01058
  14     243.0        4.6116        0.0011       10.5525       10.5536       5.942024       0.01040
  13     269.0        4.6134        0.0012       10.5158       10.5170       5.903611       0.01246
  12     297.5        4.6159        0.0013       10.4678       10.4691       5.853199       0.01495
  11     328.5        4.6195        0.0015       10.4030       10.4045       5.785001       0.01854
  10     361.9        4.6240        0.0016       10.3158       10.3174       5.693386       0.02318
   9     398.1        4.6298        0.0017       10.2005       10.2023       5.572480       0.02817
   8     437.6        4.6373        0.0019       10.0556       10.0575       5.420217       0.03255
   7     480.5        4.6470        0.0021        9.8860        9.8880       5.241038       0.03519
   6     533.0        4.6622        0.0022        9.6705        9.6727       5.010498       0.03709
   5     589.8        4.6841        0.0024        9.4240        9.4264       4.742269       0.03981
   4     651.6        4.7164        0.0026        9.1160        9.1186       4.402215       0.04650
   3     718.7        4.7632        0.0028        8.7442        8.7470       3.983773       0.05259
   2     792.3        4.8324        0.0030        8.3258        8.3288       3.496366       0.05590
   1     891.5        4.9668        0.0032        7.8010        7.8042       2.837371       0.05608
   0    1013.0        5.2191        0.0034        7.2641        7.2675       2.048452       0.05478



 Wavenumbers:  4650. -  5150. cm-1, ATM      1
 LEVEL PRESSURE   UPWARD FLUX   DIFDOWN FLUX  DIRDOWN FLUX  DOWNWARD FLUX   NET FLUX    HEATING RATE
          mb          W/m2          W/m2          W/m2        W/m2          W/m2       degree/day
  51    .06700        3.1938        0.0000       10.2033       10.2033       7.009573       0.00000
  50    .07753        3.1938        0.0000       10.2031       10.2031       7.009337       0.18913
  49    .09103        3.1938        0.0000       10.2028       10.2028       7.009042       0.18440
  48    0.1069        3.1938        0.0000       10.2025       10.2025       7.008705       0.17942
  47    0.1255        3.1938        0.0000       10.2021       10.2021       7.008320       0.17436
  46    0.1487        3.1938        0.0000       10.2016       10.2016       7.007839       0.17547
  45    0.1794        3.1938        0.0000       10.2010       10.2010       7.007188       0.17861
  44    0.2165        3.1938        0.0000       10.2002       10.2002       7.006428       0.17288
  43    0.2613        3.1938        0.0000       10.1993       10.1993       7.005542       0.16700
  42    0.3336        3.1938        0.0000       10.1979       10.1979       7.004109       0.16712
  41    0.4307        3.1938        0.0000       10.1960       10.1960       7.002267       0.16012
  40    0.5894        3.1938        0.0000       10.1932       10.1932       6.999392       0.15292
  39     1.339        3.1938        0.0000       10.1815       10.1816       6.987793       0.13058
  38     1.782        3.1938        0.0000       10.1760       10.1760       6.982261       0.10532
  37     2.292        3.1938        0.0000       10.1705       10.1706       6.976801       0.09043
  36     2.964        3.1938        0.0000       10.1646       10.1646       6.970875       0.07440
  35     3.853        3.1937        0.0000       10.1584       10.1584       6.964657       0.05901
  34     5.035        3.1937        0.0000       10.1520       10.1521       6.958317       0.04529
  33     6.613        3.1937        0.0001       10.1455       10.1456       6.951856       0.03454
  32     8.786        3.1937        0.0001       10.1385       10.1386       6.944841       0.02724
  31     11.80        3.1937        0.0001       10.1294       10.1295       6.935795       0.02533
  30     15.07        3.1937        0.0001       10.1195       10.1196       6.925910       0.02552
  29     18.79        3.1937        0.0001       10.1075       10.1076       6.913893       0.02724
  28     23.16        3.1938        0.0002       10.0922       10.0923       6.898577       0.02962
  27     28.12        3.1938        0.0002       10.0730       10.0732       6.879466       0.03249
  26     33.73        3.1938        0.0002       10.0499       10.0502       6.856351       0.03475
  25     40.54        3.1939        0.0003       10.0200       10.0203       6.826417       0.03714
  24     48.69        3.1939        0.0003        9.9818        9.9822       6.788204       0.03955
  23     57.69        3.1941        0.0004        9.9383        9.9387       6.744612       0.04086
  22     68.43        3.1942        0.0005        9.8856        9.8860       6.691809       0.04151
  21     81.20        3.1944        0.0005        9.8232        9.8238       6.629322       0.04129
  20     96.49        3.1948        0.0006        9.7515        9.7521       6.557376       0.03971
  19     114.6        3.1954        0.0007        9.6664        9.6671       6.471758       0.03998
  18     136.5        3.1962        0.0009        9.5760        9.5768       6.380656       0.03503
  17     162.9        3.1973        0.0010        9.4808        9.4818       6.284529       0.03073
  16     196.4        3.1989        0.0012        9.3712        9.3724       6.173513       0.02794
  15     218.7        3.2003        0.0014        9.3016        9.3030       6.102635       0.02691
  14     243.0        3.2020        0.0015        9.2282        9.2297       6.027648       0.02601
  13     269.0        3.2043        0.0017        9.1450        9.1467       5.942370       0.02766
  12     297.5        3.2075        0.0018        9.0479        9.0497       5.842246       0.02970
  11     328.5        3.2116        0.0020        8.9343        8.9363       5.724760       0.03194
  10     361.9        3.2170        0.0022        8.7986        8.8007       5.583728       0.03568
   9     398.1        3.2242        0.0023        8.6370        8.6393       5.415132       0.03928
   8     437.6        3.2337        0.0025        8.4435        8.4460       5.212314       0.04336
   7     480.5        3.2463        0.0027        8.2147        8.2174       4.971097       0.04737
   6     533.0        3.2660        0.0029        7.9094        7.9123       4.646376       0.05224
   5     589.8        3.2934        0.0031        7.5631        7.5662       4.272797       0.05545
   4     651.6        3.3321        0.0033        7.1855        7.1888       3.856718       0.05690
   3     718.7        3.3867        0.0035        6.7928        6.7963       3.409605       0.05619
   2     792.3        3.4637        0.0037        6.3973        6.4010       2.937274       0.05417
   1     891.5        3.6077        0.0039        5.9067        5.9106       2.302909       0.05398
   0    1013.0        3.8663        0.0041        5.3796        5.3837       1.517352       0.05455



 Wavenumbers:  5150. -  6150. cm-1, ATM      1
 LEVEL PRESSURE   UPWARD FLUX   DIFDOWN FLUX  DIRDOWN FLUX  DOWNWARD FLUX   NET FLUX    HEATING RATE
          mb          W/m2          W/m2          W/m2        W/m2          W/m2       degree/day
  51    .06700        8.1401        0.0000       25.5798       25.5798      17.439725       0.00000
  50    .07753        8.1401        0.0000       25.5798       25.5798      17.439725       0.00021
  49    .09103        8.1401        0.0000       25.5798       25.5798      17.439725       0.00021
  48    0.1069        8.1401        0.0000       25.5798       25.5798      17.439724       0.00020
  47    0.1255        8.1401        0.0000       25.5798       25.5798      17.439724       0.00020
  46    0.1487        8.1401        0.0000       25.5798       25.5798      17.439723       0.00020
  45    0.1794        8.1401        0.0000       25.5798       25.5798      17.439722       0.00021
  44    0.2165        8.1401        0.0000       25.5798       25.5798      17.439722       0.00020
  43    0.2613        8.1401        0.0000       25.5798       25.5798      17.439720       0.00020
  42    0.3336        8.1401        0.0000       25.5798       25.5798      17.439719       0.00021
  41    0.4307        8.1401        0.0000       25.5798       25.5798      17.439716       0.00021
  40    0.5894        8.1401        0.0000       25.5798       25.5798      17.439712       0.00021
  39     1.339        8.1401        0.0000       25.5797       25.5798      17.439688       0.00027
  38     1.782        8.1401        0.0001       25.5797       25.5797      17.439669       0.00036
  37     2.292        8.1424        0.0001       22.4461       22.4462      14.303800      51.93818
  36     2.964        8.1434        0.0001       22.0395       22.0396      13.896227       5.11627
  35     3.853        8.1441        0.0002       21.8235       21.8236      13.679517       2.05661
  34     5.035        8.1447        0.0002       21.6834       21.6836      13.538969       1.00402
  33     6.613        8.1451        0.0002       21.5852       21.5854      13.440342       0.52726
  32     8.786        8.1455        0.0003       21.5136       21.5139      13.368424       0.27930
  31     11.80        8.1458        0.0004       21.4573       21.4577      13.311882       0.15830
  30     15.07        8.1460        0.0005       21.4204       21.4209      13.274882       0.09553
  29     18.79        8.1462        0.0006       21.3930       21.3935      13.247361       0.06240
  28     23.16        8.1464        0.0007       21.3699       21.3705      13.224156       0.04487
  27     28.12        8.1465        0.0008       21.3489       21.3497      13.203121       0.03576
  26     33.73        8.1467        0.0009       21.3295       21.3304      13.183697       0.02920
  25     40.54        8.1471        0.0011       21.2980       21.2991      13.152030       0.03929
  24     48.69        8.1475        0.0013       21.2657       21.2671      13.119581       0.03358
  23     57.69        8.1479        0.0016       21.2356       21.2372      13.089264       0.02842
  22     68.43        8.1484        0.0018       21.2052       21.2070      13.058565       0.02413
  21     81.20        8.1490        0.0022       21.1744       21.1766      13.027529       0.02051
  20     96.49        8.1497        0.0026       21.1431       21.1457      12.995998       0.01740
  19     114.6        8.1505        0.0030       21.1089       21.1119      12.961434       0.01614
  18     136.5        8.1515        0.0036       21.0705       21.0741      12.922631       0.01492
  17     162.9        8.1526        0.0042       21.0287       21.0329      12.880373       0.01351
  16     196.4        8.1539        0.0051       20.9749       20.9800      12.826038       0.01368
  15     218.7        8.1549        0.0057       20.9212       20.9268      12.771954       0.02053
  14     243.0        8.1559        0.0063       20.8625       20.8688      12.712909       0.02048
  13     269.0        8.1571        0.0069       20.7634       20.7703      12.613220       0.03234
  12     297.5        8.1586        0.0076       20.5978       20.6054      12.446835       0.04935
  11     328.5        8.1605        0.0083       20.3336       20.3419      12.181442       0.07216
  10     361.9        8.1630        0.0090       19.9321       19.9411      11.778124       0.10204
   9     398.1        8.1664        0.0097       19.3647       19.3744      11.208004       0.13283
   8     437.6        8.1711        0.0103       18.6306       18.6409      10.469844       0.15782
   7     480.5        8.1775        0.0109       17.7766       17.7875       9.609959       0.16888
   6     533.0        8.1885        0.0116       16.7609       16.7725       8.583984       0.16505
   5     589.8        8.2055        0.0123       15.8251       15.8374       7.631946       0.14131
   4     651.6        8.2325        0.0131       15.0248       15.0379       6.805416       0.11303
   3     718.7        8.2745        0.0139       14.3738       14.3878       6.113264       0.08698
   2     792.3        8.3419        0.0149       13.7862       13.8010       5.459117       0.07502
   1     891.5        8.4875        0.0161       13.0441       13.0602       4.572672       0.07543
   0    1013.0        8.8123        0.0175       12.2523       12.2698       3.457529       0.07743



 Wavenumbers:  6150. -  7700. cm-1, ATM      1
 LEVEL PRESSURE   UPWARD FLUX   DIFDOWN FLUX  DIRDOWN FLUX  DOWNWARD FLUX   NET FLUX    HEATING RATE
          mb          W/m2          W/m2          W/m2        W/m2          W/m2       degree/day
  51    .06700       12.1769        0.0000       47.3109       47.3109      35.133931       0.00000
  50    .07753       12.1769        0.0000       47.3108       47.3108      35.133915       0.01303
  49    .09103       12.1769        0.0000       47.3108       47.3108      35.133894       0.01277
  48    0.1069       12.1769        0.0000       47.3108       47.3108      35.133871       0.01250
  47    0.1255       12.1769        0.0000       47.3108       47.3108      35.133844       0.01223
  46    0.1487       12.1769        0.0000       47.3107       47.3107      35.133810       0.01241
  45    0.1794       12.1769        0.0000       47.3107       47.3107      35.133763       0.01276
  44    0.2165       12.1769        0.0000       47.3106       47.3106      35.133708       0.01252
  43    0.2613       12.1769        0.0000       47.3105       47.3106      35.133643       0.01228
  42    0.3336       12.1769        0.0000       47.3104       47.3104      35.133535       0.01256
  41    0.4307       12.1769        0.0000       47.3102       47.3103      35.133392       0.01242
  40    0.5894       12.1769        0.0001       47.3100       47.3100      35.133159       0.01240
  39     1.339       12.1768        0.0002       47.3087       47.3089      35.132058       0.01240
  38     1.782       12.1768        0.0002       47.3080       47.3082      35.131412       0.01230
  37     2.292       12.1786        0.0004       42.0964       42.0968      29.918158      86.34508
  36     2.964       12.1796        0.0005       41.4820       41.4825      29.302988       7.72224
  35     3.853       12.1802        0.0007       41.1561       41.1567      28.976550       3.09796
  34     5.035       12.1806        0.0008       40.9477       40.9485      28.767881       1.49064
  33     6.613       12.1809        0.0010       40.8037       40.8047      28.623734       0.77061
  32     8.786       12.1811        0.0012       40.7003       40.7015      28.520374       0.40141
  31     11.80       12.1811        0.0015       40.6204       40.6219      28.440797       0.22279
  30     15.07       12.1810        0.0019       40.5690       40.5709      28.389813       0.13163
  29     18.79       12.1809        0.0023       40.5312       40.5335      28.352643       0.08427
  28     23.16       12.1807        0.0028       40.4998       40.5026      28.321887       0.05947
  27     28.12       12.1804        0.0033       40.4716       40.4749      28.294519       0.04652
  26     33.73       12.1801        0.0039       40.4461       40.4500      28.269907       0.03701
  25     40.54       12.1798        0.0046       40.4057       40.4103      28.230565       0.04881
  24     48.69       12.1793        0.0055       40.3654       40.3709      28.191544       0.04038
  23     57.69       12.1788        0.0065       40.3285       40.3349      28.156129       0.03320
  22     68.43       12.1782        0.0076       40.2917       40.2993      28.121143       0.02750
  21     81.20       12.1774        0.0090       40.2548       40.2638      28.086416       0.02295
  20     96.49       12.1764        0.0106       40.2173       40.2279      28.051455       0.01930
  19     114.6       12.1753        0.0126       40.1748       40.1874      28.012064       0.01839
  18     136.5       12.1740        0.0149       40.1254       40.1403      27.966266       0.01761
  17     162.9       12.1725        0.0176       40.0676       40.0852      27.912780       0.01710
  16     196.4       12.1705        0.0212       39.9853       40.0065      27.835986       0.01933
  15     218.7       12.1694        0.0235       39.8938       39.9173      27.747936       0.03343
  14     243.0       12.1681        0.0261       39.7904       39.8165      27.648322       0.03455
  13     269.0       12.1671        0.0288       39.6124       39.6412      27.474079       0.05652
  12     297.5       12.1664        0.0316       39.3140       39.3456      27.179220       0.08745
  11     328.5       12.1664        0.0345       38.8360       38.8705      26.704126       0.12918
  10     361.9       12.1676        0.0375       38.1042       38.1417      25.974137       0.18469
   9     398.1       12.1708        0.0403       37.0553       37.0957      24.924902       0.24445
   8     437.6       12.1771        0.0430       35.6587       35.7016      23.524488       0.29942
   7     480.5       12.1886        0.0453       33.9489       33.9942      21.805609       0.33758
   6     533.0       12.2117        0.0476       31.7539       31.8015      19.589860       0.35644
   5     589.8       12.2518        0.0498       29.5017       29.5515      17.299623       0.33995
   4     651.6       12.3203        0.0517       27.2844       27.3362      15.015861       0.31231
   3     718.7       12.4311        0.0537       25.2254       25.2791      12.848007       0.27244
   2     792.3       12.6110        0.0557       23.3122       23.3678      10.756802       0.23984
   1     891.5       12.9975        0.0582       21.1856       21.2439       8.246312       0.21363
   0    1013.0       13.8255        0.0614       19.1851       19.2464       5.420909       0.19618



 Wavenumbers:  7700. -  8050. cm-1, ATM      1
 LEVEL PRESSURE   UPWARD FLUX   DIFDOWN FLUX  DIRDOWN FLUX  DOWNWARD FLUX   NET FLUX    HEATING RATE
          mb          W/m2          W/m2          W/m2        W/m2          W/m2       degree/day
  51    .06700        6.3522        0.0000       11.1810       11.1810       4.828768       0.00000
  50    .07753        6.3522        0.0000       11.1809       11.1809       4.828746       0.01759
  49    .09103        6.3522        0.0000       11.1809       11.1809       4.828719       0.01724
  48    0.1069        6.3522        0.0000       11.1809       11.1809       4.828687       0.01688
  47    0.1255        6.3522        0.0000       11.1809       11.1809       4.828651       0.01652
  46    0.1487        6.3522        0.0000       11.1808       11.1808       4.828605       0.01676
  45    0.1794        6.3522        0.0000       11.1808       11.1808       4.828542       0.01724
  44    0.2165        6.3522        0.0000       11.1807       11.1807       4.828467       0.01692
  43    0.2613        6.3523        0.0000       11.1806       11.1806       4.828379       0.01660
  42    0.3336        6.3523        0.0000       11.1805       11.1805       4.828234       0.01698
  41    0.4307        6.3523        0.0000       11.1803       11.1804       4.828040       0.01680
  40    0.5894        6.3524        0.0000       11.1801       11.1801       4.827725       0.01678
  39     1.339        6.3527        0.0001       11.1788       11.1789       4.826232       0.01681
  38     1.782        6.3528        0.0001       11.1781       11.1782       4.825355       0.01670
  37     2.292        6.3530        0.0002       11.1771       11.1773       4.824340       0.01681
  36     2.964        6.3532        0.0003       11.1759       11.1762       4.823007       0.01673
  35     3.853        6.3535        0.0003       11.1744       11.1747       4.821247       0.01671
  34     5.035        6.3539        0.0004       11.1724       11.1728       4.818908       0.01671
  33     6.613        6.3545        0.0005       11.1698       11.1703       4.815785       0.01670
  32     8.786        6.3552        0.0006       11.1662       11.1668       4.811577       0.01634
  31     11.80        6.3563        0.0008       11.1611       11.1619       4.805561       0.01684
  30     15.07        6.3575        0.0010       11.1556       11.1566       4.799108       0.01666
  29     18.79        6.3589        0.0012       11.1495       11.1507       4.791824       0.01651
  28     23.16        6.3604        0.0014       11.1423       11.1437       4.783328       0.01643
  27     28.12        6.3622        0.0017       11.1341       11.1358       4.773628       0.01649
  26     33.73        6.3642        0.0020       11.1250       11.1270       4.762792       0.01629
  25     40.54        6.3667        0.0024       11.1140       11.1164       4.749731       0.01620
  24     48.69        6.3696        0.0029       11.1008       11.1037       4.734030       0.01625
  23     57.69        6.3729        0.0034       11.0864       11.0898       4.716842       0.01611
  22     68.43        6.3768        0.0040       11.0693       11.0733       4.696451       0.01603
  21     81.20        6.3815        0.0047       11.0492       11.0538       4.672273       0.01598
  20     96.49        6.3872        0.0055       11.0253       11.0308       4.643627       0.01581
  19     114.6        6.3940        0.0065       10.9972       11.0038       4.609731       0.01583
  18     136.5        6.4022        0.0077       10.9644       10.9721       4.569887       0.01532
  17     162.9        6.4121        0.0091       10.9258       10.9349       4.522882       0.01502
  16     196.4        6.4251        0.0109       10.8767       10.8876       4.462571       0.01518
  15     218.7        6.4338        0.0121       10.8449       10.8570       4.423249       0.01493
  14     243.0        6.4434        0.0134       10.8107       10.8242       4.380800       0.01472
  13     269.0        6.4539        0.0148       10.7741       10.7889       4.334988       0.01486
  12     297.5        6.4656        0.0164       10.7349       10.7512       4.285590       0.01465
  11     328.5        6.4786        0.0180       10.6928       10.7108       4.232188       0.01452
  10     361.9        6.4930        0.0198       10.6477       10.6674       4.174415       0.01462
   9     398.1        6.5092        0.0217       10.5991       10.6207       4.111575       0.01464
   8     437.6        6.5274        0.0237       10.5466       10.5703       4.042927       0.01468
   7     480.5        6.5480        0.0259       10.4896       10.5155       3.967506       0.01481
   6     533.0        6.5753        0.0286       10.4178       10.4463       3.870978       0.01553
   5     589.8        6.6075        0.0314       10.3377       10.3691       3.761612       0.01623
   4     651.6        6.6461        0.0345       10.2472       10.2817       3.635590       0.01723
   3     718.7        6.6925        0.0378       10.1447       10.1825       3.490035       0.01829
   2     792.3        6.7492        0.0412       10.0278       10.0690       3.319815       0.01952
   1     891.5        6.8381        0.0459        9.8589        9.9047       3.066679       0.02154
   0    1013.0        6.9649        0.0513        9.6424        9.6937       2.728755       0.02346



 Wavenumbers:  8050. - 12850. cm-1, ATM      1
 LEVEL PRESSURE   UPWARD FLUX   DIFDOWN FLUX  DIRDOWN FLUX  DOWNWARD FLUX   NET FLUX    HEATING RATE
          mb          W/m2          W/m2          W/m2        W/m2          W/m2       degree/day
  51    .06700       78.5897        0.0000      156.5418      156.5418      77.952004       0.00000
  50    .07753       78.5897        0.0000      156.5417      156.5417      77.952004      -0.00000
  49    .09103       78.5897        0.0001      156.5417      156.5417      77.952004       0.00000
  48    0.1069       78.5897        0.0001      156.5416      156.5417      77.952004       0.00000
  47    0.1255       78.5897        0.0002      156.5415      156.5417      77.952004       0.00000
  46    0.1487       78.5896        0.0002      156.5414      156.5416      77.952004       0.00000
  45    0.1794       78.5896        0.0003      156.5413      156.5416      77.952004       0.00000
  44    0.2165       78.5896        0.0004      156.5412      156.5416      77.952004      -0.00000
  43    0.2613       78.5895        0.0005      156.5410      156.5415      77.952004      -0.00000
  42    0.3336       78.5894        0.0007      156.5407      156.5414      77.952004       0.00000
  41    0.4307       78.5893        0.0010      156.5403      156.5413      77.952004       0.00000
  40    0.5894       78.5891        0.0014      156.5397      156.5411      77.952004       0.00000
  39     1.339       78.5882        0.0034      156.5367      156.5402      77.952004      -0.00000
  38     1.782       78.5876        0.0046      156.5350      156.5396      77.952004       0.00000
  37     2.292       78.5852        0.0098      156.5274      156.5372      77.952004       0.00000
  36     2.964       78.5838        0.0128      156.5230      156.5358      77.952004      -0.00000
  35     3.853       78.5824        0.0159      156.5186      156.5344      77.952004      -0.00000
  34     5.035       78.5808        0.0194      156.5134      156.5328      77.952004       0.00000
  33     6.613       78.5787        0.0238      156.5069      156.5307      77.952004       0.00000
  32     8.786       78.5760        0.0297      156.4983      156.5280      77.952004       0.00000
  31     11.80       78.5722        0.0380      156.4862      156.5242      77.952004      -0.00000
  30     15.07       78.5681        0.0468      156.4733      156.5201      77.952004       0.00000
  29     18.79       78.5635        0.0568      156.4587      156.5155      77.952004      -0.00000
  28     23.16       78.5581        0.0685      156.4416      156.5101      77.952004      -0.00000
  27     28.12       78.5519        0.0818      156.4221      156.5039      77.952004       0.00000
  26     33.73       78.5450        0.0968      156.4003      156.4970      77.952004       0.00000
  25     40.54       78.5366        0.1148      156.3738      156.4886      77.952004       0.00000
  24     48.69       78.5265        0.1367      156.3419      156.4786      77.952004       0.00000
  23     57.69       78.5154        0.1607      156.3068      156.4674      77.952004      -0.00000
  22     68.43       78.5022        0.1893      156.2649      156.4542      77.952004       0.00000
  21     81.20       78.4864        0.2235      156.2149      156.4384      77.952004      -0.00000
  20     96.49       78.4675        0.2642      156.1553      156.4195      77.952004      -0.00000
  19     114.6       78.4510        0.3125      155.8747      156.1873      77.736276       0.10073
  18     136.5       78.4298        0.3699      155.6102      155.9802      77.550311       0.07151
  17     162.9       78.4026        0.4384      155.3505      155.7889      77.386331       0.05241
  16     196.4       78.3650        0.5274      155.0442      155.5717      77.206684       0.04522
  15     218.7       78.3399        0.5859      154.7927      155.3786      77.038622       0.06381
  14     243.0       78.3122        0.6495      154.5415      155.1910      76.878790       0.05544
  13     269.0       78.2832        0.7185      154.2000      154.9185      76.635291       0.07899
  12     297.5       78.2537        0.7928      153.7385      154.5313      76.277602       0.10609
  11     328.5       78.2251        0.8728      153.1148      153.9876      75.762526       0.14005
  10     361.9       78.1996        0.9584      152.2640      153.2224      75.022768       0.18717
   9     398.1       78.1811        1.0495      151.1104      152.1599      73.978827       0.24321
   8     437.6       78.1753        1.1459      149.5878      150.7337      72.558380       0.30370
   7     480.5       78.1912        1.2471      147.6375      148.8845      70.693307       0.36629
   6     533.0       78.2530        1.3681      144.8335      146.2016      67.948632       0.44153
   5     589.8       78.3881        1.4943      141.4346      142.9289      64.540795       0.50583
   4     651.6       78.6440        1.6247      137.4660      139.0907      60.446745       0.55987
   3     718.7       79.0760        1.7591      133.1163      134.8753      55.799337       0.58405
   2     792.3       79.7926        1.8957      128.3357      130.2314      50.438828       0.61479
   1     891.5       81.3188        2.0699      121.9597      124.0296      42.710828       0.65762
   0    1013.0       84.3699        2.2682      114.9825      117.2507      32.880819       0.68255



 Wavenumbers: 12850. - 16000. cm-1, ATM      1
 LEVEL PRESSURE   UPWARD FLUX   DIFDOWN FLUX  DIRDOWN FLUX  DOWNWARD FLUX   NET FLUX    HEATING RATE
          mb          W/m2          W/m2          W/m2        W/m2          W/m2       degree/day
  51    .06700       72.0751        0.0000       98.0872       98.0872      26.012110       0.00000
  50    .07753       72.0751        0.0001       98.0864       98.0864      26.011320       0.63330
  49    .09103       72.0751        0.0002       98.0853       98.0854      26.010328       0.62006
  48    0.1069       72.0751        0.0003       98.0841       98.0843      26.009188       0.60654
  47    0.1255       72.0751        0.0004       98.0826       98.0830      26.007879       0.59330
  46    0.1487       72.0751        0.0005       98.0809       98.0814      26.006229       0.60176
  45    0.1794       72.0752        0.0007       98.0784       98.0791      26.003984       0.61622
  44    0.2165       72.0752        0.0009       98.0756       98.0766      26.001345       0.60033
  43    0.2613       72.0753        0.0012       98.0723       98.0735      25.998243       0.58461
  42    0.3336       72.0755        0.0017       98.0670       98.0687      25.993186       0.58970
  41    0.4307       72.0758        0.0023       98.0602       98.0625      25.986651       0.56815
  40    0.5894       72.0765        0.0033       98.0496       98.0528      25.976369       0.54678
  39     1.339       72.0822        0.0079       98.0043       98.0122      25.930026       0.52174
  38     1.782       72.0876        0.0106       97.9793       97.9899      25.902364       0.52663
  37     2.292       72.0925        0.0226       97.9380       97.9605      25.868024       0.56876
  36     2.964       72.1048        0.0295       97.8932       97.9227      25.817922       0.62893
  35     3.853       72.1258        0.0365       97.8328       97.8692      25.743439       0.70686
  34     5.035       72.1579        0.0446       97.7493       97.7939      25.635957       0.76781
  33     6.613       72.2030        0.0548       97.6368       97.6916      25.488604       0.78775
  32     8.786       72.2618        0.0681       97.4909       97.5590      25.297252       0.74314
  31     11.80       72.3383        0.0870       97.2978       97.3848      25.046508       0.70201
  30     15.07       72.4115        0.1071       97.1081       97.2152      24.803688       0.62691
  29     18.79       72.4863        0.1298       96.9097       97.0395      24.553197       0.56794
  28     23.16       72.5644        0.1562       96.6962       96.8524      24.288032       0.51274
  27     28.12       72.6428        0.1864       96.4730       96.6594      24.016615       0.46139
  26     33.73       72.7152        0.2202       96.2526       96.4728      23.757601       0.38943
  25     40.54       72.7847        0.2610       96.0202       96.2812      23.496551       0.32386
  24     48.69       72.8510        0.3102       95.7740       96.0841      23.233126       0.27260
  23     57.69       72.9070        0.3642       95.5366       95.9009      22.993806       0.22433
  22     68.43       72.9555        0.4286       95.2899       95.7185      22.763065       0.18139
  21     81.20       72.9881        0.5054       95.0437       95.5491      22.560948       0.13356
  20     96.49       73.0038        0.5970       94.7946       95.3916      22.387799       0.09557
  19     114.6       73.0236        0.7069       94.5169       95.2239      22.200244       0.08757
  18     136.5       73.0366        0.8372       94.2047       95.0419      22.005323       0.07495
  17     162.9       73.0422        0.9923       93.8449       94.8372      21.794926       0.06725
  16     196.4       73.0291        1.1934       93.4007       94.5941      21.565010       0.05787
  15     218.7       73.0132        1.3255       93.1138       94.4392      21.425975       0.05279
  14     243.0       72.9926        1.4690       92.8044       94.2734      21.280807       0.05035
  13     269.0       72.9672        1.6244       92.4696       94.0941      21.126849       0.04994
  12     297.5       72.9374        1.7924       92.1066       93.8990      20.961586       0.04901
  11     328.5       72.9053        1.9739       91.7097       93.6836      20.778290       0.04984
  10     361.9       72.8722        2.1693       91.2744       93.4437      20.571495       0.05232
   9     398.1       72.8397        2.3795       90.7937       93.1732      20.333475       0.05545
   8     437.6       72.8114        2.6050       90.2578       92.8628      20.051381       0.06031
   7     480.5       72.7916        2.8463       89.6545       92.5009      19.709206       0.06720
   6     533.0       72.7879        3.1428       88.8615       92.0043      19.216351       0.07928
   5     589.8       72.8175        3.4607       87.9380       91.3987      18.581177       0.09428
   4     651.6       72.8939        3.7996       86.8703       90.6699      17.776006       0.11011
   3     718.7       73.0336        4.1588       85.6580       89.8169      16.783286       0.12476
   2     792.3       73.2750        4.5370       84.2763       88.8133      15.538327       0.14278
   1     891.5       73.7843        5.0359       82.3191       87.3550      13.570714       0.16743
   0    1013.0       74.6973        5.6202       79.9557       85.5759      10.878629       0.18693



 Wavenumbers: 16000. - 22650. cm-1, ATM      1
 LEVEL PRESSURE   UPWARD FLUX   DIFDOWN FLUX  DIRDOWN FLUX  DOWNWARD FLUX   NET FLUX    HEATING RATE
          mb          W/m2          W/m2          W/m2        W/m2          W/m2       degree/day
  51    .06700      140.3557        0.0000      156.3892      156.3892      16.033539       0.00000
  50    .07753      140.3557        0.0004      156.3887      156.3891      16.033392       0.11801
  49    .09103      140.3557        0.0009      156.3879      156.3888      16.033178       0.13384
  48    0.1069      140.3557        0.0015      156.3871      156.3885      16.032891       0.15263
  47    0.1255      140.3557        0.0021      156.3861      156.3882      16.032507       0.17397
  46    0.1487      140.3557        0.0029      156.3847      156.3877      16.031941       0.20616
  45    0.1794      140.3558        0.0041      156.3828      156.3869      16.031057       0.24274
  44    0.2165      140.3561        0.0054      156.3805      156.3859      16.029858       0.27281
  43    0.2613      140.3564        0.0070      156.3776      156.3846      16.028231       0.30670
  42    0.3336      140.3571        0.0096      156.3726      156.3823      16.025137       0.36067
  41    0.4307      140.3584        0.0131      156.3657      156.3788      16.020474       0.40544
  40    0.5894      140.3609        0.0188      156.3537      156.3725      16.011581       0.47292
  39     1.339      140.3833        0.0458      156.2834      156.3292      15.945878       0.73970
  38     1.782      140.4040        0.0616      156.2324      156.2939      15.889907       1.06560
  37     2.292      140.4234        0.1306      156.1018      156.2323      15.808892       1.34182
  36     2.964      140.4714        0.1709      155.9782      156.1490      15.677653       1.64744
  35     3.853      140.5530        0.2109      155.8115      156.0224      15.469415       1.97622
  34     5.035      140.6780        0.2577      155.5790      155.8368      15.158745       2.21930
  33     6.613      140.8536        0.3167      155.2639      155.5806      14.727010       2.30806
  32     8.786      141.0827        0.3939      154.8540      155.2479      14.165232       2.18174
  31     11.80      141.3811        0.5028      154.3106      154.8133      13.432270       2.05206
  30     15.07      141.6670        0.6189      153.7753      154.3942      12.727195       1.82036
  29     18.79      141.9590        0.7496      153.2139      153.9635      12.004571       1.63841
  28     23.16      142.2641        0.9019      152.6075      153.5094      11.245293       1.46820
  27     28.12      142.5710        1.0757      151.9706      153.0463      10.475272       1.30898
  26     33.73      142.8542        1.2700      151.3362      152.6062       9.752004       1.08745
  25     40.54      143.1266        1.5046      150.6592      152.1638       9.037167       0.88684
  24     48.69      143.3872        1.7871      149.9296      151.7167       8.329482       0.73234
  23     57.69      143.6079        2.0970      149.2112      151.3082       7.700290       0.58977
  22     68.43      143.8001        2.4657      148.4441      150.9097       7.109655       0.46432
  21     81.20      143.9321        2.9046      147.6486      150.5532       6.621071       0.32285
  20     96.49      143.9996        3.4272      146.8101      150.2372       6.237663       0.21161
  19     114.6      144.0340        4.0458      145.8738      149.9196       5.885633       0.16437
  18     136.5      144.0434        4.7762      144.8065      149.5827       5.539326       0.13316
  17     162.9      144.0262        5.6420      143.5766      149.2186       5.192460       0.11087
  16     196.4      143.9424        6.7591      142.0636      148.8227       4.880272       0.07858
  15     218.7      143.8650        7.4891      141.1020      148.5911       4.726041       0.05856
  14     243.0      143.7705        8.2792      140.0744      148.3535       4.583087       0.04958
  13     269.0      143.6572        9.1315      138.9791      148.1107       4.453449       0.04205
  12     297.5      143.5246       10.0482      137.8141      147.8623       4.337622       0.03435
  11     328.5      143.3769       11.0334      136.5680      147.6014       4.224560       0.03074
  10     361.9      143.2138       12.0883      135.2395      147.3277       4.113936       0.02799
   9     398.1      143.0351       13.2167      133.8227      147.0394       4.004278       0.02555
   8     437.6      142.8421       14.4207      132.3132      146.7339       3.891801       0.02405
   7     480.5      142.6349       15.7025      130.7071      146.4097       3.774720       0.02299
   6     533.0      142.3821       17.2683      128.7434      146.0116       3.629491       0.02336
   5     589.8      142.1159       18.9412      126.6384      145.5797       3.463755       0.02460
   4     651.6      141.8409       20.7228      124.3848      145.1076       3.266705       0.02695
   3     718.7      141.5607       22.6146      121.9774      144.5919       3.031235       0.02959
   2     792.3      141.2860       24.6140      119.4089      144.0229       2.736866       0.03376
   1     891.5      140.9659       27.2677      115.9574      143.2251       2.259188       0.04065
   0    1013.0      140.6448       30.3868      111.8633      142.2500       1.605221       0.04541



 Wavenumbers: 22650. - 29000. cm-1, ATM      1
 LEVEL PRESSURE   UPWARD FLUX   DIFDOWN FLUX  DIRDOWN FLUX  DOWNWARD FLUX   NET FLUX    HEATING RATE
          mb          W/m2          W/m2          W/m2        W/m2          W/m2       degree/day
  51    .06700       58.3821        0.0000       59.0156       59.0156       0.633467       0.00000
  50    .07753       58.3821        0.0005       59.0151       59.0155       0.633467       0.00000
  49    .09103       58.3819        0.0010       59.0144       59.0154       0.633467      -0.00000
  48    0.1069       58.3818        0.0017       59.0136       59.0153       0.633467       0.00000
  47    0.1255       58.3817        0.0025       59.0127       59.0151       0.633467       0.00000
  46    0.1487       58.3815        0.0034       59.0115       59.0149       0.633467       0.00000
  45    0.1794       58.3812        0.0048       59.0099       59.0147       0.633467      -0.00000
  44    0.2165       58.3809        0.0063       59.0080       59.0144       0.633467       0.00000
  43    0.2613       58.3805        0.0082       59.0058       59.0140       0.633467       0.00000
  42    0.3336       58.3799        0.0113       59.0022       59.0134       0.633467       0.00000
  41    0.4307       58.3792        0.0153       58.9973       59.0126       0.633467       0.00000
  40    0.5894       58.3779        0.0220       58.9894       59.0113       0.633467       0.00000
  39     1.339       58.3717        0.0534       58.9518       59.0052       0.633467       0.00000
  38     1.782       58.3681        0.0719       58.9297       59.0016       0.633467      -0.00000
  37     2.292       58.3524        0.1523       58.8336       58.9859       0.633467       0.00000
  36     2.964       58.3433        0.1993       58.7774       58.9767       0.633467      -0.00000
  35     3.853       58.3342        0.2460       58.7216       58.9676       0.633467      -0.00000
  34     5.035       58.3235        0.3007       58.6562       58.9570       0.633467       0.00000
  33     6.613       58.3101        0.3697       58.5739       58.9435       0.633467       0.00000
  32     8.786       58.2925        0.4599       58.4660       58.9259       0.633467      -0.00000
  31     11.80       58.2676        0.5872       58.3139       58.9011       0.633467      -0.00000
  30     15.07       58.2411        0.7230       58.1516       58.8746       0.633467       0.00000
  29     18.79       58.2114        0.8757       57.9691       58.8448       0.633467       0.00000
  28     23.16       58.1767        1.0535       57.7567       58.8102       0.633467       0.00000
  27     28.12       58.1372        1.2560       57.5146       58.7706       0.633467      -0.00000
  26     33.73       58.0931        1.4818       57.2448       58.7266       0.633467       0.00000
  25     40.54       58.0401        1.7535       56.9201       58.6736       0.633467       0.00000
  24     48.69       57.9765        2.0793       56.5307       58.6100       0.633467       0.00000
  23     57.69       57.9071        2.4348       56.1057       58.5405       0.633467       0.00000
  22     68.43       57.8250        2.8553       55.6032       58.4584       0.633467       0.00000
  21     81.20       57.7280        3.3517       55.0097       58.3614       0.633467       0.00000
  20     96.49       57.6136        3.9370       54.3101       58.2471       0.633467      -0.00000
  19     114.6       57.4795        4.6229       53.4900       58.1130       0.633467       0.00000
  18     136.5       57.3229        5.4235       52.5329       57.9564       0.633467       0.00000
  17     162.9       57.1397        6.3593       51.4139       57.7732       0.633467      -0.00000
  16     196.4       56.9075        7.5449       49.9961       57.5409       0.633467       0.00000
  15     218.7       56.7581        8.3067       49.0848       57.3916       0.633467       0.00000
  14     243.0       56.5985        9.1200       48.1119       57.2320       0.633467       0.00000
  13     269.0       56.4288        9.9844       47.0779       57.0623       0.633467      -0.00000
  12     297.5       56.2491       10.8990       45.9836       56.8825       0.633467       0.00000
  11     328.5       56.0590       11.8651       44.8274       56.6925       0.633467       0.00000
  10     361.9       55.8591       12.8804       43.6122       56.4926       0.633467       0.00000
   9     398.1       55.6493       13.9448       42.3380       56.2828       0.633467       0.00000
   8     437.6       55.4299       15.0563       41.0071       56.0634       0.633467      -0.00000
   7     480.5       55.2014       16.2126       39.6223       55.8349       0.633467      -0.00000
   6     533.0       54.9291       17.5879       37.9747       55.5626       0.633467       0.00000
   5     589.8       54.6463       19.0136       36.2662       55.2797       0.633467       0.00000
   4     651.6       54.3542       20.4822       34.5054       54.9877       0.633467      -0.00000
   3     718.7       54.0539       21.9880       32.6994       54.6874       0.633467       0.00000
   2     792.3       53.7472       23.5217       30.8590       54.3807       0.633467      -0.00000
   1     891.5       53.3563       25.4687       28.5210       53.9898       0.633467       0.00000
   0    1013.0       52.9204       27.6276       25.9263       53.5539       0.633467       0.00000



 Wavenumbers: 29000. - 38000. cm-1, ATM      1
 LEVEL PRESSURE   UPWARD FLUX   DIFDOWN FLUX  DIRDOWN FLUX  DOWNWARD FLUX   NET FLUX    HEATING RATE
          mb          W/m2          W/m2          W/m2        W/m2          W/m2       degree/day
  51    .06700        8.7553        0.0000       20.8114       20.8114      12.056021       0.00000
  50    .07753        8.7552        0.0003       20.8070       20.8074      12.052213       3.05277
  49    .09103        8.7549        0.0007       20.8009       20.8016      12.046673       3.46224
  48    0.1069        8.7547        0.0012       20.7928       20.7939      12.039260       3.94588
  47    0.1255        8.7544        0.0017       20.7820       20.7837      12.029352       4.49216
  46    0.1487        8.7541        0.0024       20.7665       20.7688      12.014783       5.31061
  45    0.1794        8.7536        0.0033       20.7424       20.7457      11.992108       6.22461
  44    0.2165        8.7531        0.0044       20.7103       20.7147      11.961573       6.94631
  43    0.2613        8.7525        0.0056       20.6675       20.6731      11.920561       7.73062
  42    0.3336        8.7517        0.0077       20.5880       20.5957      11.843966       8.93017
  41    0.4307        8.7507        0.0104       20.4722       20.4826      11.731962       9.73849
  40    0.5894        8.7492        0.0147       20.2637       20.2784      11.529178      10.78379
  39     1.339        8.7466        0.0331       19.0984       19.1315      10.384869      12.88284
  38     1.782        8.7480        0.0427       18.4394       18.4821       9.734077      12.39003
  37     2.292        8.7320        0.0863       17.7196       17.8059       9.073934      10.93370
  36     2.964        8.7330        0.1077       16.9773       17.0850       8.351996       9.06250
  35     3.853        8.7432        0.1266       16.1993       16.3259       7.582683       7.30092
  34     5.035        8.7629        0.1473       15.4121       15.5594       6.796526       5.61597
  33     6.613        8.7927        0.1725       14.6494       14.8219       6.029146       4.10242
  32     8.786        8.8327        0.2051       13.9296       14.1347       5.301982       2.82404
  31     11.80        8.8852        0.2502       13.2231       13.4733       4.588141       1.99853
  30     15.07        8.9358        0.2977       12.6809       12.9787       4.042860       1.40781
  29     18.79        8.9882        0.3503       12.2107       12.5610       3.572740       1.06591
  28     23.16        9.0439        0.4105       11.7764       12.1869       3.142992       0.83099
  27     28.12        9.1009        0.4781       11.3764       11.8545       2.753586       0.66197
  26     33.73        9.1536        0.5529       11.0198       11.5727       2.419182       0.50278
  25     40.54        9.2035        0.6425       10.6730       11.3155       2.112033       0.38105
  24     48.69        9.2505        0.7489       10.3280       11.0770       1.826426       0.29556
  23     57.69        9.2891        0.8643       10.0103       10.8746       1.585470       0.22586
  22     68.43        9.3203        0.9998        9.6897       10.6895       1.369158       0.17005
  21     81.20        9.3351        1.1599        9.3718       10.5318       1.196674       0.11397
  20     96.49        9.3316        1.3483        9.0486       10.3970       1.065378       0.07247
  19     114.6        9.3178        1.5660        8.7003       10.2663       0.948510       0.05457
  18     136.5        9.2967        1.8149        8.3181       10.1331       0.836376       0.04312
  17     162.9        9.2684        2.0987        7.8963        9.9950       0.726590       0.03509
  16     196.4        9.2209        2.4510        7.3998        9.8508       0.629920       0.02433
  15     218.7        9.1868        2.6721        7.0974        9.7696       0.582795       0.01789
  14     243.0        9.1494        2.9033        6.7854        9.6887       0.539282       0.01509
  13     269.0        9.1085        3.1436        6.4651        9.6087       0.500212       0.01267
  12     297.5        9.0643        3.3920        6.1380        9.5300       0.465772       0.01021
  11     328.5        9.0181        3.6476        5.8033        9.4509       0.432801       0.00896
  10     361.9        8.9703        3.9078        5.4640        9.3718       0.401445       0.00793
   9     398.1        8.9212        4.1721        5.1209        9.2929       0.371733       0.00692
   8     437.6        8.8712        4.4389        4.7754        9.2143       0.343092       0.00612
   7     480.5        8.8207        4.7062        4.4304        9.1366       0.315908       0.00534
   6     533.0        8.7627        5.0109        4.0381        9.0490       0.286278       0.00477
   5     589.8        8.7055        5.3112        3.6518        8.9631       0.257594       0.00426
   4     651.6        8.6497        5.6043        3.2750        8.8793       0.229530       0.00384
   3     718.7        8.5963        5.8870        2.9114        8.7984       0.202050       0.00345
   2     792.3        8.5458        6.1567        2.5643        8.7210       0.175154       0.00308
   1     891.5        8.4877        6.4733        2.1564        8.6297       0.141952       0.00283
   0    1013.0        8.4319        6.7902        1.7470        8.5372       0.105277       0.00255



 Wavenumbers: 38000. - 50000. cm-1, ATM      1
 LEVEL PRESSURE   UPWARD FLUX   DIFDOWN FLUX  DIRDOWN FLUX  DOWNWARD FLUX   NET FLUX    HEATING RATE
          mb          W/m2          W/m2          W/m2        W/m2          W/m2       degree/day
  51    .06700        0.0073        0.0000        1.2836        1.2836       1.276305       0.00000
  50    .07753        0.0073        0.0001        1.2812        1.2812       1.273969       1.87235
  49    .09103        0.0072        0.0002        1.2777        1.2778       1.270636       2.08335
  48    0.1069        0.0071        0.0002        1.2731        1.2734       1.266256       2.33153
  47    0.1255        0.0070        0.0004        1.2672        1.2675       1.260499       2.61007
  46    0.1487        0.0069        0.0005        1.2586        1.2591       1.252169       3.03609
  45    0.1794        0.0068        0.0007        1.2455        1.2462       1.239397       3.50642
  44    0.2165        0.0066        0.0009        1.2282        1.2291       1.222465       3.85168
  43    0.2613        0.0064        0.0011        1.2054        1.2065       1.200109       4.21402
  42    0.3336        0.0061        0.0015        1.1639        1.1654       1.159271       4.76132
  41    0.4307        0.0058        0.0020        1.1051        1.1071       1.101291       5.04121
  40    0.5894        0.0052        0.0026        1.0039        1.0064       1.001211       5.32213
  39     1.339        0.0039        0.0035        0.5438        0.5473       0.543469       5.15335
  38     1.782        0.0037        0.0032        0.3635        0.3667       0.362985       3.43613
  37     2.292        0.0016        0.0043        0.2324        0.2367       0.235067       2.11864
  36     2.964        0.0010        0.0035        0.1429        0.1464       0.145414       1.12542
  35     3.853        0.0006        0.0026        0.0841        0.0867       0.086071       0.56318
  34     5.035        0.0004        0.0019        0.0478        0.0496       0.049220       0.26325
  33     6.613        0.0003        0.0013        0.0267        0.0280       0.027706       0.11501
  32     8.786        0.0002        0.0009        0.0141        0.0149       0.014790       0.05016
  31     11.80        0.0001        0.0005        0.0064        0.0069       0.006846       0.02224
  30     15.07        0.0000        0.0003        0.0030        0.0033       0.003305       0.00914
  29     18.79        0.0000        0.0002        0.0014        0.0016       0.001573       0.00393
  28     23.16        0.0000        0.0001        0.0006        0.0007       0.000716       0.00166
  27     28.12        0.0000        0.0001        0.0003        0.0003       0.000316       0.00068
  26     33.73        0.0000        0.0000        0.0001        0.0001       0.000139       0.00027
  25     40.54        0.0000        0.0000        0.0000        0.0001       0.000057       0.00010
  24     48.69        0.0000        0.0000        0.0000        0.0000       0.000021       0.00004
  23     57.69        0.0000        0.0000        0.0000        0.0000       0.000008       0.00001
  22     68.43        0.0000        0.0000        0.0000        0.0000       0.000003       0.00000
  21     81.20        0.0000        0.0000        0.0000        0.0000       0.000001       0.00000
  20     96.49        0.0000        0.0000        0.0000        0.0000       0.000000       0.00000
  19     114.6        0.0000        0.0000        0.0000        0.0000       0.000000       0.00000
  18     136.5        0.0000        0.0000        0.0000        0.0000       0.000000       0.00000
  17     162.9        0.0000        0.0000        0.0000        0.0000       0.000000       0.00000
  16     196.4        0.0000        0.0000        0.0000        0.0000       0.000000       0.00000
  15     218.7        0.0000        0.0000        0.0000        0.0000       0.000000       0.00000
  14     243.0        0.0000        0.0000        0.0000        0.0000       0.000000       0.00000
  13     269.0        0.0000        0.0000        0.0000        0.0000       0.000000       0.00000
  12     297.5        0.0000        0.0000        0.0000        0.0000       0.000000       0.00000
  11     328.5        0.0000        0.0000        0.0000        0.0000       0.000000       0.00000
  10     361.9        0.0000        0.0000        0.0000        0.0000       0.000000       0.00000
   9     398.1        0.0000        0.0000        0.0000        0.0000       0.000000       0.00000
   8     437.6        0.0000        0.0000        0.0000        0.0000       0.000000       0.00000
   7     480.5        0.0000        0.0000        0.0000        0.0000       0.000000       0.00000
   6     533.0        0.0000        0.0000        0.0000        0.0000       0.000000       0.00000
   5     589.8        0.0000        0.0000        0.0000        0.0000       0.000000       0.00000
   4     651.6        0.0000        0.0000        0.0000        0.0000       0.000000       0.00000
   3     718.7        0.0000        0.0000        0.0000        0.0000       0.000000       0.00000
   2     792.3        0.0000        0.0000        0.0000        0.0000       0.000000       0.00000
   1     891.5        0.0000        0.0000        0.0000        0.0000       0.000000       0.00000
   0    1013.0        0.0000        0.0000        0.0000        0.0000       0.000000       0.00000



 Wavenumbers:   820. -  2600. cm-1, ATM      1
 LEVEL PRESSURE   UPWARD FLUX   DIFDOWN FLUX  DIRDOWN FLUX  DOWNWARD FLUX   NET FLUX    HEATING RATE
          mb          W/m2          W/m2          W/m2        W/m2          W/m2       degree/day
  51    .06700        0.3496        0.0000        6.0047        6.0047       5.655019       0.00000
  50    .07753        0.3496        0.0000        6.0009        6.0009       5.651239       3.02937
  49    .09103        0.3496        0.0000        6.0001        6.0001       5.650449       0.49378
  48    0.1069        0.3496        0.0000        5.9992        5.9992       5.649574       0.46572
  47    0.1255        0.3496        0.0000        5.9982        5.9982       5.648594       0.44470
  46    0.1487        0.3496        0.0000        5.9970        5.9970       5.647416       0.42941
  45    0.1794        0.3496        0.0000        5.9956        5.9956       5.645949       0.40259
  44    0.2165        0.3496        0.0000        5.9940        5.9940       5.644417       0.34860
  43    0.2613        0.3496        0.0000        5.9925        5.9925       5.642837       0.29770
  42    0.3336        0.3496        0.0000        5.9902        5.9902       5.640608       0.25991
  41    0.4307        0.3496        0.0000        5.9877        5.9877       5.638020       0.22503
  40    0.5894        0.3496        0.0000        5.9836        5.9836       5.633988       0.21442
  39     1.339        0.3496        0.0000        5.9651        5.9651       5.615478       0.20839
  38     1.782        0.3496        0.0000        5.9549        5.9549       5.605261       0.19451
  37     2.292        0.4197        0.0000        1.2250        1.2250       0.805326      79.49944
  36     2.964        0.4453        0.0000        1.1288        1.1288       0.683429       1.53018
  35     3.853        0.4592        0.0000        1.0866        1.0866       0.627461       0.53115
  34     5.035        0.4674        0.0000        1.0639        1.0639       0.596464       0.22143
  33     6.613        0.4725        0.0000        1.0507        1.0507       0.578190       0.09769
  32     8.786        0.4755        0.0000        1.0428        1.0428       0.567306       0.04227
  31     11.80        0.4775        0.0000        1.0380        1.0380       0.560456       0.01918
  30     15.07        0.4785        0.0000        1.0354        1.0354       0.556850       0.00931
  29     18.79        0.4792        0.0000        1.0338        1.0338       0.554654       0.00498
  28     23.16        0.4796        0.0000        1.0327        1.0327       0.553122       0.00296
  27     28.12        0.4800        0.0000        1.0319        1.0319       0.551966       0.00197
  26     33.73        0.4802        0.0000        1.0313        1.0313       0.551076       0.00134
  25     40.54        0.4806        0.0000        1.0304        1.0304       0.549851       0.00152
  24     48.69        0.4809        0.0000        1.0297        1.0297       0.548806       0.00108
  23     57.69        0.4811        0.0000        1.0291        1.0291       0.547985       0.00077
  22     68.43        0.4813        0.0000        1.0286        1.0286       0.547281       0.00055
  21     81.20        0.4815        0.0000        1.0282        1.0282       0.546676       0.00040
  20     96.49        0.4817        0.0000        1.0278        1.0278       0.546148       0.00029
  19     114.6        0.4818        0.0000        1.0275        1.0275       0.545729       0.00020
  18     136.5        0.4819        0.0000        1.0272        1.0272       0.545291       0.00017
  17     162.9        0.4820        0.0000        1.0269        1.0269       0.544882       0.00013
  16     196.4        0.4821        0.0000        1.0266        1.0266       0.544478       0.00010
  15     218.7        0.4822        0.0000        1.0264        1.0264       0.544215       0.00010
  14     243.0        0.4823        0.0000        1.0263        1.0263       0.544005       0.00007
  13     269.0        0.4824        0.0000        1.0261        1.0261       0.543727       0.00009
  12     297.5        0.4825        0.0000        1.0258        1.0258       0.543297       0.00013
  11     328.5        0.4827        0.0000        1.0253        1.0253       0.542624       0.00018
  10     361.9        0.4830        0.0000        1.0245        1.0245       0.541531       0.00028
   9     398.1        0.4835        0.0000        1.0233        1.0233       0.539813       0.00040
   8     437.6        0.4843        0.0000        1.0215        1.0215       0.537236       0.00055
   7     480.5        0.4854        0.0000        1.0188        1.0189       0.533419       0.00075
   6     533.0        0.4875        0.0000        1.0140        1.0140       0.526462       0.00112
   5     589.8        0.4909        0.0000        1.0064        1.0064       0.515556       0.00162
   4     651.6        0.4966        0.0000        0.9935        0.9935       0.496921       0.00255
   3     718.7        0.5056        0.0000        0.9741        0.9741       0.468551       0.00357
   2     792.3        0.5192        0.0000        0.9461        0.9461       0.426955       0.00477
   1     891.5        0.5456        0.0000        0.8956        0.8956       0.349957       0.00655
   0    1013.0        0.5900        0.0000        0.8216        0.8217       0.231624       0.00822

  Modules and versions used in this calculation:

       rrtmg_sw.1col.f90:  $Revision$                    rrtmg_sw_init.f90:  $Revision$        
     rrtmgsw_cldprop.f90:  $Revision$                  rrtmgsw_cldprmc.f90:  NOT USED          
     rrtmg_sw_reftra.f90:  $Revision$                  rrtmg_sw_spcvrt.f90:  NOT USED          
     rrtmg_sw_spcvmc.f90:  NOT USED                    rrtmgsw_setcoef.f90:  NOT USED          
     rrtmg_sw_taumol.f90:  $Revision$                  rrtmg_sw_vrtqdr.f90:  NOT USED          
                rrtatm.f:  NOT USED                             util_xxx.f:  NOT USED          
                 extra.f:  NOT USED                       rrtmg_sw_k_g.f90:  $Revision$        

