

 Wavenumbers:   820. - 50000. cm-1, ATM      1
 LEVEL PRESSURE   UPWARD FLUX   DIFDOWN FLUX  DIRDOWN FLUX  DOWNWARD FLUX   NET FLUX    HEATING RATE
          mb          W/m2          W/m2          W/m2        W/m2          W/m2       degree/day
  51    .06700      400.3521        0.0000      617.8126      617.8126     217.460458       0.00000
  50    .07753      400.3517        0.0013      617.7948      617.7962     217.444444      12.83574
  49    .09103      400.3513        0.0030      617.7782      617.7812     217.429901       9.08958
  48    0.1069      400.3508        0.0050      617.7588      617.7638     217.412995       8.99933
  47    0.1255      400.3503        0.0072      617.7352      617.7424     217.392072       9.48555
  46    0.1487      400.3497        0.0100      617.7026      617.7126     217.362926      10.62412
  45    0.1794      400.3490        0.0139      617.6545      617.6684     217.319427      11.94153
  44    0.2165      400.3482        0.0184      617.5928      617.6112     217.262978      12.84108
  43    0.2613      400.3475        0.0237      617.5133      617.5370     217.189527      13.84525
  42    0.3336      400.3466        0.0326      617.3703      617.4029     217.056265      15.53706
  41    0.4307      400.3459        0.0442      617.1679      617.2120     216.866131      16.53173
  40    0.5894      400.3457        0.0629      616.8134      616.8763     216.530592      17.84352
  39     1.339      400.3632        0.1475      614.9754      615.1229     214.759717      19.93684
  38     1.782      400.3864        0.1952      614.0076      614.2027     213.816323      17.96070
  37     2.292      400.4630        0.3677      597.4419      597.8095     197.346552     272.78237
  36     2.964      400.5457        0.4740      595.0173      595.4913     194.945591      30.13932
  35     3.853      400.6665        0.5833      593.1727      593.7560     193.089462      17.61500
  34     5.035      400.8435        0.7138      591.4972      592.2110     191.367471      12.30119
  33     6.613      401.0880        0.8800      589.8682      590.7482     189.660212       9.12701
  32     8.786      401.4037        1.0987      588.2209      589.3196     187.915945       6.77410
  31     11.80      401.8105        1.4076      586.4075      587.8151     186.004556       5.35129
  30     15.07      402.1967        1.7369      584.8242      586.5611     184.364407       4.23455
  29     18.79      402.5881        2.1068      583.2844      585.3912     182.803095       3.53997
  28     23.16      402.9938        2.5366      581.6972      584.2338     181.239978       3.02256
  27     28.12      403.3977        3.0260      580.0733      583.0992     179.701522       2.61527
  26     33.73      403.7620        3.5715      578.4667      582.0383     178.276268       2.14291
  25     40.54      404.1003        4.2286      576.7087      580.9373     176.837059       1.78550
  24     48.69      404.4090        5.0172      574.7991      579.8163     175.407253       1.47962
  23     57.69      404.6522        5.8791      572.8954      578.7745     174.122363       1.20439
  22     68.43      404.8375        6.9003      570.8286      577.7289     172.891357       0.96774
  21     81.20      404.9136        8.1112      568.6172      576.7284     171.814755       0.71140
  20     96.49      404.8701        9.5449      566.2165      575.7613     170.891271       0.50970
  19     114.6      404.7697       11.2314      563.3091      574.5405     169.770758       0.52320
  18     136.5      404.6054       13.2061      560.0405      573.2466     168.641200       0.43434
  17     162.9      404.3702       15.5235      556.3263      571.8497     167.479552       0.37131
  16     196.4      403.9762       18.4794      551.7340      570.2134     166.237244       0.31270
  15     218.7      403.6889       20.3900      548.6777      569.0677     165.378798       0.32592
  14     243.0      403.3654       22.4395      545.4314      567.8709     164.505504       0.30289
  13     269.0      403.0063       24.6293      541.7736      566.4028     163.396514       0.35975
  12     297.5      402.6134       26.9601      537.5933      564.5534     161.939951       0.43200
  11     328.5      402.1965       29.4381      532.7418      562.1799     159.983422       0.53197
  10     361.9      401.7612       32.0592      527.0546      559.1138     157.352674       0.66561
   9     398.1      401.3145       34.8281      520.3496      555.1777     153.863208       0.81297
   8     437.6      400.8706       37.7433      512.5040      550.2473     149.376677       0.95925
   7     480.5      400.4474       40.8025      503.5087      544.3111     143.863764       1.08272
   6     533.0      400.0244       44.4794      491.9652      536.4446     136.420227       1.19743
   5     589.8      399.7245       48.3375      479.4024      527.7400     128.015447       1.24754
   4     651.6      399.6459       52.3657      465.9758      518.3415     118.695659       1.27451
   3     718.7      399.8895       56.5574      452.1172      508.6746     108.785112       1.24548
   2     792.3      400.6632       60.8974      437.7661      498.6635      98.000313       1.23690
   1     891.5      402.8064       66.5172      419.3017      485.8189      83.012471       1.27539
   0    1013.0      407.6907       72.9339      398.8613      471.7951      64.104455       1.31288



 Wavenumbers:  2600. -  3250. cm-1, ATM      1
 LEVEL PRESSURE   UPWARD FLUX   DIFDOWN FLUX  DIRDOWN FLUX  DOWNWARD FLUX   NET FLUX    HEATING RATE
          mb          W/m2          W/m2          W/m2        W/m2          W/m2       degree/day
  51    .06700        1.3122        0.0000        5.4450        5.4450       4.132800       0.00000
  50    .07753        1.3122        0.0000        5.4450        5.4450       4.132792       0.00640
  49    .09103        1.3122        0.0000        5.4450        5.4450       4.132782       0.00627
  48    0.1069        1.3122        0.0000        5.4450        5.4450       4.132771       0.00613
  47    0.1255        1.3122        0.0000        5.4450        5.4450       4.132757       0.00599
  46    0.1487        1.3122        0.0000        5.4450        5.4450       4.132741       0.00608
  45    0.1794        1.3122        0.0000        5.4450        5.4450       4.132718       0.00625
  44    0.2165        1.3122        0.0000        5.4449        5.4449       4.132691       0.00612
  43    0.2613        1.3122        0.0000        5.4449        5.4449       4.132659       0.00600
  42    0.3336        1.3122        0.0000        5.4448        5.4448       4.132606       0.00617
  41    0.4307        1.3122        0.0000        5.4448        5.4448       4.132535       0.00620
  40    0.5894        1.3122        0.0000        5.4446        5.4446       4.132415       0.00637
  39     1.339        1.3122        0.0000        5.4439        5.4439       4.131708       0.00797
  38     1.782        1.3122        0.0000        5.4434        5.4434       4.131165       0.01034
  37     2.292        1.3122        0.0000        5.4427        5.4427       4.130449       0.01186
  36     2.964        1.3122        0.0000        5.4416        5.4416       4.129410       0.01304
  35     3.853        1.3122        0.0000        5.4402        5.4402       4.127933       0.01402
  34     5.035        1.3122        0.0000        5.4381        5.4381       4.125877       0.01468
  33     6.613        1.3122        0.0000        5.4353        5.4353       4.123096       0.01487
  32     8.786        1.3122        0.0000        5.4317        5.4317       4.119464       0.01411
  31     11.80        1.3122        0.0000        5.4269        5.4269       4.114683       0.01339
  30     15.07        1.3122        0.0000        5.4224        5.4224       4.110155       0.01169
  29     18.79        1.3122        0.0000        5.4180        5.4180       4.105742       0.01001
  28     23.16        1.3122        0.0000        5.4135        5.4135       4.101254       0.00868
  27     28.12        1.3122        0.0000        5.4088        5.4088       4.096603       0.00791
  26     33.73        1.3122        0.0000        5.4036        5.4036       4.091357       0.00789
  25     40.54        1.3123        0.0000        5.3966        5.3967       4.084409       0.00862
  24     48.69        1.3123        0.0000        5.3872        5.3872       4.074921       0.00982
  23     57.69        1.3123        0.0000        5.3754        5.3754       4.063121       0.01106
  22     68.43        1.3123        0.0000        5.3599        5.3599       4.047610       0.01219
  21     81.20        1.3123        0.0000        5.3401        5.3401       4.027743       0.01313
  20     96.49        1.3124        0.0000        5.3155        5.3155       4.003129       0.01359
  19     114.6        1.3126        0.0000        5.2674        5.2675       3.954869       0.02253
  18     136.5        1.3129        0.0001        5.2186        5.2187       3.905778       0.01888
  17     162.9        1.3133        0.0001        5.1697        5.1697       3.856445       0.01577
  16     196.4        1.3138        0.0001        5.1158        5.1159       3.802065       0.01369
  15     218.7        1.3143        0.0001        5.0803        5.0804       3.766071       0.01367
  14     243.0        1.3149        0.0001        5.0463        5.0464       3.731436       0.01201
  13     269.0        1.3157        0.0001        5.0068        5.0070       3.691227       0.01304
  12     297.5        1.3169        0.0001        4.9601        4.9602       3.643367       0.01420
  11     328.5        1.3184        0.0001        4.9026        4.9027       3.584309       0.01606
  10     361.9        1.3206        0.0001        4.8286        4.8288       3.508165       0.01927
   9     398.1        1.3237        0.0002        4.7310        4.7312       3.407479       0.02346
   8     437.6        1.3279        0.0002        4.6026        4.6027       3.274807       0.02837
   7     480.5        1.3339        0.0002        4.4385        4.4386       3.104721       0.03340
   6     533.0        1.3438        0.0002        4.2113        4.2115       2.867656       0.03814
   5     589.8        1.3585        0.0002        3.9547        3.9549       2.596427       0.04026
   4     651.6        1.3802        0.0002        3.6849        3.6851       2.304883       0.03987
   3     718.7        1.4114        0.0002        3.4137        3.4139       2.002479       0.03800
   2     792.3        1.4571        0.0002        3.1316        3.1318       1.674659       0.03760
   1     891.5        1.5459        0.0002        2.7697        2.7699       1.223960       0.03835
   0    1013.0        1.7173        0.0002        2.3912        2.3914       0.674117       0.03818



 Wavenumbers:  3250. -  4000. cm-1, ATM      1
 LEVEL PRESSURE   UPWARD FLUX   DIFDOWN FLUX  DIRDOWN FLUX  DOWNWARD FLUX   NET FLUX    HEATING RATE
          mb          W/m2          W/m2          W/m2        W/m2          W/m2       degree/day
  51    .06700        0.0026        0.0000        9.1795        9.1795       9.176971       0.00000
  50    .07753        0.0026        0.0000        9.1747        9.1747       9.172102       3.90286
  49    .09103        0.0026        0.0000        9.1713        9.1713       9.168783       2.07467
  48    0.1069        0.0026        0.0000        9.1689        9.1689       9.166376       1.28111
  47    0.1255        0.0026        0.0000        9.1668        9.1668       9.164256       0.96121
  46    0.1487        0.0026        0.0000        9.1645        9.1645       9.161983       0.82829
  45    0.1794        0.0026        0.0000        9.1619        9.1619       9.159314       0.73288
  44    0.2165        0.0026        0.0000        9.1592        9.1592       9.156625       0.61167
  43    0.2613        0.0026        0.0000        9.1565        9.1565       9.153928       0.50840
  42    0.3336        0.0026        0.0000        9.1528        9.1528       9.150231       0.43101
  41    0.4307        0.0026        0.0000        9.1487        9.1487       9.146133       0.35634
  40    0.5894        0.0026        0.0000        9.1428        9.1428       9.140240       0.31334
  39     1.339        0.0026        0.0000        9.1196        9.1196       9.117058       0.26099
  38     1.782        0.0026        0.0000        9.1090        9.1090       9.106475       0.20149
  37     2.292        0.0026        0.0000        5.8042        5.8042       5.801670      54.73620
  36     2.964        0.0026        0.0000        5.4305        5.4305       5.427968       4.69109
  35     3.853        0.0026        0.0000        5.2400        5.2400       5.237450       1.80805
  34     5.035        0.0026        0.0000        5.1174        5.1174       5.114795       0.87619
  33     6.613        0.0026        0.0000        5.0308        5.0308       5.028212       0.46287
  32     8.786        0.0026        0.0000        4.9668        4.9668       4.964189       0.24865
  31     11.80        0.0026        0.0000        4.9155        4.9155       4.912946       0.14346
  30     15.07        0.0026        0.0000        4.8811        4.8812       4.878564       0.08877
  29     18.79        0.0026        0.0000        4.8547        4.8547       4.852091       0.06002
  28     23.16        0.0026        0.0000        4.8313        4.8313       4.828740       0.04515
  27     28.12        0.0026        0.0000        4.8090        4.8091       4.806481       0.03784
  26     33.73        0.0026        0.0000        4.7874        4.7874       4.784832       0.03255
  25     40.54        0.0026        0.0000        4.7540        4.7541       4.751492       0.04136
  24     48.69        0.0026        0.0000        4.7187        4.7187       4.716131       0.03659
  23     57.69        0.0026        0.0000        4.6853        4.6853       4.682742       0.03130
  22     68.43        0.0026        0.0001        4.6513        4.6513       4.648773       0.02670
  21     81.20        0.0025        0.0001        4.6162        4.6162       4.613700       0.02318
  20     96.49        0.0025        0.0001        4.5796        4.5797       4.577175       0.02016
  19     114.6        0.0025        0.0001        4.5387        4.5387       4.536224       0.01912
  18     136.5        0.0025        0.0001        4.4914        4.4915       4.488982       0.01817
  17     162.9        0.0025        0.0001        4.4374        4.4375       4.435057       0.01724
  16     196.4        0.0025        0.0001        4.3635        4.3637       4.361185       0.01859
  15     218.7        0.0025        0.0002        4.2879        4.2880       4.285574       0.02871
  14     243.0        0.0024        0.0002        4.2062        4.2064       4.203948       0.02831
  13     269.0        0.0024        0.0002        4.0802        4.0804       4.077934       0.04088
  12     297.5        0.0024        0.0002        3.8974        3.8976       3.895190       0.05420
  11     328.5        0.0024        0.0002        3.6538        3.6540       3.651614       0.06623
  10     361.9        0.0024        0.0002        3.3532        3.3534       3.350949       0.07607
   9     398.1        0.0024        0.0002        3.0088        3.0089       3.006532       0.08024
   8     437.6        0.0024        0.0002        2.6395        2.6396       2.637203       0.07896
   7     480.5        0.0025        0.0002        2.2633        2.2635       2.261005       0.07388
   6     533.0        0.0026        0.0002        1.8374        1.8375       1.834909       0.06855
   5     589.8        0.0029        0.0001        1.4310        1.4311       1.428239       0.06036
   4     651.6        0.0033        0.0001        1.0430        1.0431       1.039817       0.05312
   3     718.7        0.0042        0.0001        0.7082        0.7083       0.704137       0.04219
   2     792.3        0.0060        0.0001        0.4403        0.4403       0.434311       0.03095
   1     891.5        0.0121        0.0000        0.1991        0.1991       0.187079       0.02104
   0    1013.0        0.0391        0.0000        0.0544        0.0544       0.015342       0.01192



 Wavenumbers:  4000. -  4650. cm-1, ATM      1
 LEVEL PRESSURE   UPWARD FLUX   DIFDOWN FLUX  DIRDOWN FLUX  DOWNWARD FLUX   NET FLUX    HEATING RATE
          mb          W/m2          W/m2          W/m2        W/m2          W/m2       degree/day
  51    .06700        4.8403        0.0000       10.7795       10.7795       5.939237       0.00000
  50    .07753        4.8403        0.0000       10.7795       10.7795       5.939236       0.00080
  49    .09103        4.8403        0.0000       10.7795       10.7795       5.939235       0.00078
  48    0.1069        4.8403        0.0000       10.7795       10.7795       5.939233       0.00076
  47    0.1255        4.8403        0.0000       10.7795       10.7795       5.939232       0.00075
  46    0.1487        4.8403        0.0000       10.7795       10.7795       5.939229       0.00076
  45    0.1794        4.8403        0.0000       10.7795       10.7795       5.939227       0.00078
  44    0.2165        4.8403        0.0000       10.7795       10.7795       5.939223       0.00076
  43    0.2613        4.8403        0.0000       10.7795       10.7795       5.939219       0.00075
  42    0.3336        4.8403        0.0000       10.7795       10.7795       5.939213       0.00077
  41    0.4307        4.8403        0.0000       10.7795       10.7795       5.939204       0.00077
  40    0.5894        4.8403        0.0000       10.7795       10.7795       5.939189       0.00080
  39     1.339        4.8403        0.0000       10.7794       10.7794       5.939100       0.00101
  38     1.782        4.8403        0.0000       10.7793       10.7793       5.939030       0.00133
  37     2.292        4.8403        0.0000       10.7792       10.7792       5.938936       0.00156
  36     2.964        4.8403        0.0000       10.7791       10.7791       5.938795       0.00176
  35     3.853        4.8403        0.0000       10.7789       10.7789       5.938587       0.00197
  34     5.035        4.8403        0.0000       10.7785       10.7786       5.938280       0.00219
  33     6.613        4.8403        0.0000       10.7781       10.7781       5.937828       0.00242
  32     8.786        4.8403        0.0000       10.7774       10.7774       5.937161       0.00259
  31     11.80        4.8403        0.0001       10.7763       10.7764       5.936113       0.00293
  30     15.07        4.8403        0.0001       10.7751       10.7752       5.934884       0.00317
  29     18.79        4.8403        0.0001       10.7736       10.7737       5.933396       0.00337
  28     23.16        4.8403        0.0001       10.7717       10.7718       5.931550       0.00357
  27     28.12        4.8403        0.0001       10.7694       10.7696       5.929314       0.00380
  26     33.73        4.8403        0.0002       10.7667       10.7668       5.926557       0.00415
  25     40.54        4.8403        0.0002       10.7629       10.7631       5.922817       0.00464
  24     48.69        4.8403        0.0002       10.7579       10.7581       5.917832       0.00516
  23     57.69        4.8403        0.0003       10.7520       10.7523       5.911921       0.00554
  22     68.43        4.8404        0.0003       10.7446       10.7449       5.904511       0.00582
  21     81.20        4.8405        0.0004       10.7355       10.7359       5.895385       0.00603
  20     96.49        4.8406        0.0005       10.7245       10.7249       5.884275       0.00613
  19     114.6        4.8411        0.0005       10.7008       10.7014       5.860256       0.01122
  18     136.5        4.8418        0.0006       10.6762       10.6768       5.835069       0.00968
  17     162.9        4.8427        0.0007       10.6493       10.6500       5.807378       0.00885
  16     196.4        4.8440        0.0009       10.6152       10.6161       5.772119       0.00888
  15     218.7        4.8452        0.0010       10.5897       10.5907       5.745550       0.01009
  14     243.0        4.8465        0.0011       10.5624       10.5635       5.716953       0.00992
  13     269.0        4.8484        0.0012       10.5284       10.5296       5.681137       0.01162
  12     297.5        4.8511        0.0013       10.4851       10.4864       5.635362       0.01358
  11     328.5        4.8547        0.0015       10.4285       10.4300       5.575303       0.01633
  10     361.9        4.8596        0.0016       10.3529       10.3545       5.494938       0.02033
   9     398.1        4.8658        0.0018       10.2526       10.2544       5.388617       0.02477
   8     437.6        4.8737        0.0019       10.1236       10.1256       5.251886       0.02923
   7     480.5        4.8838        0.0021        9.9673        9.9694       5.085595       0.03266
   6     533.0        4.8994        0.0023        9.7643        9.7666       4.867242       0.03513
   5     589.8        4.9213        0.0025        9.5398        9.5422       4.620946       0.03656
   4     651.6        4.9529        0.0027        9.2730        9.2757       4.322775       0.04078
   3     718.7        4.9980        0.0029        8.9499        8.9528       3.954734       0.04625
   2     792.3        5.0638        0.0031        8.5713        8.5744       3.510630       0.05093
   1     891.5        5.1901        0.0033        8.0724        8.0757       2.885657       0.05318
   0    1013.0        5.4278        0.0036        7.5546        7.5582       2.130373       0.05244



 Wavenumbers:  4650. -  5150. cm-1, ATM      1
 LEVEL PRESSURE   UPWARD FLUX   DIFDOWN FLUX  DIRDOWN FLUX  DOWNWARD FLUX   NET FLUX    HEATING RATE
          mb          W/m2          W/m2          W/m2        W/m2          W/m2       degree/day
  51    .06700        3.3460        0.0000       10.2033       10.2033       6.857298       0.00000
  50    .07753        3.3460        0.0000       10.2031       10.2031       6.857062       0.18883
  49    .09103        3.3460        0.0000       10.2028       10.2028       6.856768       0.18410
  48    0.1069        3.3460        0.0000       10.2025       10.2025       6.856431       0.17913
  47    0.1255        3.3460        0.0000       10.2021       10.2021       6.856047       0.17409
  46    0.1487        3.3460        0.0000       10.2016       10.2016       6.855567       0.17519
  45    0.1794        3.3460        0.0000       10.2010       10.2010       6.854917       0.17833
  44    0.2165        3.3460        0.0000       10.2002       10.2002       6.854158       0.17260
  43    0.2613        3.3460        0.0000       10.1993       10.1993       6.853274       0.16674
  42    0.3336        3.3460        0.0000       10.1979       10.1979       6.851843       0.16686
  41    0.4307        3.3460        0.0000       10.1960       10.1960       6.850004       0.15987
  40    0.5894        3.3460        0.0000       10.1932       10.1932       6.847133       0.15268
  39     1.339        3.3460        0.0000       10.1816       10.1816       6.835552       0.13038
  38     1.782        3.3460        0.0000       10.1761       10.1761       6.830028       0.10516
  37     2.292        3.3460        0.0000       10.1706       10.1706       6.824577       0.09029
  36     2.964        3.3460        0.0000       10.1647       10.1647       6.818659       0.07429
  35     3.853        3.3460        0.0000       10.1584       10.1585       6.812450       0.05893
  34     5.035        3.3460        0.0000       10.1521       10.1521       6.806119       0.04522
  33     6.613        3.3460        0.0001       10.1456       10.1457       6.799666       0.03450
  32     8.786        3.3460        0.0001       10.1386       10.1387       6.792659       0.02721
  31     11.80        3.3460        0.0001       10.1296       10.1296       6.783621       0.02530
  30     15.07        3.3460        0.0001       10.1197       10.1198       6.773743       0.02550
  29     18.79        3.3460        0.0001       10.1076       10.1078       6.761736       0.02722
  28     23.16        3.3461        0.0002       10.0923       10.0925       6.746429       0.02960
  27     28.12        3.3461        0.0002       10.0732       10.0734       6.727331       0.03247
  26     33.73        3.3461        0.0002       10.0501       10.0504       6.704229       0.03473
  25     40.54        3.3462        0.0003       10.0202       10.0205       6.674311       0.03712
  24     48.69        3.3463        0.0003        9.9821        9.9824       6.636115       0.03953
  23     57.69        3.3465        0.0004        9.9386        9.9390       6.592540       0.04085
  22     68.43        3.3467        0.0005        9.8859        9.8864       6.539750       0.04150
  21     81.20        3.3469        0.0005        9.8237        9.8242       6.477270       0.04129
  20     96.49        3.3474        0.0006        9.7520        9.7527       6.405316       0.03971
  19     114.6        3.3480        0.0008        9.6684        9.6691       6.321063       0.03934
  18     136.5        3.3490        0.0009        9.5791        9.5800       6.230998       0.03463
  17     162.9        3.3503        0.0010        9.4849        9.4859       6.135659       0.03047
  16     196.4        3.3522        0.0012        9.3765        9.3777       6.025538       0.02772
  15     218.7        3.3538        0.0014        9.3083        9.3097       5.955901       0.02644
  14     243.0        3.3558        0.0015        9.2365        9.2380       5.882220       0.02555
  13     269.0        3.3583        0.0017        9.1562        9.1578       5.799526       0.02683
  12     297.5        3.3617        0.0018        9.0634        9.0653       5.703526       0.02847
  11     328.5        3.3663        0.0020        8.9548        8.9568       5.590495       0.03073
  10     361.9        3.3723        0.0022        8.8272        8.8294       5.457106       0.03375
   9     398.1        3.3801        0.0024        8.6753        8.6777       5.297587       0.03716
   8     437.6        3.3904        0.0026        8.4955        8.4981       5.107721       0.04059
   7     480.5        3.4039        0.0027        8.2838        8.2865       4.882625       0.04421
   6     533.0        3.4248        0.0030        8.0005        8.0035       4.578687       0.04889
   5     589.8        3.4535        0.0032        7.6793        7.6825       4.228909       0.05192
   4     651.6        3.4937        0.0034        7.3237        7.3271       3.833401       0.05409
   3     718.7        3.5491        0.0036        6.9522        6.9558       3.406635       0.05363
   2     792.3        3.6275        0.0038        6.5711        6.5749       2.947365       0.05267
   1     891.5        3.7709        0.0040        6.1003        6.1043       2.333433       0.05224
   0    1013.0        4.0221        0.0043        5.5962        5.6005       1.578460       0.05242



 Wavenumbers:  5150. -  6150. cm-1, ATM      1
 LEVEL PRESSURE   UPWARD FLUX   DIFDOWN FLUX  DIRDOWN FLUX  DOWNWARD FLUX   NET FLUX    HEATING RATE
          mb          W/m2          W/m2          W/m2        W/m2          W/m2       degree/day
  51    .06700        8.4150        0.0000       25.5798       25.5798      17.164788       0.00000
  50    .07753        8.4150        0.0000       25.5798       25.5798      17.164788       0.00022
  49    .09103        8.4150        0.0000       25.5798       25.5798      17.164788       0.00021
  48    0.1069        8.4150        0.0000       25.5798       25.5798      17.164787       0.00021
  47    0.1255        8.4150        0.0000       25.5798       25.5798      17.164787       0.00020
  46    0.1487        8.4150        0.0000       25.5798       25.5798      17.164786       0.00021
  45    0.1794        8.4150        0.0000       25.5798       25.5798      17.164785       0.00021
  44    0.2165        8.4150        0.0000       25.5798       25.5798      17.164784       0.00021
  43    0.2613        8.4150        0.0000       25.5798       25.5798      17.164783       0.00021
  42    0.3336        8.4150        0.0000       25.5798       25.5798      17.164781       0.00021
  41    0.4307        8.4150        0.0000       25.5798       25.5798      17.164779       0.00021
  40    0.5894        8.4150        0.0000       25.5798       25.5798      17.164775       0.00022
  39     1.339        8.4150        0.0000       25.5797       25.5798      17.164750       0.00028
  38     1.782        8.4150        0.0001       25.5797       25.5797      17.164731       0.00037
  37     2.292        8.4173        0.0001       22.7644       22.7645      14.347149      46.66651
  36     2.964        8.4184        0.0001       22.3955       22.3957      13.977272       4.64307
  35     3.853        8.4191        0.0001       22.1966       22.1968      13.777678       1.89418
  34     5.035        8.4197        0.0002       22.0677       22.0679      13.648206       0.92489
  33     6.613        8.4201        0.0002       21.9774       21.9777      13.557581       0.48448
  32     8.786        8.4204        0.0003       21.9119       21.9122      13.491719       0.25578
  31     11.80        8.4208        0.0004       21.8606       21.8610      13.440231       0.14415
  30     15.07        8.4210        0.0005       21.8272       21.8276      13.406648       0.08670
  29     18.79        8.4212        0.0006       21.8024       21.8029      13.381740       0.05648
  28     23.16        8.4214        0.0007       21.7815       21.7821      13.360787       0.04052
  27     28.12        8.4215        0.0008       21.7626       21.7634      13.341831       0.03222
  26     33.73        8.4217        0.0009       21.7451       21.7461      13.324346       0.02629
  25     40.54        8.4221        0.0011       21.7169       21.7180      13.295924       0.03526
  24     48.69        8.4225        0.0013       21.6880       21.6893      13.266816       0.03012
  23     57.69        8.4230        0.0016       21.6610       21.6626      13.239633       0.02548
  22     68.43        8.4235        0.0019       21.6337       21.6356      13.212114       0.02163
  21     81.20        8.4241        0.0022       21.6062       21.6084      13.184291       0.01839
  20     96.49        8.4248        0.0026       21.5782       21.5808      13.155997       0.01562
  19     114.6        8.4257        0.0031       21.5476       21.5507      13.124992       0.01448
  18     136.5        8.4267        0.0037       21.5132       21.5169      13.090136       0.01340
  17     162.9        8.4279        0.0043       21.4756       21.4799      13.051997       0.01219
  16     196.4        8.4295        0.0052       21.4268       21.4320      13.002580       0.01244
  15     218.7        8.4305        0.0058       21.3779       21.3837      12.953146       0.01877
  14     243.0        8.4316        0.0064       21.3241       21.3305      12.898917       0.01881
  13     269.0        8.4330        0.0071       21.2333       21.2404      12.807460       0.02967
  12     297.5        8.4346        0.0078       21.0817       21.0895      12.654876       0.04526
  11     328.5        8.4367        0.0085       20.8390       20.8475      12.410819       0.06636
  10     361.9        8.4394        0.0093       20.4686       20.4779      12.038456       0.09421
   9     398.1        8.4431        0.0100       19.9402       19.9501      11.507072       0.12380
   8     437.6        8.4481        0.0107       19.2414       19.2520      10.803967       0.15033
   7     480.5        8.4551        0.0113       18.4004       18.4117       9.956627       0.16641
   6     533.0        8.4670        0.0120       17.3609       17.3729       8.905952       0.16902
   5     589.8        8.4854        0.0127       16.3640       16.3767       7.891267       0.15061
   4     651.6        8.5148        0.0135       15.4815       15.4950       6.980183       0.12459
   3     718.7        8.5609        0.0143       14.7663       14.7807       6.219774       0.09556
   2     792.3        8.6349        0.0153       14.1640       14.1793       5.544416       0.07746
   1     891.5        8.7935        0.0166       13.4672       13.4838       4.690291       0.07268
   0    1013.0        9.1343        0.0180       12.7001       12.7182       3.583877       0.07682



 Wavenumbers:  6150. -  7700. cm-1, ATM      1
 LEVEL PRESSURE   UPWARD FLUX   DIFDOWN FLUX  DIRDOWN FLUX  DOWNWARD FLUX   NET FLUX    HEATING RATE
          mb          W/m2          W/m2          W/m2        W/m2          W/m2       degree/day
  51    .06700       12.9276        0.0000       47.3109       47.3109      34.383226       0.00000
  50    .07753       12.9276        0.0000       47.3108       47.3108      34.383210       0.01303
  49    .09103       12.9276        0.0000       47.3108       47.3108      34.383189       0.01277
  48    0.1069       12.9276        0.0000       47.3108       47.3108      34.383166       0.01250
  47    0.1255       12.9276        0.0000       47.3108       47.3108      34.383139       0.01223
  46    0.1487       12.9276        0.0000       47.3107       47.3107      34.383105       0.01241
  45    0.1794       12.9276        0.0000       47.3107       47.3107      34.383058       0.01276
  44    0.2165       12.9276        0.0000       47.3106       47.3106      34.383003       0.01252
  43    0.2613       12.9276        0.0000       47.3105       47.3106      34.382938       0.01228
  42    0.3336       12.9276        0.0000       47.3104       47.3104      34.382830       0.01256
  41    0.4307       12.9276        0.0000       47.3102       47.3103      34.382688       0.01242
  40    0.5894       12.9276        0.0001       47.3100       47.3100      34.382454       0.01240
  39     1.339       12.9275        0.0002       47.3087       47.3089      34.381353       0.01240
  38     1.782       12.9275        0.0002       47.3080       47.3082      34.380707       0.01230
  37     2.292       12.9295        0.0004       42.5769       42.5773      29.647767      78.38982
  36     2.964       12.9305        0.0005       42.0438       42.0443      29.113737       6.70369
  35     3.853       12.9312        0.0006       41.7556       41.7562      28.825033       2.73985
  34     5.035       12.9317        0.0007       41.5702       41.5709      28.639247       1.32718
  33     6.613       12.9320        0.0009       41.4418       41.4427      28.510778       0.68680
  32     8.786       12.9321        0.0012       41.3496       41.3508      28.418680       0.35767
  31     11.80       12.9321        0.0015       41.2785       41.2800      28.347831       0.19835
  30     15.07       12.9321        0.0019       41.2327       41.2345      28.302474       0.11710
  29     18.79       12.9319        0.0023       41.1991       41.2014      28.269430       0.07492
  28     23.16       12.9317        0.0028       41.1711       41.1738      28.242101       0.05284
  27     28.12       12.9315        0.0033       41.1459       41.1492      28.217792       0.04132
  26     33.73       12.9311        0.0039       41.1231       41.1271      28.195932       0.03287
  25     40.54       12.9308        0.0047       41.0871       41.0918      28.161018       0.04332
  24     48.69       12.9303        0.0056       41.0511       41.0567      28.126370       0.03585
  23     57.69       12.9298        0.0066       41.0182       41.0247      28.094899       0.02950
  22     68.43       12.9292        0.0077       40.9852       40.9930      28.063774       0.02447
  21     81.20       12.9284        0.0092       40.9521       40.9612      28.032829       0.02045
  20     96.49       12.9275        0.0108       40.9182       40.9291      28.001611       0.01723
  19     114.6       12.9263        0.0128       40.8798       40.8926      27.966258       0.01651
  18     136.5       12.9250        0.0152       40.8349       40.8501      27.925074       0.01584
  17     162.9       12.9235        0.0180       40.7823       40.8003      27.876854       0.01541
  16     196.4       12.9215        0.0217       40.7075       40.7291      27.807610       0.01743
  15     218.7       12.9204        0.0241       40.6252       40.6493      27.728897       0.02988
  14     243.0       12.9192        0.0267       40.5323       40.5589      27.639733       0.03092
  13     269.0       12.9182        0.0295       40.3730       40.4025      27.484338       0.05041
  12     297.5       12.9175        0.0324       40.1065       40.1389      27.221368       0.07799
  11     328.5       12.9176        0.0355       39.6780       39.7135      26.795862       0.11569
  10     361.9       12.9189        0.0385       39.0184       39.0570      26.138061       0.16643
   9     398.1       12.9223        0.0416       38.0617       38.1033      25.180949       0.22299
   8     437.6       12.9291        0.0445       36.7719       36.8163      23.887222       0.27661
   7     480.5       12.9413        0.0471       35.1652       35.2123      22.271039       0.31741
   6     533.0       12.9658        0.0497       33.0466       33.0964      20.130558       0.34434
   5     589.8       13.0083        0.0521       30.8147       30.8668      17.858498       0.33725
   4     651.6       13.0806        0.0543       28.5884       28.6427      15.562095       0.31404
   3     718.7       13.1975        0.0565       26.5031       26.5596      13.362148       0.27647
   2     792.3       13.3871        0.0587       24.5578       24.6165      11.229359       0.24461
   1     891.5       13.7919        0.0615       22.3809       22.4424       8.650461       0.21945
   0    1013.0       14.6500        0.0650       20.3291       20.3941       5.744169       0.20180



 Wavenumbers:  7700. -  8050. cm-1, ATM      1
 LEVEL PRESSURE   UPWARD FLUX   DIFDOWN FLUX  DIRDOWN FLUX  DOWNWARD FLUX   NET FLUX    HEATING RATE
          mb          W/m2          W/m2          W/m2        W/m2          W/m2       degree/day
  51    .06700        6.4162        0.0000       11.1810       11.1810       4.764762       0.00000
  50    .07753        6.4162        0.0000       11.1809       11.1809       4.764739       0.01767
  49    .09103        6.4162        0.0000       11.1809       11.1809       4.764712       0.01732
  48    0.1069        6.4162        0.0000       11.1809       11.1809       4.764680       0.01695
  47    0.1255        6.4162        0.0000       11.1809       11.1809       4.764643       0.01659
  46    0.1487        6.4162        0.0000       11.1808       11.1808       4.764597       0.01683
  45    0.1794        6.4162        0.0000       11.1808       11.1808       4.764534       0.01732
  44    0.2165        6.4163        0.0000       11.1807       11.1807       4.764459       0.01699
  43    0.2613        6.4163        0.0000       11.1806       11.1806       4.764371       0.01667
  42    0.3336        6.4163        0.0000       11.1805       11.1805       4.764225       0.01706
  41    0.4307        6.4163        0.0000       11.1803       11.1804       4.764030       0.01688
  40    0.5894        6.4164        0.0000       11.1801       11.1801       4.763713       0.01686
  39     1.339        6.4167        0.0001       11.1788       11.1789       4.762214       0.01688
  38     1.782        6.4168        0.0001       11.1781       11.1782       4.761333       0.01677
  37     2.292        6.4170        0.0002       11.1771       11.1773       4.760313       0.01689
  36     2.964        6.4172        0.0002       11.1760       11.1762       4.758974       0.01681
  35     3.853        6.4176        0.0003       11.1745       11.1748       4.757206       0.01678
  34     5.035        6.4180        0.0004       11.1725       11.1728       4.754856       0.01678
  33     6.613        6.4186        0.0005       11.1698       11.1703       4.751718       0.01678
  32     8.786        6.4193        0.0006       11.1662       11.1668       4.747491       0.01642
  31     11.80        6.4205        0.0008       11.1611       11.1619       4.741447       0.01692
  30     15.07        6.4217        0.0010       11.1557       11.1566       4.734964       0.01674
  29     18.79        6.4230        0.0012       11.1495       11.1507       4.727646       0.01659
  28     23.16        6.4246        0.0014       11.1424       11.1438       4.719110       0.01651
  27     28.12        6.4265        0.0017       11.1342       11.1359       4.709363       0.01657
  26     33.73        6.4286        0.0020       11.1250       11.1270       4.698476       0.01637
  25     40.54        6.4311        0.0024       11.1140       11.1164       4.685352       0.01628
  24     48.69        6.4341        0.0028       11.1008       11.1037       4.669574       0.01633
  23     57.69        6.4375        0.0033       11.0864       11.0898       4.652301       0.01619
  22     68.43        6.4415        0.0039       11.0694       11.0733       4.631808       0.01611
  21     81.20        6.4463        0.0046       11.0492       11.0538       4.607507       0.01606
  20     96.49        6.4521        0.0055       11.0254       11.0309       4.578713       0.01589
  19     114.6        6.4591        0.0065       10.9973       11.0038       4.544666       0.01590
  18     136.5        6.4675        0.0077       10.9645       10.9721       4.504634       0.01539
  17     162.9        6.4776        0.0091       10.9259       10.9350       4.457394       0.01510
  16     196.4        6.4910        0.0109       10.8768       10.8877       4.396769       0.01526
  15     218.7        6.4999        0.0121       10.8450       10.8572       4.357253       0.01500
  14     243.0        6.5097        0.0134       10.8109       10.8243       4.314589       0.01480
  13     269.0        6.5206        0.0148       10.7743       10.7892       4.268571       0.01493
  12     297.5        6.5326        0.0164       10.7352       10.7516       4.219002       0.01470
  11     328.5        6.5458        0.0180       10.6933       10.7113       4.165500       0.01455
  10     361.9        6.5605        0.0198       10.6485       10.6682       4.107766       0.01461
   9     398.1        6.5769        0.0217       10.6004       10.6221       4.045213       0.01457
   8     437.6        6.5952        0.0237       10.5486       10.5724       3.977127       0.01456
   7     480.5        6.6160        0.0259       10.4928       10.5187       3.902731       0.01461
   6     533.0        6.6431        0.0286       10.4230       10.4516       3.808440       0.01517
   5     589.8        6.6749        0.0315       10.3458       10.3773       3.702482       0.01573
   4     651.6        6.7123        0.0346       10.2597       10.2943       3.582012       0.01647
   3     718.7        6.7568        0.0379       10.1633       10.2012       3.444323       0.01730
   2     792.3        6.8103        0.0414       10.0547       10.0961       3.285797       0.01818
   1     891.5        6.8928        0.0461        9.8995        9.9455       3.052768       0.01983
   0    1013.0        7.0082        0.0516        9.7023        9.7539       2.745712       0.02132



 Wavenumbers:  8050. - 12850. cm-1, ATM      1
 LEVEL PRESSURE   UPWARD FLUX   DIFDOWN FLUX  DIRDOWN FLUX  DOWNWARD FLUX   NET FLUX    HEATING RATE
          mb          W/m2          W/m2          W/m2        W/m2          W/m2       degree/day
  51    .06700       81.7240        0.0000      156.5418      156.5418      74.817749       0.00000
  50    .07753       81.7240        0.0000      156.5417      156.5417      74.817749       0.00000
  49    .09103       81.7240        0.0001      156.5417      156.5417      74.817749       0.00000
  48    0.1069       81.7240        0.0001      156.5416      156.5417      74.817749      -0.00000
  47    0.1255       81.7239        0.0002      156.5415      156.5417      74.817749       0.00000
  46    0.1487       81.7239        0.0002      156.5414      156.5417      74.817749      -0.00000
  45    0.1794       81.7239        0.0003      156.5413      156.5416      74.817749       0.00000
  44    0.2165       81.7238        0.0004      156.5412      156.5416      74.817749       0.00000
  43    0.2613       81.7238        0.0005      156.5410      156.5415      74.817749      -0.00000
  42    0.3336       81.7237        0.0007      156.5407      156.5414      74.817749      -0.00000
  41    0.4307       81.7236        0.0010      156.5403      156.5413      74.817749       0.00000
  40    0.5894       81.7234        0.0014      156.5397      156.5411      74.817749      -0.00000
  39     1.339       81.7224        0.0035      156.5367      156.5402      74.817749      -0.00000
  38     1.782       81.7219        0.0047      156.5350      156.5397      74.817749       0.00000
  37     2.292       81.7200        0.0089      156.5288      156.5377      74.817749       0.00000
  36     2.964       81.7188        0.0117      156.5248      156.5365      74.817749       0.00000
  35     3.853       81.7175        0.0146      156.5206      156.5352      74.817749      -0.00000
  34     5.035       81.7159        0.0180      156.5156      156.5336      74.817749       0.00000
  33     6.613       81.7139        0.0225      156.5092      156.5317      74.817749      -0.00000
  32     8.786       81.7113        0.0284      156.5007      156.5290      74.817749       0.00000
  31     11.80       81.7075        0.0367      156.4886      156.5253      74.817749       0.00000
  30     15.07       81.7035        0.0456      156.4757      156.5213      74.817749       0.00000
  29     18.79       81.6990        0.0557      156.4611      156.5168      74.817749      -0.00000
  28     23.16       81.6937        0.0674      156.4440      156.5115      74.817749       0.00000
  27     28.12       81.6877        0.0809      156.4245      156.5054      74.817749      -0.00000
  26     33.73       81.6809        0.0960      156.4027      156.4986      74.817749       0.00000
  25     40.54       81.6727        0.1142      156.3762      156.4905      74.817749      -0.00000
  24     48.69       81.6628        0.1363      156.3443      156.4806      74.817749      -0.00000
  23     57.69       81.6519        0.1605      156.3092      156.4697      74.817749       0.00000
  22     68.43       81.6389        0.1894      156.2673      156.4567      74.817749       0.00000
  21     81.20       81.6234        0.2239      156.2173      156.4412      74.817749      -0.00000
  20     96.49       81.6049        0.2650      156.1577      156.4227      74.817749       0.00000
  19     114.6       81.5879        0.3138      155.9264      156.2402      74.652306       0.07725
  18     136.5       81.5663        0.3718      155.6992      156.0710      74.504671       0.05677
  17     162.9       81.5389        0.4409      155.4690      155.9099      74.370994       0.04273
  16     196.4       81.5015        0.5309      155.1919      155.7228      74.221312       0.03768
  15     218.7       81.4768        0.5899      154.9653      155.5553      74.078513       0.05422
  14     243.0       81.4495        0.6543      154.7365      155.3908      73.941251       0.04761
  13     269.0       81.4210        0.7240      154.4283      155.1523      73.731368       0.06809
  12     297.5       81.3920        0.7992      154.0178      154.8171      73.425101       0.09084
  11     328.5       81.3638        0.8803      153.4751      154.3554      72.991614       0.11786
  10     361.9       81.3387        0.9672      152.7508      153.7180      72.379288       0.15492
   9     398.1       81.3204        1.0601      151.7750      152.8350      71.514675       0.20144
   8     437.6       81.3144        1.1585      150.4777      151.6363      70.321834       0.25504
   7     480.5       81.3298        1.2623      148.8030      150.0653      68.735454       0.31156
   6     533.0       81.3899        1.3873      146.3719      147.7592      66.369290       0.38064
   5     589.8       81.5216        1.5181      143.3751      144.8932      63.371621       0.44495
   4     651.6       81.7711        1.6535      139.8007      141.4542      59.683112       0.50441
   3     718.7       82.1918        1.7938      135.8320      137.6258      55.434035       0.53399
   2     792.3       82.8880        1.9378      131.4655      133.4033      50.515304       0.56412
   1     891.5       84.3653        2.1226      125.5830      127.7056      43.340306       0.61056
   0    1013.0       87.2916        2.3340      118.9784      121.3124      34.020803       0.64710



 Wavenumbers: 12850. - 16000. cm-1, ATM      1
 LEVEL PRESSURE   UPWARD FLUX   DIFDOWN FLUX  DIRDOWN FLUX  DOWNWARD FLUX   NET FLUX    HEATING RATE
          mb          W/m2          W/m2          W/m2        W/m2          W/m2       degree/day
  51    .06700       73.0789        0.0000       98.0872       98.0872      25.008298       0.00000
  50    .07753       73.0789        0.0001       98.0864       98.0864      25.007507       0.63371
  49    .09103       73.0789        0.0002       98.0853       98.0854      25.006514       0.62054
  48    0.1069       73.0789        0.0003       98.0841       98.0843      25.005374       0.60709
  47    0.1255       73.0789        0.0004       98.0826       98.0830      25.004064       0.59391
  46    0.1487       73.0790        0.0005       98.0809       98.0814      25.002411       0.60249
  45    0.1794       73.0790        0.0007       98.0784       98.0792      25.000163       0.61709
  44    0.2165       73.0790        0.0009       98.0756       98.0766      24.997520       0.60130
  43    0.2613       73.0791        0.0012       98.0723       98.0736      24.994413       0.58570
  42    0.3336       73.0793        0.0017       98.0670       98.0687      24.989344       0.59098
  41    0.4307       73.0797        0.0023       98.0602       98.0625      24.982793       0.56960
  40    0.5894       73.0804        0.0033       98.0496       98.0529      24.972479       0.54847
  39     1.339       73.0864        0.0080       98.0043       98.0123      24.925901       0.52438
  38     1.782       73.0919        0.0107       97.9793       97.9900      24.898041       0.53042
  37     2.292       73.0980        0.0205       97.9409       97.9614      24.863412       0.57355
  36     2.964       73.1111        0.0268       97.8971       97.9239      24.812841       0.63481
  35     3.853       73.1330        0.0334       97.8372       97.8706      24.737613       0.71393
  34     5.035       73.1663        0.0413       97.7540       97.7953      24.629018       0.77576
  33     6.613       73.2130        0.0515       97.6417       97.6931      24.480115       0.79604
  32     8.786       73.2740        0.0649       97.4958       97.5607      24.286739       0.75100
  31     11.80       73.3533        0.0838       97.3028       97.3866      24.033343       0.70943
  30     15.07       73.4292        0.1040       97.1132       97.2172      23.787961       0.63353
  29     18.79       73.5068        0.1268       96.9148       97.0416      23.534829       0.57393
  28     23.16       73.5878        0.1534       96.7013       96.8547      23.266876       0.51813
  27     28.12       73.6693        0.1838       96.4781       96.6619      22.992615       0.46623
  26     33.73       73.7446        0.2178       96.2577       96.4755      22.730912       0.39348
  25     40.54       73.8170        0.2588       96.0254       96.2842      22.467184       0.32718
  24     48.69       73.8864        0.3083       95.7791       96.0875      22.201081       0.27538
  23     57.69       73.9452        0.3627       95.5418       95.9045      21.959346       0.22659
  22     68.43       73.9963        0.4275       95.2951       95.7226      21.726291       0.18321
  21     81.20       74.0314        0.5048       95.0488       95.5536      21.522202       0.13486
  20     96.49       74.0493        0.5970       94.7998       95.3968      21.347422       0.09647
  19     114.6       74.0705        0.7076       94.5230       95.2306      21.160034       0.08750
  18     136.5       74.0850        0.8386       94.2115       95.0501      20.965116       0.07495
  17     162.9       74.0925        0.9946       93.8525       94.8471      20.754568       0.06730
  16     196.4       74.0816        1.1969       93.4092       94.6061      20.524474       0.05792
  15     218.7       74.0672        1.3297       93.1235       94.4532      20.385947       0.05259
  14     243.0       74.0482        1.4741       92.8153       94.2894      20.241195       0.05020
  13     269.0       74.0245        1.6305       92.4825       94.1130      20.088476       0.04954
  12     297.5       73.9964        1.7995       92.1228       93.9222      19.925845       0.04823
  11     328.5       73.9659        1.9820       91.7311       93.7132      19.747277       0.04855
  10     361.9       73.9340        2.1785       91.3041       93.4826      19.548602       0.05027
   9     398.1       73.9024        2.3899       90.8363       93.2262      19.323880       0.05236
   8     437.6       73.8737        2.6168       90.3197       92.9365      19.062750       0.05583
   7     480.5       73.8519        2.8597       89.7449       92.6046      18.752737       0.06089
   6     533.0       73.8422        3.1580       88.9998       92.1578      18.315540       0.07033
   5     589.8       73.8600        3.4785       88.1430       91.6215      17.761584       0.08223
   4     651.6       73.9231        3.8212       87.1495       90.9707      17.047548       0.09765
   3     718.7       74.0422        4.1855       86.0259       90.2114      16.169246       0.11038
   2     792.3       74.2475        4.5702       84.7560       89.3262      15.078656       0.12508
   1     891.5       74.6819        5.0798       82.9606       88.0404      13.358515       0.14638
   0    1013.0       75.4656        5.6802       80.7759       86.4561      10.990441       0.16443



 Wavenumbers: 16000. - 22650. cm-1, ATM      1
 LEVEL PRESSURE   UPWARD FLUX   DIFDOWN FLUX  DIRDOWN FLUX  DOWNWARD FLUX   NET FLUX    HEATING RATE
          mb          W/m2          W/m2          W/m2        W/m2          W/m2       degree/day
  51    .06700      140.6733        0.0000      156.3892      156.3892      15.715931       0.00000
  50    .07753      140.6733        0.0004      156.3887      156.3891      15.715784       0.11826
  49    .09103      140.6733        0.0009      156.3879      156.3888      15.715569       0.13413
  48    0.1069      140.6733        0.0015      156.3871      156.3885      15.715282       0.15295
  47    0.1255      140.6733        0.0021      156.3861      156.3882      15.714897       0.17435
  46    0.1487      140.6733        0.0030      156.3847      156.3877      15.714330       0.20660
  45    0.1794      140.6735        0.0041      156.3828      156.3869      15.713444       0.24325
  44    0.2165      140.6737        0.0054      156.3805      156.3859      15.712242       0.27339
  43    0.2613      140.6740        0.0070      156.3776      156.3846      15.710612       0.30735
  42    0.3336      140.6748        0.0096      156.3726      156.3823      15.707512       0.36144
  41    0.4307      140.6760        0.0131      156.3657      156.3788      15.702839       0.40630
  40    0.5894      140.6786        0.0188      156.3537      156.3725      15.693927       0.47393
  39     1.339      140.7011        0.0458      156.2834      156.3292      15.628083       0.74128
  38     1.782      140.7220        0.0616      156.2324      156.2940      15.571992       1.06788
  37     2.292      140.7445        0.1180      156.1173      156.2353      15.490803       1.34471
  36     2.964      140.7937        0.1542      155.9987      156.1530      15.359280       1.65101
  35     3.853      140.8763        0.1922      155.8347      156.0269      15.150589       1.98052
  34     5.035      141.0022        0.2379      155.6036      155.8415      14.839241       2.22414
  33     6.613      141.1789        0.2962      155.2893      155.5855      14.406560       2.31311
  32     8.786      141.4094        0.3730      154.8799      155.2529      13.843547       2.18654
  31     11.80      141.7095        0.4817      154.3368      154.8185      13.108963       2.05660
  30     15.07      141.9971        0.5979      153.8016      154.3994      12.402319       1.82442
  29     18.79      142.2908        0.7286      153.2402      153.9689      11.678076       1.64208
  28     23.16      142.5977        0.8810      152.6337      153.5148      10.917086       1.47151
  27     28.12      142.9065        1.0550      151.9968      153.0518      10.145318       1.31195
  26     33.73      143.1914        1.2494      151.3624      152.6118       9.420398       1.08994
  25     40.54      143.4656        1.4842      150.6853      152.1695       8.703918       0.88887
  24     48.69      143.7280        1.7669      149.9557      151.7226       7.994595       0.73404
  23     57.69      143.9503        2.0771      149.2372      151.3143       7.363938       0.59115
  22     68.43      144.1441        2.4460      148.4700      150.9160       6.771919       0.46541
  21     81.20      144.2776        2.8854      147.6744      150.5597       6.282183       0.32361
  20     96.49      144.3462        3.4083      146.8357      150.2441       5.897865       0.21212
  19     114.6      144.3815        4.0275      145.8994      149.9269       5.545408       0.16457
  18     136.5      144.3920        4.7586      144.8321      149.5906       5.198679       0.13333
  17     162.9      144.3758        5.6251      143.6021      149.2272       4.851386       0.11101
  16     196.4      144.2932        6.7431      142.0890      148.8321       4.538883       0.07866
  15     218.7      144.2165        7.4738      141.1274      148.6012       4.384637       0.05856
  14     243.0      144.1226        8.2645      140.0998      148.3643       4.241685       0.04958
  13     269.0      144.0101        9.1176      139.0047      148.1223       4.112244       0.04199
  12     297.5      143.8781       10.0350      137.8400      147.8750       3.996919       0.03420
  11     328.5      143.7309       11.0211      136.5946      147.6157       3.884792       0.03049
  10     361.9      143.5682       12.0768      135.2672      147.3440       3.775768       0.02758
   9     398.1      143.3897       13.2061      133.8524      147.0584       3.668714       0.02494
   8     437.6      143.1965       14.4110      132.3458      146.7568       3.560316       0.02318
   7     480.5      142.9884       15.6937      130.7442      146.4379       3.449448       0.02177
   6     533.0      142.7335       17.2604      128.7881      146.0485       3.314977       0.02163
   5     589.8      142.4635       18.9344      126.6944      145.6288       3.165268       0.02222
   4     651.6      142.1821       20.7169      124.4568      145.1737       2.991647       0.02374
   3     718.7      141.8919       22.6096      122.0708      144.6804       2.788452       0.02554
   2     792.3      141.6013       24.6103      119.5309      144.1412       2.539826       0.02851
   1     891.5      141.2488       27.2665      116.1264      143.3930       2.144183       0.03367
   0    1013.0      140.8758       30.3889      112.0947      142.4836       1.607771       0.03725



 Wavenumbers: 22650. - 29000. cm-1, ATM      1
 LEVEL PRESSURE   UPWARD FLUX   DIFDOWN FLUX  DIRDOWN FLUX  DOWNWARD FLUX   NET FLUX    HEATING RATE
          mb          W/m2          W/m2          W/m2        W/m2          W/m2       degree/day
  51    .06700       58.3821        0.0000       59.0156       59.0156       0.633478       0.00000
  50    .07753       58.3820        0.0005       59.0151       59.0155       0.633478      -0.00000
  49    .09103       58.3819        0.0010       59.0144       59.0154       0.633478       0.00000
  48    0.1069       58.3818        0.0017       59.0136       59.0153       0.633478       0.00000
  47    0.1255       58.3816        0.0025       59.0127       59.0151       0.633478      -0.00000
  46    0.1487       58.3815        0.0034       59.0115       59.0149       0.633478       0.00000
  45    0.1794       58.3812        0.0048       59.0099       59.0147       0.633478      -0.00000
  44    0.2165       58.3809        0.0063       59.0080       59.0144       0.633478       0.00000
  43    0.2613       58.3805        0.0082       59.0058       59.0140       0.633478      -0.00000
  42    0.3336       58.3799        0.0113       59.0022       59.0134       0.633478       0.00000
  41    0.4307       58.3791        0.0153       58.9973       59.0126       0.633478      -0.00000
  40    0.5894       58.3778        0.0220       58.9894       59.0113       0.633478       0.00000
  39     1.339       58.3717        0.0534       58.9518       59.0052       0.633478       0.00000
  38     1.782       58.3681        0.0719       58.9297       59.0016       0.633478       0.00000
  37     2.292       58.3553        0.1376       58.8512       58.9888       0.633478       0.00000
  36     2.964       58.3471        0.1798       58.8007       58.9805       0.633478       0.00000
  35     3.853       58.3384        0.2241       58.7478       58.9719       0.633478      -0.00000
  34     5.035       58.3280        0.2775       58.6840       58.9615       0.633478       0.00000
  33     6.613       58.3147        0.3456       58.6027       58.9482       0.633478       0.00000
  32     8.786       58.2972        0.4354       58.4953       58.9307       0.633478       0.00000
  31     11.80       58.2725        0.5625       58.3435       58.9059       0.633478      -0.00000
  30     15.07       58.2460        0.6981       58.1813       58.8795       0.633478       0.00000
  29     18.79       58.2162        0.8508       57.9989       58.8497       0.633478      -0.00000
  28     23.16       58.1815        1.0286       57.7864       58.8150       0.633478       0.00000
  27     28.12       58.1420        1.2312       57.5443       58.7755       0.633478      -0.00000
  26     33.73       58.0979        1.4571       57.2743       58.7314       0.633478       0.00000
  25     40.54       58.0449        1.7289       56.9495       58.6784       0.633478       0.00000
  24     48.69       57.9813        2.0548       56.5600       58.6147       0.633478      -0.00000
  23     57.69       57.9118        2.4105       56.1348       58.5453       0.633478       0.00000
  22     68.43       57.8297        2.8311       55.6320       58.4631       0.633478       0.00000
  21     81.20       57.7326        3.3279       55.0382       58.3661       0.633478       0.00000
  20     96.49       57.6182        3.9134       54.3382       58.2517       0.633478       0.00000
  19     114.6       57.4840        4.5998       53.5177       58.1175       0.633478       0.00000
  18     136.5       57.3273        5.4007       52.5601       57.9608       0.633478      -0.00000
  17     162.9       57.1441        6.3371       51.4405       57.7775       0.633478       0.00000
  16     196.4       56.9117        7.5233       50.0219       57.5452       0.633478      -0.00000
  15     218.7       56.7622        8.2855       49.1102       57.3957       0.633478       0.00000
  14     243.0       56.6026        9.0993       48.1368       57.2361       0.633478      -0.00000
  13     269.0       56.4328        9.9641       47.1022       57.0663       0.633478       0.00000
  12     297.5       56.2530       10.8791       46.0074       56.8865       0.633478       0.00000
  11     328.5       56.0629       11.8457       44.8506       56.6963       0.633478       0.00000
  10     361.9       55.8629       12.8614       43.6350       56.4964       0.633478       0.00000
   9     398.1       55.6530       13.9262       42.3603       56.2865       0.633478       0.00000
   8     437.6       55.4336       15.0379       41.0291       56.0670       0.633478       0.00000
   7     480.5       55.2050       16.1944       39.6441       55.8385       0.633478      -0.00000
   6     533.0       54.9327       17.5698       37.9963       55.5661       0.633478       0.00000
   5     589.8       54.6498       18.9956       36.2877       55.2833       0.633478       0.00000
   4     651.6       54.3578       20.4640       34.5273       54.9913       0.633478       0.00000
   3     718.7       54.0578       21.9685       32.7228       54.6913       0.633478       0.00000
   2     792.3       53.7511       23.5022       30.8824       54.3846       0.633478       0.00000
   1     891.5       53.3609       25.4459       28.5485       53.9944       0.633478      -0.00000
   0    1013.0       52.9259       27.6005       25.9589       53.5594       0.633478      -0.00000



 Wavenumbers: 29000. - 38000. cm-1, ATM      1
 LEVEL PRESSURE   UPWARD FLUX   DIFDOWN FLUX  DIRDOWN FLUX  DOWNWARD FLUX   NET FLUX    HEATING RATE
          mb          W/m2          W/m2          W/m2        W/m2          W/m2       degree/day
  51    .06700        8.7506        0.0000       20.8114       20.8114      12.060732       0.00000
  50    .07753        8.7504        0.0003       20.8070       20.8074      12.056924       3.05246
  49    .09103        8.7502        0.0007       20.8009       20.8016      12.051385       3.46188
  48    0.1069        8.7500        0.0012       20.7928       20.7939      12.043973       3.94547
  47    0.1255        8.7497        0.0017       20.7820       20.7837      12.034065       4.49169
  46    0.1487        8.7493        0.0024       20.7665       20.7688      12.019498       5.31005
  45    0.1794        8.7489        0.0033       20.7424       20.7457      11.996826       6.22395
  44    0.2165        8.7484        0.0044       20.7103       20.7147      11.966294       6.94556
  43    0.2613        8.7478        0.0056       20.6675       20.6731      11.925286       7.72977
  42    0.3336        8.7469        0.0077       20.5880       20.5956      11.848700       8.92916
  41    0.4307        8.7459        0.0104       20.4722       20.4826      11.736709       9.73734
  40    0.5894        8.7444        0.0147       20.2637       20.2784      11.533951      10.78242
  39     1.339        8.7416        0.0331       19.0984       19.1315      10.389855      12.88044
  38     1.782        8.7428        0.0427       18.4394       18.4821       9.739284      12.38582
  37     2.292        8.7314        0.0781       17.7323       17.8104       9.078987      10.93624
  36     2.964        8.7338        0.0973       16.9931       17.0904       8.356548       9.06880
  35     3.853        8.7447        0.1155       16.2158       16.3313       7.586665       7.30633
  34     5.035        8.7647        0.1360       15.4291       15.5650       6.800355       5.61707
  33     6.613        8.7947        0.1613       14.6656       14.8270       6.032279       4.10614
  32     8.786        8.8348        0.1941       13.9460       14.1401       5.305292       2.82335
  31     11.80        8.8873        0.2396       13.2386       13.4782       4.590888       2.00011
  30     15.07        8.9380        0.2875       12.6957       12.9832       4.045201       1.40886
  29     18.79        8.9904        0.3404       12.2248       12.5652       3.574747       1.06667
  28     23.16        9.0461        0.4009       11.7899       12.1908       3.144705       0.83156
  27     28.12        9.1032        0.4689       11.3893       11.8582       2.755040       0.66240
  26     33.73        9.1558        0.5439       11.0323       11.5762       2.420422       0.50311
  25     40.54        9.2057        0.6338       10.6850       11.3188       2.113080       0.38129
  24     48.69        9.2528        0.7405       10.3396       11.0801       1.827299       0.29574
  23     57.69        9.2914        0.8561       10.0215       10.8776       1.586200       0.22599
  22     68.43        9.3226        0.9919        9.7005       10.6923       1.369764       0.17015
  21     81.20        9.3374        1.1523        9.3823       10.5345       1.197183       0.11404
  20     96.49        9.3338        1.3409        9.0587       10.3996       1.065814       0.07251
  19     114.6        9.3200        1.5589        8.7099       10.2689       0.948884       0.05460
  18     136.5        9.2989        1.8082        8.3273       10.1356       0.836691       0.04314
  17     162.9        9.2706        2.0924        7.9050        9.9974       0.726847       0.03511
  16     196.4        9.2229        2.4451        7.4080        9.8531       0.630129       0.02435
  15     218.7        9.1888        2.6665        7.1053        9.7718       0.582981       0.01790
  14     243.0        9.1513        2.8979        6.7929        9.6908       0.539447       0.01510
  13     269.0        9.1104        3.1385        6.4723        9.6108       0.500359       0.01268
  12     297.5        9.0661        3.3872        6.1448        9.5320       0.465903       0.01022
  11     328.5        9.0199        3.6431        5.8097        9.4528       0.432916       0.00897
  10     361.9        8.9721        3.9036        5.4701        9.3736       0.401546       0.00794
   9     398.1        8.9229        4.1681        5.1266        9.2947       0.371820       0.00693
   8     437.6        8.8729        4.4353        4.7808        9.2161       0.343166       0.00613
   7     480.5        8.8223        4.7029        4.4354        9.1383       0.315969       0.00534
   6     533.0        8.7643        5.0080        4.0426        9.0506       0.286325       0.00477
   5     589.8        8.7070        5.3087        3.6559        8.9646       0.257627       0.00426
   4     651.6        8.6513        5.6014        3.2795        8.8809       0.229553       0.00384
   3     718.7        8.5979        5.8845        2.9155        8.7999       0.202060       0.00346
   2     792.3        8.5474        6.1543        2.5682        8.7225       0.175153       0.00309
   1     891.5        8.4893        6.4706        2.1607        8.6313       0.141937       0.00283
   0    1013.0        8.4335        6.7875        1.7514        8.5388       0.105291       0.00254



 Wavenumbers: 38000. - 50000. cm-1, ATM      1
 LEVEL PRESSURE   UPWARD FLUX   DIFDOWN FLUX  DIRDOWN FLUX  DOWNWARD FLUX   NET FLUX    HEATING RATE
          mb          W/m2          W/m2          W/m2        W/m2          W/m2       degree/day
  51    .06700        0.0070        0.0000        1.2836        1.2836       1.276607       0.00000
  50    .07753        0.0070        0.0001        1.2812        1.2812       1.274271       1.87214
  49    .09103        0.0069        0.0002        1.2777        1.2778       1.270938       2.08313
  48    0.1069        0.0068        0.0002        1.2731        1.2734       1.266558       2.33130
  47    0.1255        0.0067        0.0004        1.2672        1.2675       1.260802       2.60982
  46    0.1487        0.0066        0.0005        1.2586        1.2591       1.252473       3.03581
  45    0.1794        0.0065        0.0007        1.2455        1.2462       1.239702       3.50612
  44    0.2165        0.0063        0.0009        1.2282        1.2291       1.222771       3.85136
  43    0.2613        0.0061        0.0011        1.2054        1.2065       1.200417       4.21367
  42    0.3336        0.0058        0.0015        1.1639        1.1654       1.159582       4.76092
  41    0.4307        0.0054        0.0020        1.1051        1.1071       1.101608       5.04077
  40    0.5894        0.0049        0.0026        1.0039        1.0064       1.001537       5.32162
  39     1.339        0.0035        0.0035        0.5438        0.5473       0.543875       5.15244
  38     1.782        0.0032        0.0032        0.3635        0.3667       0.363487       3.43430
  37     2.292        0.0015        0.0039        0.2332        0.2371       0.235565       2.11873
  36     2.964        0.0010        0.0032        0.1435        0.1467       0.145754       1.12739
  35     3.853        0.0006        0.0024        0.0845        0.0869       0.086277       0.56445
  34     5.035        0.0004        0.0017        0.0480        0.0498       0.049346       0.26382
  33     6.613        0.0003        0.0012        0.0268        0.0280       0.027777       0.11531
  32     8.786        0.0002        0.0008        0.0142        0.0150       0.014827       0.05029
  31     11.80        0.0001        0.0005        0.0064        0.0069       0.006861       0.02230
  30     15.07        0.0000        0.0003        0.0030        0.0034       0.003311       0.00917
  29     18.79        0.0000        0.0002        0.0014        0.0016       0.001576       0.00393
  28     23.16        0.0000        0.0001        0.0006        0.0007       0.000717       0.00166
  27     28.12        0.0000        0.0001        0.0003        0.0003       0.000316       0.00068
  26     33.73        0.0000        0.0000        0.0001        0.0001       0.000139       0.00027
  25     40.54        0.0000        0.0000        0.0000        0.0001       0.000057       0.00010
  24     48.69        0.0000        0.0000        0.0000        0.0000       0.000021       0.00004
  23     57.69        0.0000        0.0000        0.0000        0.0000       0.000008       0.00001
  22     68.43        0.0000        0.0000        0.0000        0.0000       0.000003       0.00000
  21     81.20        0.0000        0.0000        0.0000        0.0000       0.000001       0.00000
  20     96.49        0.0000        0.0000        0.0000        0.0000       0.000000       0.00000
  19     114.6        0.0000        0.0000        0.0000        0.0000       0.000000       0.00000
  18     136.5        0.0000        0.0000        0.0000        0.0000       0.000000       0.00000
  17     162.9        0.0000        0.0000        0.0000        0.0000       0.000000       0.00000
  16     196.4        0.0000        0.0000        0.0000        0.0000       0.000000       0.00000
  15     218.7        0.0000        0.0000        0.0000        0.0000       0.000000       0.00000
  14     243.0        0.0000        0.0000        0.0000        0.0000       0.000000       0.00000
  13     269.0        0.0000        0.0000        0.0000        0.0000       0.000000       0.00000
  12     297.5        0.0000        0.0000        0.0000        0.0000       0.000000       0.00000
  11     328.5        0.0000        0.0000        0.0000        0.0000       0.000000       0.00000
  10     361.9        0.0000        0.0000        0.0000        0.0000       0.000000       0.00000
   9     398.1        0.0000        0.0000        0.0000        0.0000       0.000000       0.00000
   8     437.6        0.0000        0.0000        0.0000        0.0000       0.000000       0.00000
   7     480.5        0.0000        0.0000        0.0000        0.0000       0.000000       0.00000
   6     533.0        0.0000        0.0000        0.0000        0.0000       0.000000       0.00000
   5     589.8        0.0000        0.0000        0.0000        0.0000       0.000000       0.00000
   4     651.6        0.0000        0.0000        0.0000        0.0000       0.000000       0.00000
   3     718.7        0.0000        0.0000        0.0000        0.0000       0.000000       0.00000
   2     792.3        0.0000        0.0000        0.0000        0.0000       0.000000       0.00000
   1     891.5        0.0000        0.0000        0.0000        0.0000       0.000000       0.00000
   0    1013.0        0.0000        0.0000        0.0000        0.0000       0.000000       0.00000



 Wavenumbers:   820. -  2600. cm-1, ATM      1
 LEVEL PRESSURE   UPWARD FLUX   DIFDOWN FLUX  DIRDOWN FLUX  DOWNWARD FLUX   NET FLUX    HEATING RATE
          mb          W/m2          W/m2          W/m2        W/m2          W/m2       degree/day
  51    .06700        0.4761        0.0000        6.0047        6.0047       5.528581       0.00000
  50    .07753        0.4761        0.0000        6.0009        6.0009       5.524802       3.02937
  49    .09103        0.4761        0.0000        6.0001        6.0001       5.524012       0.49378
  48    0.1069        0.4761        0.0000        5.9992        5.9992       5.523137       0.46572
  47    0.1255        0.4761        0.0000        5.9982        5.9982       5.522156       0.44470
  46    0.1487        0.4761        0.0000        5.9970        5.9970       5.520978       0.42941
  45    0.1794        0.4761        0.0000        5.9956        5.9956       5.519511       0.40259
  44    0.2165        0.4761        0.0000        5.9940        5.9940       5.517979       0.34860
  43    0.2613        0.4761        0.0000        5.9925        5.9925       5.516400       0.29770
  42    0.3336        0.4761        0.0000        5.9902        5.9902       5.514170       0.25991
  41    0.4307        0.4761        0.0000        5.9877        5.9877       5.511582       0.22503
  40    0.5894        0.4761        0.0000        5.9836        5.9836       5.507550       0.21442
  39     1.339        0.4761        0.0000        5.9651        5.9651       5.489040       0.20839
  38     1.782        0.4761        0.0000        5.9549        5.9549       5.478823       0.19451
  37     2.292        0.5472        0.0000        1.3229        1.3229       0.775698      77.89603
  36     2.964        0.5730        0.0000        1.2282        1.2282       0.655124       1.51356
  35     3.853        0.5871        0.0000        1.1879        1.1879       0.600754       0.51599
  34     5.035        0.5955        0.0000        1.1664        1.1664       0.570901       0.21326
  33     6.613        0.6007        0.0000        1.1541        1.1541       0.553373       0.09370
  32     8.786        0.6039        0.0000        1.1468        1.1468       0.542950       0.04048
  31     11.80        0.6059        0.0000        1.1423        1.1423       0.536401       0.01833
  30     15.07        0.6070        0.0000        1.1399        1.1399       0.532955       0.00890
  29     18.79        0.6076        0.0000        1.1385        1.1385       0.530858       0.00476
  28     23.16        0.6081        0.0000        1.1375        1.1375       0.529395       0.00283
  27     28.12        0.6084        0.0000        1.1367        1.1367       0.528290       0.00188
  26     33.73        0.6087        0.0000        1.1361        1.1361       0.527440       0.00128
  25     40.54        0.6091        0.0000        1.1353        1.1353       0.526270       0.00145
  24     48.69        0.6094        0.0000        1.1347        1.1347       0.525271       0.00103
  23     57.69        0.6096        0.0000        1.1341        1.1341       0.524487       0.00074
  22     68.43        0.6099        0.0000        1.1337        1.1337       0.523813       0.00053
  21     81.20        0.6100        0.0000        1.1333        1.1333       0.523233       0.00038
  20     96.49        0.6102        0.0000        1.1329        1.1329       0.522726       0.00028
  19     114.6        0.6103        0.0000        1.1326        1.1326       0.522320       0.00019
  18     136.5        0.6105        0.0000        1.1324        1.1324       0.521893       0.00016
  17     162.9        0.6106        0.0000        1.1321        1.1321       0.521495       0.00013
  16     196.4        0.6107        0.0000        1.1318        1.1318       0.521102       0.00010
  15     218.7        0.6108        0.0000        1.1316        1.1316       0.520850       0.00010
  14     243.0        0.6109        0.0000        1.1315        1.1315       0.520650       0.00007
  13     269.0        0.6109        0.0000        1.1313        1.1313       0.520395       0.00008
  12     297.5        0.6111        0.0000        1.1311        1.1311       0.520015       0.00011
  11     328.5        0.6112        0.0000        1.1307        1.1307       0.519444       0.00016
  10     361.9        0.6115        0.0000        1.1301        1.1301       0.518551       0.00023
   9     398.1        0.6120        0.0000        1.1292        1.1292       0.517192       0.00032
   8     437.6        0.6126        0.0000        1.1278        1.1278       0.515200       0.00043
   7     480.5        0.6136        0.0000        1.1259        1.1259       0.512334       0.00056
   6     533.0        0.6153        0.0000        1.1224        1.1224       0.507174       0.00083
   5     589.8        0.6179        0.0000        1.1170        1.1170       0.499099       0.00120
   4     651.6        0.6226        0.0000        1.1077        1.1078       0.485154       0.00191
   3     718.7        0.6299        0.0000        1.0935        1.0936       0.463610       0.00271
   2     792.3        0.6411        0.0000        1.0725        1.0725       0.431360       0.00370
   1     891.5        0.6631        0.0000        1.0334        1.0335       0.370403       0.00519
   0    1013.0        0.6996        0.0000        0.9742        0.9742       0.274621       0.00665

  Modules and versions used in this calculation:

       rrtmg_sw.1col.f90:  $Revision$                    rrtmg_sw_init.f90:  $Revision$        
     rrtmgsw_cldprop.f90:  $Revision$                  rrtmgsw_cldprmc.f90:  NOT USED          
     rrtmg_sw_reftra.f90:  $Revision$                  rrtmg_sw_spcvrt.f90:  NOT USED          
     rrtmg_sw_spcvmc.f90:  NOT USED                    rrtmgsw_setcoef.f90:  NOT USED          
     rrtmg_sw_taumol.f90:  $Revision$                  rrtmg_sw_vrtqdr.f90:  NOT USED          
                rrtatm.f:  NOT USED                             util_xxx.f:  NOT USED          
                 extra.f:  NOT USED                       rrtmg_sw_k_g.f90:  $Revision$        

