

 Wavenumbers:   820. - 50000. cm-1, ATM      1
 LEVEL PRESSURE   UPWARD FLUX   DIFDOWN FLUX  DIRDOWN FLUX  DOWNWARD FLUX   NET FLUX    HEATING RATE
          mb          W/m2          W/m2          W/m2        W/m2          W/m2       degree/day
  51    .06700      413.9993        0.0000      617.8126      617.8126     203.813300       0.00000
  50    .07753      413.9989        0.0013      617.7948      617.7962     203.797287      12.83430
  49    .09103      413.9985        0.0030      617.7782      617.7812     203.782747       9.08828
  48    0.1069      413.9980        0.0050      617.7588      617.7638     203.765843       8.99819
  47    0.1255      413.9975        0.0072      617.7352      617.7424     203.744922       9.48458
  46    0.1487      413.9969        0.0100      617.7026      617.7127     203.715778      10.62331
  45    0.1794      413.9962        0.0139      617.6546      617.6684     203.672281      11.94088
  44    0.2165      413.9954        0.0184      617.5929      617.6113     203.615834      12.84064
  43    0.2613      413.9947        0.0238      617.5133      617.5371     203.542384      13.84504
  42    0.3336      413.9939        0.0326      617.3704      617.4030     203.409121      15.53711
  41    0.4307      413.9932        0.0442      617.1680      617.2122     203.218984      16.53205
  40    0.5894      413.9931        0.0630      616.8135      616.8765     202.883432      17.84419
  39     1.339      414.0109        0.1477      614.9756      615.1233     201.112420      19.93839
  38     1.782      414.0343        0.1954      614.0079      614.2033     200.168968      17.96179
  37     2.292      414.1266        0.3089      599.9583      600.2672     186.140601     232.34635
  36     2.964      414.2171        0.3975      597.8749      598.2724     184.055267      26.17725
  35     3.853      414.3438        0.4985      596.1953      596.6937     182.349912      16.18413
  34     5.035      414.5264        0.6248      594.6208      595.2456     180.719177      11.64929
  33     6.613      414.7771        0.7889      593.0608      593.8497     179.072667       8.80225
  32     8.786      415.0998        1.0071      591.4613      592.4684     177.368654       6.61777
  31     11.80      415.5154        1.3166      589.6835      591.0001     175.484762       5.27430
  30     15.07      415.9099        1.6467      588.1218      589.7685     173.858634       4.19834
  29     18.79      416.3098        2.0176      586.5961      588.6137     172.303954       3.52494
  28     23.16      416.7245        2.4487      585.0188      587.4674     170.742949       3.01848
  27     28.12      417.1377        2.9394      583.4018      586.3412     169.203528       2.61691
  26     33.73      417.5109        3.4865      581.8015      585.2880     167.777117       2.14465
  25     40.54      417.8582        4.1453      580.0551      584.2004     166.342122       1.78027
  24     48.69      418.1764        4.9358      578.1574      583.0932     164.916835       1.47495
  23     57.69      418.4283        5.8000      576.2634      582.0634     163.635032       1.20150
  22     68.43      418.6226        6.8238      574.2048      581.0286     162.406012       0.96617
  21     81.20      418.7070        8.0377      572.0011      580.0388     161.331821       0.70981
  20     96.49      418.6713        9.4750      569.6070      579.0820     160.410709       0.50839
  19     114.6      418.5752       11.1657      566.8005      577.9662     159.391024       0.47612
  18     136.5      418.4162       13.1454      563.6185      576.7639     158.347714       0.40118
  17     162.9      418.1880       15.4686      559.9815      575.4502     157.262115       0.34700
  16     196.4      417.8037       18.4322      555.4777      573.9099     156.106153       0.29097
  15     218.7      417.5231       20.3478      552.5145      572.8623     155.339165       0.29120
  14     243.0      417.2071       22.4026      549.3603      571.7629     154.555796       0.27170
  13     269.0      416.8561       24.5982      545.8545      570.4527     153.596634       0.31115
  12     297.5      416.4715       26.9354      541.9104      568.8457     152.374251       0.36255
  11     328.5      416.0628       29.4203      537.4090      566.8293     150.766479       0.43715
  10     361.9      415.6355       32.0492      532.2278      564.2770     148.641507       0.53764
   9     398.1      415.1959       34.8266      526.2297      561.0563     145.860405       0.64793
   8     437.6      414.7569       37.7515      519.2875      557.0390     142.282075       0.76507
   7     480.5      414.3342       40.8218      511.3306      552.1524     137.818230       0.87668
   6     533.0      413.9018       44.5132      501.0375      545.5507     131.648879       0.99245
   5     589.8      413.5756       48.3858      489.6849      538.0707     124.495137       1.06185
   4     651.6      413.4407       52.4345      477.3985      529.8330     116.392371       1.10808
   3     718.7      413.5933       56.6495      464.5779      521.2274     107.634067       1.10068
   2     792.3      414.2168       61.0148      451.2841      512.2990      98.082162       1.09550
   1     891.5      416.0217       66.6797      434.3157      500.9954      84.973741       1.11546
   0    1013.0      420.1582       73.1562      415.4968      488.6529      68.494720       1.14422



 Wavenumbers:  2600. -  3250. cm-1, ATM      1
 LEVEL PRESSURE   UPWARD FLUX   DIFDOWN FLUX  DIRDOWN FLUX  DOWNWARD FLUX   NET FLUX    HEATING RATE
          mb          W/m2          W/m2          W/m2        W/m2          W/m2       degree/day
  51    .06700        1.6364        0.0000        5.4450        5.4450       3.808655       0.00000
  50    .07753        1.6364        0.0000        5.4450        5.4450       3.808647       0.00640
  49    .09103        1.6364        0.0000        5.4450        5.4450       3.808637       0.00627
  48    0.1069        1.6364        0.0000        5.4450        5.4450       3.808626       0.00613
  47    0.1255        1.6364        0.0000        5.4450        5.4450       3.808612       0.00599
  46    0.1487        1.6364        0.0000        5.4450        5.4450       3.808596       0.00608
  45    0.1794        1.6364        0.0000        5.4450        5.4450       3.808573       0.00625
  44    0.2165        1.6364        0.0000        5.4449        5.4449       3.808546       0.00612
  43    0.2613        1.6364        0.0000        5.4449        5.4449       3.808514       0.00600
  42    0.3336        1.6364        0.0000        5.4448        5.4448       3.808461       0.00617
  41    0.4307        1.6364        0.0000        5.4448        5.4448       3.808390       0.00620
  40    0.5894        1.6364        0.0000        5.4446        5.4446       3.808270       0.00637
  39     1.339        1.6364        0.0000        5.4439        5.4439       3.807563       0.00797
  38     1.782        1.6364        0.0000        5.4434        5.4434       3.807020       0.01034
  37     2.292        1.6364        0.0000        5.4427        5.4427       3.806304       0.01186
  36     2.964        1.6364        0.0000        5.4416        5.4416       3.805265       0.01304
  35     3.853        1.6364        0.0000        5.4402        5.4402       3.803788       0.01402
  34     5.035        1.6364        0.0000        5.4381        5.4381       3.801732       0.01469
  33     6.613        1.6364        0.0000        5.4353        5.4353       3.798951       0.01487
  32     8.786        1.6364        0.0000        5.4317        5.4317       3.795318       0.01411
  31     11.80        1.6364        0.0000        5.4269        5.4269       3.790536       0.01339
  30     15.07        1.6364        0.0000        5.4224        5.4224       3.786007       0.01169
  29     18.79        1.6364        0.0000        5.4180        5.4180       3.781592       0.01001
  28     23.16        1.6364        0.0000        5.4135        5.4135       3.777102       0.00868
  27     28.12        1.6364        0.0000        5.4088        5.4088       3.772447       0.00791
  26     33.73        1.6364        0.0000        5.4036        5.4036       3.767197       0.00789
  25     40.54        1.6364        0.0000        5.3966        5.3967       3.760240       0.00863
  24     48.69        1.6364        0.0000        5.3872        5.3872       3.750740       0.00983
  23     57.69        1.6365        0.0000        5.3754        5.3754       3.738924       0.01108
  22     68.43        1.6365        0.0000        5.3599        5.3599       3.723389       0.01221
  21     81.20        1.6366        0.0000        5.3401        5.3401       3.703490       0.01315
  20     96.49        1.6367        0.0000        5.3155        5.3155       3.678829       0.01361
  19     114.6        1.6370        0.0001        5.2755        5.2755       3.638542       0.01881
  18     136.5        1.6373        0.0001        5.2330        5.2331       3.595732       0.01646
  17     162.9        1.6378        0.0001        5.1888        5.1889       3.551113       0.01426
  16     196.4        1.6385        0.0001        5.1392        5.1393       3.500840       0.01265
  15     218.7        1.6391        0.0001        5.1071        5.1072       3.468099       0.01243
  14     243.0        1.6398        0.0001        5.0760        5.0761       3.436252       0.01105
  13     269.0        1.6409        0.0001        5.0415        5.0416       3.400736       0.01152
  12     297.5        1.6422        0.0001        5.0024        5.0025       3.360291       0.01200
  11     328.5        1.6441        0.0001        4.9567        4.9569       3.312758       0.01292
  10     361.9        1.6467        0.0001        4.9011        4.9013       3.254594       0.01472
   9     398.1        1.6502        0.0002        4.8311        4.8313       3.181094       0.01712
   8     437.6        1.6550        0.0002        4.7404        4.7406       3.085511       0.02044
   7     480.5        1.6618        0.0002        4.6228        4.6229       2.961198       0.02441
   6     533.0        1.6726        0.0002        4.4521        4.4523       2.779723       0.02919
   5     589.8        1.6884        0.0002        4.2451        4.2453       2.556856       0.03308
   4     651.6        1.7115        0.0002        4.0116        4.0118       2.300318       0.03508
   3     718.7        1.7447        0.0002        3.7679        3.7682       2.023443       0.03480
   2     792.3        1.7935        0.0003        3.5181        3.5184       1.724919       0.03424
   1     891.5        1.8859        0.0003        3.2053        3.2055       1.319616       0.03449
   0    1013.0        2.0547        0.0003        2.8610        2.8613       0.806575       0.03562



 Wavenumbers:  3250. -  4000. cm-1, ATM      1
 LEVEL PRESSURE   UPWARD FLUX   DIFDOWN FLUX  DIRDOWN FLUX  DOWNWARD FLUX   NET FLUX    HEATING RATE
          mb          W/m2          W/m2          W/m2        W/m2          W/m2       degree/day
  51    .06700        0.0471        0.0000        9.1795        9.1795       9.132442       0.00000
  50    .07753        0.0471        0.0000        9.1747        9.1747       9.127573       3.90284
  49    .09103        0.0471        0.0000        9.1713        9.1713       9.124254       2.07465
  48    0.1069        0.0471        0.0000        9.1689        9.1689       9.121847       1.28110
  47    0.1255        0.0471        0.0000        9.1668        9.1668       9.119727       0.96120
  46    0.1487        0.0471        0.0000        9.1645        9.1645       9.117455       0.82828
  45    0.1794        0.0471        0.0000        9.1619        9.1619       9.114785       0.73287
  44    0.2165        0.0471        0.0000        9.1592        9.1592       9.112096       0.61167
  43    0.2613        0.0471        0.0000        9.1565        9.1565       9.109399       0.50840
  42    0.3336        0.0471        0.0000        9.1528        9.1528       9.105702       0.43101
  41    0.4307        0.0471        0.0000        9.1487        9.1487       9.101604       0.35633
  40    0.5894        0.0471        0.0000        9.1428        9.1428       9.095712       0.31334
  39     1.339        0.0471        0.0000        9.1196        9.1196       9.072530       0.26099
  38     1.782        0.0471        0.0000        9.1090        9.1090       9.061946       0.20149
  37     2.292        0.0472        0.0000        6.5345        6.5345       6.487306      42.64276
  36     2.964        0.0472        0.0000        6.1785        6.1785       6.131341       4.46843
  35     3.853        0.0472        0.0000        5.9913        5.9913       5.944111       1.77685
  34     5.035        0.0472        0.0000        5.8708        5.8708       5.823542       0.86130
  33     6.613        0.0472        0.0000        5.7859        5.7859       5.738696       0.45358
  32     8.786        0.0473        0.0000        5.7231        5.7232       5.675902       0.24387
  31     11.80        0.0473        0.0000        5.6722        5.6723       5.624998       0.14252
  30     15.07        0.0473        0.0000        5.6371        5.6371       5.589806       0.09086
  29     18.79        0.0473        0.0000        5.6086        5.6086       5.561346       0.06453
  28     23.16        0.0473        0.0000        5.5819        5.5819       5.534680       0.05156
  27     28.12        0.0473        0.0000        5.5549        5.5549       5.507661       0.04593
  26     33.73        0.0473        0.0000        5.5290        5.5290       5.481763       0.03894
  25     40.54        0.0473        0.0000        5.4897        5.4897       5.442433       0.04879
  24     48.69        0.0473        0.0000        5.4487        5.4487       5.401454       0.04241
  23     57.69        0.0473        0.0001        5.4091        5.4092       5.361902       0.03707
  22     68.43        0.0472        0.0001        5.3678        5.3679       5.320642       0.03244
  21     81.20        0.0472        0.0001        5.3252        5.3253       5.278034       0.02815
  20     96.49        0.0472        0.0001        5.2804        5.2805       5.233225       0.02473
  19     114.6        0.0472        0.0001        5.2302        5.2303       5.183072       0.02342
  18     136.5        0.0472        0.0001        5.1738        5.1739       5.126731       0.02166
  17     162.9        0.0472        0.0001        5.1113        5.1114       5.064234       0.01998
  16     196.4        0.0472        0.0002        5.0297        5.0298       4.982658       0.02053
  15     218.7        0.0472        0.0002        4.9522        4.9524       4.905171       0.02942
  14     243.0        0.0472        0.0002        4.8695        4.8697       4.822483       0.02868
  13     269.0        0.0472        0.0002        4.7455        4.7457       4.698470       0.04023
  12     297.5        0.0472        0.0002        4.5662        4.5664       4.519164       0.05318
  11     328.5        0.0473        0.0002        4.3224        4.3226       4.275313       0.06630
  10     361.9        0.0474        0.0002        4.0127        4.0129       3.965524       0.07838
   9     398.1        0.0476        0.0002        3.6504        3.6506       3.602993       0.08446
   8     437.6        0.0480        0.0002        3.2577        3.2579       3.209869       0.08405
   7     480.5        0.0487        0.0002        2.8542        2.8544       2.805740       0.07937
   6     533.0        0.0500        0.0002        2.4000        2.4002       2.350196       0.07328
   5     589.8        0.0524        0.0002        1.9707        1.9709       1.918531       0.06407
   4     651.6        0.0564        0.0002        1.5656        1.5658       1.509373       0.05595
   3     718.7        0.0635        0.0001        1.1943        1.1945       1.131016       0.04755
   2     792.3        0.0760        0.0001        0.8594        0.8596       0.783601       0.03984
   1     891.5        0.1072        0.0001        0.5270        0.5271       0.419940       0.03095
   0    1013.0        0.1920        0.0001        0.2673        0.2674       0.075371       0.02393



 Wavenumbers:  4000. -  4650. cm-1, ATM      1
 LEVEL PRESSURE   UPWARD FLUX   DIFDOWN FLUX  DIRDOWN FLUX  DOWNWARD FLUX   NET FLUX    HEATING RATE
          mb          W/m2          W/m2          W/m2        W/m2          W/m2       degree/day
  51    .06700        5.2925        0.0000       10.7795       10.7795       5.487037       0.00000
  50    .07753        5.2925        0.0000       10.7795       10.7795       5.487036       0.00081
  49    .09103        5.2925        0.0000       10.7795       10.7795       5.487035       0.00079
  48    0.1069        5.2925        0.0000       10.7795       10.7795       5.487033       0.00077
  47    0.1255        5.2925        0.0000       10.7795       10.7795       5.487032       0.00075
  46    0.1487        5.2925        0.0000       10.7795       10.7795       5.487029       0.00076
  45    0.1794        5.2925        0.0000       10.7795       10.7795       5.487027       0.00079
  44    0.2165        5.2925        0.0000       10.7795       10.7795       5.487023       0.00077
  43    0.2613        5.2925        0.0000       10.7795       10.7795       5.487019       0.00076
  42    0.3336        5.2925        0.0000       10.7795       10.7795       5.487013       0.00078
  41    0.4307        5.2925        0.0000       10.7795       10.7795       5.487004       0.00078
  40    0.5894        5.2925        0.0000       10.7795       10.7795       5.486988       0.00080
  39     1.339        5.2925        0.0000       10.7794       10.7794       5.486898       0.00102
  38     1.782        5.2925        0.0000       10.7793       10.7793       5.486827       0.00134
  37     2.292        5.2925        0.0000       10.7792       10.7792       5.486732       0.00157
  36     2.964        5.2925        0.0000       10.7791       10.7791       5.486591       0.00178
  35     3.853        5.2925        0.0000       10.7789       10.7789       5.486380       0.00200
  34     5.035        5.2925        0.0000       10.7785       10.7786       5.486070       0.00222
  33     6.613        5.2925        0.0000       10.7781       10.7781       5.485614       0.00244
  32     8.786        5.2925        0.0000       10.7774       10.7774       5.484939       0.00262
  31     11.80        5.2925        0.0001       10.7763       10.7764       5.483879       0.00297
  30     15.07        5.2925        0.0001       10.7750       10.7751       5.482636       0.00321
  29     18.79        5.2925        0.0001       10.7735       10.7736       5.481130       0.00341
  28     23.16        5.2925        0.0001       10.7716       10.7718       5.479260       0.00362
  27     28.12        5.2925        0.0001       10.7694       10.7695       5.476995       0.00385
  26     33.73        5.2925        0.0002       10.7666       10.7667       5.474199       0.00420
  25     40.54        5.2926        0.0002       10.7628       10.7630       5.470403       0.00471
  24     48.69        5.2926        0.0002       10.7577       10.7579       5.465339       0.00524
  23     57.69        5.2927        0.0003       10.7517       10.7520       5.459327       0.00563
  22     68.43        5.2928        0.0003       10.7443       10.7446       5.451782       0.00593
  21     81.20        5.2930        0.0004       10.7351       10.7355       5.442476       0.00615
  20     96.49        5.2932        0.0005       10.7239       10.7244       5.431130       0.00626
  19     114.6        5.2939        0.0005       10.7048       10.7053       5.411478       0.00918
  18     136.5        5.2947        0.0006       10.6835       10.6841       5.389435       0.00848
  17     162.9        5.2958        0.0008       10.6592       10.6599       5.364144       0.00808
  16     196.4        5.2974        0.0009       10.6279       10.6288       5.331402       0.00824
  15     218.7        5.2988        0.0010       10.6052       10.6063       5.307422       0.00910
  14     243.0        5.3005        0.0011       10.5807       10.5819       5.281390       0.00903
  13     269.0        5.3027        0.0012       10.5511       10.5524       5.249723       0.01027
  12     297.5        5.3056        0.0014       10.5151       10.5165       5.210892       0.01152
  11     328.5        5.3095        0.0015       10.4708       10.4723       5.162808       0.01307
  10     361.9        5.3146        0.0017       10.4152       10.4168       5.102219       0.01533
   9     398.1        5.3215        0.0018       10.3434       10.3452       5.023738       0.01828
   8     437.6        5.3306        0.0020       10.2496       10.2515       4.920944       0.02198
   7     480.5        5.3420        0.0022       10.1298       10.1320       4.789993       0.02572
   6     533.0        5.3590        0.0024        9.9619        9.9643       4.605313       0.02971
   5     589.8        5.3819        0.0026        9.7688        9.7714       4.389504       0.03203
   4     651.6        5.4137        0.0028        9.5553        9.5581       4.144442       0.03351
   3     718.7        5.4579        0.0030        9.3188        9.3218       3.863896       0.03526
   2     792.3        5.5210        0.0033        9.0408        9.0441       3.523119       0.03908
   1     891.5        5.6411        0.0036        8.6377        8.6412       3.000154       0.04450
   0    1013.0        5.8673        0.0039        8.1663        8.1701       2.302867       0.04842



 Wavenumbers:  4650. -  5150. cm-1, ATM      1
 LEVEL PRESSURE   UPWARD FLUX   DIFDOWN FLUX  DIRDOWN FLUX  DOWNWARD FLUX   NET FLUX    HEATING RATE
          mb          W/m2          W/m2          W/m2        W/m2          W/m2       degree/day
  51    .06700        3.6621        0.0000       10.2033       10.2033       6.541207       0.00000
  50    .07753        3.6621        0.0000       10.2031       10.2031       6.540974       0.18682
  49    .09103        3.6621        0.0000       10.2028       10.2028       6.540682       0.18216
  48    0.1069        3.6621        0.0000       10.2025       10.2025       6.540349       0.17725
  47    0.1255        3.6621        0.0000       10.2021       10.2021       6.539969       0.17226
  46    0.1487        3.6621        0.0000       10.2016       10.2016       6.539494       0.17336
  45    0.1794        3.6621        0.0000       10.2010       10.2010       6.538851       0.17647
  44    0.2165        3.6621        0.0000       10.2002       10.2002       6.538100       0.17082
  43    0.2613        3.6621        0.0000       10.1994       10.1994       6.537224       0.16502
  42    0.3336        3.6621        0.0000       10.1979       10.1979       6.535808       0.16515
  41    0.4307        3.6621        0.0000       10.1961       10.1961       6.533988       0.15824
  40    0.5894        3.6621        0.0000       10.1933       10.1933       6.531146       0.15115
  39     1.339        3.6621        0.0000       10.1818       10.1818       6.519678       0.12910
  38     1.782        3.6621        0.0000       10.1763       10.1763       6.514207       0.10417
  37     2.292        3.6621        0.0000       10.1709       10.1709       6.508805       0.08946
  36     2.964        3.6621        0.0000       10.1650       10.1651       6.502939       0.07363
  35     3.853        3.6621        0.0000       10.1589       10.1589       6.496781       0.05844
  34     5.035        3.6621        0.0000       10.1526       10.1526       6.490497       0.04490
  33     6.613        3.6621        0.0001       10.1461       10.1462       6.484081       0.03430
  32     8.786        3.6621        0.0001       10.1392       10.1392       6.477103       0.02710
  31     11.80        3.6621        0.0001       10.1301       10.1302       6.468088       0.02524
  30     15.07        3.6621        0.0001       10.1203       10.1204       6.458228       0.02546
  29     18.79        3.6622        0.0001       10.1083       10.1084       6.446238       0.02718
  28     23.16        3.6622        0.0002       10.0930       10.0932       6.430952       0.02956
  27     28.12        3.6623        0.0002       10.0739       10.0741       6.411875       0.03243
  26     33.73        3.6623        0.0002       10.0509       10.0511       6.388797       0.03470
  25     40.54        3.6625        0.0003       10.0211       10.0214       6.358907       0.03708
  24     48.69        3.6626        0.0003        9.9830        9.9834       6.320738       0.03950
  23     57.69        3.6629        0.0004        9.9396        9.9400       6.277185       0.04082
  22     68.43        3.6632        0.0005        9.8871        9.8876       6.224408       0.04149
  21     81.20        3.6636        0.0005        9.8250        9.8255       6.161919       0.04129
  20     96.49        3.6642        0.0006        9.7535        9.7542       6.089918       0.03974
  19     114.6        3.6652        0.0008        9.6720        9.6728       6.007621       0.03843
  18     136.5        3.6665        0.0009        9.5846        9.5855       5.919036       0.03406
  17     162.9        3.6682        0.0011        9.4919        9.4930       5.824767       0.03013
  16     196.4        3.6709        0.0013        9.3854        9.3867       5.715740       0.02744
  15     218.7        3.6731        0.0014        9.3195        9.3209       5.647791       0.02580
  14     243.0        3.6756        0.0015        9.2499        9.2515       5.575846       0.02495
  13     269.0        3.6789        0.0017        9.1740        9.1757       5.496786       0.02565
  12     297.5        3.6831        0.0019        9.0888        9.0906       5.407565       0.02646
  11     328.5        3.6884        0.0020        8.9911        8.9932       5.304741       0.02796
  10     361.9        3.6955        0.0022        8.8770        8.8792       5.183700       0.03062
   9     398.1        3.7047        0.0024        8.7439        8.7464       5.041631       0.03310
   8     437.6        3.7166        0.0026        8.5892        8.5918       4.875280       0.03557
   7     480.5        3.7319        0.0028        8.4090        8.4118       4.679870       0.03838
   6     533.0        3.7550        0.0031        8.1703        8.1734       4.418377       0.04207
   5     589.8        3.7861        0.0033        7.8977        7.9011       4.114921       0.04504
   4     651.6        3.8284        0.0035        7.5928        7.5963       3.767959       0.04745
   3     718.7        3.8853        0.0038        7.2665        7.2702       3.384933       0.04814
   2     792.3        3.9631        0.0040        6.9263        6.9303       2.967215       0.04791
   1     891.5        4.1018        0.0043        6.4968        6.5011       2.399231       0.04833
   0    1013.0        4.3370        0.0046        6.0344        6.0390       1.702041       0.04841



 Wavenumbers:  5150. -  6150. cm-1, ATM      1
 LEVEL PRESSURE   UPWARD FLUX   DIFDOWN FLUX  DIRDOWN FLUX  DOWNWARD FLUX   NET FLUX    HEATING RATE
          mb          W/m2          W/m2          W/m2        W/m2          W/m2       degree/day
  51    .06700        9.1395        0.0000       25.5798       25.5798      16.440334       0.00000
  50    .07753        9.1395        0.0000       25.5798       25.5798      16.440333       0.00023
  49    .09103        9.1395        0.0000       25.5798       25.5798      16.440333       0.00023
  48    0.1069        9.1395        0.0000       25.5798       25.5798      16.440332       0.00022
  47    0.1255        9.1395        0.0000       25.5798       25.5798      16.440332       0.00022
  46    0.1487        9.1395        0.0000       25.5798       25.5798      16.440331       0.00022
  45    0.1794        9.1395        0.0000       25.5798       25.5798      16.440330       0.00023
  44    0.2165        9.1395        0.0000       25.5798       25.5798      16.440330       0.00022
  43    0.2613        9.1395        0.0000       25.5798       25.5798      16.440328       0.00022
  42    0.3336        9.1395        0.0000       25.5798       25.5798      16.440326       0.00023
  41    0.4307        9.1395        0.0000       25.5798       25.5798      16.440324       0.00023
  40    0.5894        9.1395        0.0000       25.5798       25.5798      16.440319       0.00024
  39     1.339        9.1395        0.0000       25.5797       25.5798      16.440293       0.00030
  38     1.782        9.1395        0.0001       25.5797       25.5797      16.440272       0.00040
  37     2.292        9.1418        0.0001       23.3725       23.3725      14.230693      36.59639
  36     2.964        9.1429        0.0001       23.1136       23.1137      13.970807       3.26236
  35     3.853        9.1436        0.0001       22.9680       22.9681      13.824517       1.38832
  34     5.035        9.1441        0.0002       22.8718       22.8720      13.727876       0.69036
  33     6.613        9.1445        0.0002       22.8041       22.8044      13.659809       0.36389
  32     8.786        9.1449        0.0003       22.7550       22.7553      13.610420       0.19181
  31     11.80        9.1452        0.0004       22.7167       22.7171      13.571902       0.10784
  30     15.07        9.1454        0.0004       22.6918       22.6923      13.546852       0.06467
  29     18.79        9.1456        0.0006       22.6734       22.6739      13.528316       0.04203
  28     23.16        9.1458        0.0007       22.6579       22.6586      13.512749       0.03010
  27     28.12        9.1460        0.0008       22.6439       22.6447      13.498682       0.02391
  26     33.73        9.1463        0.0010       22.6310       22.6320      13.485691       0.01953
  25     40.54        9.1467        0.0012       22.6102       22.6114      13.464706       0.02603
  24     48.69        9.1471        0.0014       22.5889       22.5903      13.443159       0.02230
  23     57.69        9.1477        0.0016       22.5690       22.5707      13.422980       0.01892
  22     68.43        9.1483        0.0019       22.5489       22.5508      13.402478       0.01612
  21     81.20        9.1491        0.0023       22.5285       22.5307      13.381651       0.01376
  20     96.49        9.1500        0.0027       22.5076       22.5103      13.360329       0.01177
  19     114.6        9.1511        0.0032       22.4848       22.4880      13.336883       0.01095
  18     136.5        9.1524        0.0038       22.4590       22.4628      13.310352       0.01020
  17     162.9        9.1540        0.0045       22.4304       22.4349      13.280898       0.00941
  16     196.4        9.1561        0.0055       22.3927       22.3982      13.242076       0.00977
  15     218.7        9.1575        0.0061       22.3547       22.3608      13.203270       0.01473
  14     243.0        9.1590        0.0067       22.3126       22.3193      13.160268       0.01491
  13     269.0        9.1608        0.0074       22.2416       22.2491      13.088267       0.02336
  12     297.5        9.1629        0.0082       22.1229       22.1311      12.968139       0.03563
  11     328.5        9.1656        0.0090       21.9313       21.9403      12.774682       0.05260
  10     361.9        9.1689        0.0098       21.6337       21.6435      12.474580       0.07593
   9     398.1        9.1733        0.0106       21.1988       21.2094      12.036148       0.10214
   8     437.6        9.1791        0.0114       20.6056       20.6171      11.437937       0.12790
   7     480.5        9.1872        0.0122       19.8587       19.8709      10.683748       0.14812
   6     533.0        9.2006        0.0130       18.8595       18.8725       9.671903       0.16277
   5     589.8        9.2213        0.0138       17.7991       17.8129       8.591612       0.16035
   4     651.6        9.2539        0.0146       16.7685       16.7830       7.529166       0.14529
   3     718.7        9.3040        0.0154       15.8712       15.8866       6.582649       0.11895
   2     792.3        9.3824        0.0164       15.1219       15.1382       5.755780       0.09483
   1     891.5        9.5422        0.0177       14.3815       14.3992       4.856999       0.07648
   0    1013.0        9.8550        0.0194       13.7022       13.7216       3.866657       0.06876



 Wavenumbers:  6150. -  7700. cm-1, ATM      1
 LEVEL PRESSURE   UPWARD FLUX   DIFDOWN FLUX  DIRDOWN FLUX  DOWNWARD FLUX   NET FLUX    HEATING RATE
          mb          W/m2          W/m2          W/m2        W/m2          W/m2       degree/day
  51    .06700       14.8567        0.0000       47.3109       47.3109      32.454131       0.00000
  50    .07753       14.8567        0.0000       47.3108       47.3108      32.454115       0.01303
  49    .09103       14.8567        0.0000       47.3108       47.3108      32.454095       0.01277
  48    0.1069       14.8567        0.0000       47.3108       47.3108      32.454071       0.01250
  47    0.1255       14.8567        0.0000       47.3108       47.3108      32.454044       0.01223
  46    0.1487       14.8567        0.0000       47.3107       47.3107      32.454010       0.01241
  45    0.1794       14.8567        0.0000       47.3107       47.3107      32.453964       0.01276
  44    0.2165       14.8567        0.0000       47.3106       47.3106      32.453909       0.01252
  43    0.2613       14.8567        0.0000       47.3105       47.3106      32.453844       0.01228
  42    0.3336       14.8567        0.0000       47.3104       47.3104      32.453736       0.01256
  41    0.4307       14.8567        0.0000       47.3102       47.3103      32.453593       0.01242
  40    0.5894       14.8567        0.0001       47.3100       47.3100      32.453360       0.01240
  39     1.339       14.8566        0.0002       47.3087       47.3089      32.452258       0.01240
  38     1.782       14.8566        0.0002       47.3080       47.3082      32.451612       0.01230
  37     2.292       14.8591        0.0003       43.4376       43.4379      28.578871      64.14270
  36     2.964       14.8602        0.0004       43.0990       43.0995      28.239289       4.26277
  35     3.853       14.8609        0.0005       42.9093       42.9098      28.048937       1.80647
  34     5.035       14.8614        0.0007       42.7851       42.7857      27.924376       0.88981
  33     6.613       14.8617        0.0009       42.6982       42.6991      27.837406       0.46494
  32     8.786       14.8618        0.0011       42.6355       42.6367      27.774825       0.24304
  31     11.80       14.8619        0.0015       42.5870       42.5885      27.726597       0.13502
  30     15.07       14.8618        0.0019       42.5556       42.5575      27.695688       0.07980
  29     18.79       14.8617        0.0023       42.5325       42.5348      27.673151       0.05110
  28     23.16       14.8615        0.0028       42.5131       42.5160      27.654491       0.03608
  27     28.12       14.8612        0.0034       42.4957       42.4991      27.637869       0.02826
  26     33.73       14.8609        0.0040       42.4797       42.4838      27.622887       0.02253
  25     40.54       14.8605        0.0048       42.4547       42.4595      27.598988       0.02965
  24     48.69       14.8601        0.0058       42.4295       42.4353      27.575183       0.02463
  23     57.69       14.8596        0.0068       42.4062       42.4130      27.553456       0.02036
  22     68.43       14.8589        0.0081       42.3827       42.3908      27.531837       0.01700
  21     81.20       14.8582        0.0095       42.3588       42.3683      27.510169       0.01432
  20     96.49       14.8572        0.0113       42.3340       42.3453      27.488089       0.01219
  19     114.6       14.8561        0.0134       42.3052       42.3186      27.462467       0.01196
  18     136.5       14.8549        0.0159       42.2713       42.2872      27.432329       0.01159
  17     162.9       14.8534        0.0189       42.2311       42.2500      27.396643       0.01141
  16     196.4       14.8515        0.0228       42.1740       42.1968      27.345270       0.01293
  15     218.7       14.8504        0.0253       42.1137       42.1390      27.288606       0.02151
  14     243.0       14.8493        0.0281       42.0453       42.0734      27.224121       0.02237
  13     269.0       14.8484        0.0311       41.9308       41.9619      27.113469       0.03590
  12     297.5       14.8479        0.0342       41.7404       41.7746      26.926708       0.05539
  11     328.5       14.8482        0.0376       41.4322       41.4698      26.621604       0.08296
  10     361.9       14.8499        0.0410       40.9476       40.9886      26.138727       0.12217
   9     398.1       14.8539        0.0445       40.2213       40.2658      25.411908       0.16933
   8     437.6       14.8617        0.0479       39.1973       39.2452      24.383543       0.21987
   7     480.5       14.8755        0.0512       37.8613       37.9125      23.037007       0.26445
   6     533.0       14.9031        0.0546       36.0123       36.0669      21.163822       0.30134
   5     589.8       14.9505        0.0578       33.9457       34.0035      19.052973       0.31332
   4     651.6       15.0307        0.0607       31.7624       31.8230      16.792300       0.30915
   3     718.7       15.1594        0.0635       29.6497       29.7131      14.553758       0.28132
   2     792.3       15.3663        0.0662       27.6461       27.7123      12.345959       0.25321
   1     891.5       15.8040        0.0698       25.3759       25.4458       9.641762       0.23011
   0    1013.0       16.7213        0.0741       23.2036       23.2777       6.556353       0.21424



 Wavenumbers:  7700. -  8050. cm-1, ATM      1
 LEVEL PRESSURE   UPWARD FLUX   DIFDOWN FLUX  DIRDOWN FLUX  DOWNWARD FLUX   NET FLUX    HEATING RATE
          mb          W/m2          W/m2          W/m2        W/m2          W/m2       degree/day
  51    .06700        6.5205        0.0000       11.1810       11.1810       4.660431       0.00000
  50    .07753        6.5205        0.0000       11.1809       11.1810       4.660409       0.01781
  49    .09103        6.5205        0.0000       11.1809       11.1809       4.660381       0.01746
  48    0.1069        6.5206        0.0000       11.1809       11.1809       4.660349       0.01709
  47    0.1255        6.5206        0.0000       11.1809       11.1809       4.660312       0.01672
  46    0.1487        6.5206        0.0000       11.1808       11.1808       4.660266       0.01697
  45    0.1794        6.5206        0.0000       11.1808       11.1808       4.660202       0.01746
  44    0.2165        6.5206        0.0000       11.1807       11.1807       4.660127       0.01713
  43    0.2613        6.5206        0.0000       11.1806       11.1806       4.660038       0.01681
  42    0.3336        6.5206        0.0000       11.1805       11.1805       4.659890       0.01720
  41    0.4307        6.5207        0.0000       11.1804       11.1804       4.659694       0.01701
  40    0.5894        6.5207        0.0000       11.1801       11.1801       4.659375       0.01699
  39     1.339        6.5210        0.0001       11.1788       11.1789       4.657863       0.01702
  38     1.782        6.5212        0.0001       11.1781       11.1782       4.656975       0.01691
  37     2.292        6.5214        0.0002       11.1772       11.1773       4.655947       0.01703
  36     2.964        6.5216        0.0002       11.1760       11.1762       4.654597       0.01694
  35     3.853        6.5220        0.0003       11.1745       11.1748       4.652815       0.01692
  34     5.035        6.5224        0.0003       11.1725       11.1729       4.650446       0.01692
  33     6.613        6.5230        0.0004       11.1699       11.1703       4.647283       0.01691
  32     8.786        6.5238        0.0005       11.1663       11.1669       4.643021       0.01655
  31     11.80        6.5250        0.0007       11.1612       11.1619       4.636928       0.01706
  30     15.07        6.5263        0.0009       11.1557       11.1567       4.630391       0.01688
  29     18.79        6.5277        0.0011       11.1496       11.1507       4.623014       0.01673
  28     23.16        6.5294        0.0014       11.1424       11.1438       4.614407       0.01664
  27     28.12        6.5313        0.0016       11.1342       11.1359       4.604579       0.01671
  26     33.73        6.5334        0.0020       11.1251       11.1270       4.593600       0.01651
  25     40.54        6.5360        0.0023       11.1141       11.1164       4.580365       0.01642
  24     48.69        6.5392        0.0028       11.1009       11.1037       4.564453       0.01647
  23     57.69        6.5427        0.0033       11.0864       11.0897       4.547031       0.01633
  22     68.43        6.5469        0.0039       11.0694       11.0733       4.526360       0.01625
  21     81.20        6.5519        0.0046       11.0492       11.0538       4.501844       0.01620
  20     96.49        6.5580        0.0055       11.0253       11.0308       4.472790       0.01604
  19     114.6        6.5653        0.0065       10.9973       11.0037       4.438474       0.01602
  18     136.5        6.5740        0.0077       10.9644       10.9721       4.398109       0.01552
  17     162.9        6.5845        0.0091       10.9259       10.9350       4.350456       0.01523
  16     196.4        6.5985        0.0109       10.8768       10.8877       4.289279       0.01540
  15     218.7        6.6078        0.0121       10.8451       10.8572       4.249420       0.01513
  14     243.0        6.6180        0.0134       10.8110       10.8244       4.206376       0.01493
  13     269.0        6.6293        0.0149       10.7744       10.7893       4.159988       0.01505
  12     297.5        6.6418        0.0164       10.7354       10.7518       4.110095       0.01480
  11     328.5        6.6555        0.0181       10.6938       10.7118       4.056372       0.01461
  10     361.9        6.6706        0.0198       10.6494       10.6692       3.998622       0.01461
   9     398.1        6.6874        0.0217       10.6020       10.6238       3.936417       0.01449
   8     437.6        6.7060        0.0238       10.5515       10.5753       3.869300       0.01435
   7     480.5        6.7267        0.0260       10.4974       10.5234       3.796669       0.01426
   6     533.0        6.7536        0.0287       10.4307       10.4594       3.705754       0.01463
   5     589.8        6.7844        0.0316       10.3581       10.3897       3.605319       0.01491
   4     651.6        6.8199        0.0347       10.2789       10.3136       3.493758       0.01526
   3     718.7        6.8610        0.0381       10.1921       10.2302       3.369196       0.01565
   2     792.3        6.9090        0.0417       10.0966       10.1383       3.229299       0.01604
   1     891.5        6.9805        0.0464        9.9635       10.0099       3.029395       0.01701
   0    1013.0        7.0772        0.0521        9.7978        9.8499       2.772733       0.01782



 Wavenumbers:  8050. - 12850. cm-1, ATM      1
 LEVEL PRESSURE   UPWARD FLUX   DIFDOWN FLUX  DIRDOWN FLUX  DOWNWARD FLUX   NET FLUX    HEATING RATE
          mb          W/m2          W/m2          W/m2        W/m2          W/m2       degree/day
  51    .06700       88.8575        0.0000      156.5418      156.5418      67.684235       0.00000
  50    .07753       88.8575        0.0000      156.5417      156.5417      67.684235      -0.00000
  49    .09103       88.8575        0.0001      156.5417      156.5417      67.684235       0.00000
  48    0.1069       88.8575        0.0001      156.5416      156.5417      67.684235       0.00000
  47    0.1255       88.8574        0.0002      156.5415      156.5417      67.684235      -0.00000
  46    0.1487       88.8574        0.0002      156.5414      156.5417      67.684235       0.00000
  45    0.1794       88.8574        0.0003      156.5413      156.5416      67.684235       0.00000
  44    0.2165       88.8573        0.0004      156.5412      156.5416      67.684235       0.00000
  43    0.2613       88.8573        0.0005      156.5410      156.5415      67.684235       0.00000
  42    0.3336       88.8572        0.0007      156.5407      156.5414      67.684235      -0.00000
  41    0.4307       88.8571        0.0010      156.5403      156.5413      67.684235       0.00000
  40    0.5894       88.8569        0.0015      156.5397      156.5411      67.684235       0.00000
  39     1.339       88.8560        0.0035      156.5367      156.5403      67.684235      -0.00000
  38     1.782       88.8555        0.0048      156.5350      156.5397      67.684235      -0.00000
  37     2.292       88.8543        0.0076      156.5309      156.5385      67.684235       0.00000
  36     2.964       88.8533        0.0100      156.5276      156.5376      67.684235       0.00000
  35     3.853       88.8522        0.0127      156.5237      156.5364      67.684235      -0.00000
  34     5.035       88.8508        0.0161      156.5189      156.5350      67.684235      -0.00000
  33     6.613       88.8489        0.0205      156.5126      156.5331      67.684235      -0.00000
  32     8.786       88.8464        0.0265      156.5041      156.5306      67.684235      -0.00000
  31     11.80       88.8428        0.0349      156.4921      156.5271      67.684235       0.00000
  30     15.07       88.8390        0.0440      156.4792      156.5232      67.684235      -0.00000
  29     18.79       88.8347        0.0543      156.4646      156.5189      67.684235       0.00000
  28     23.16       88.8296        0.0663      156.4476      156.5139      67.684235      -0.00000
  27     28.12       88.8239        0.0800      156.4281      156.5081      67.684235       0.00000
  26     33.73       88.8174        0.0954      156.4063      156.5016      67.684235       0.00000
  25     40.54       88.8096        0.1140      156.3798      156.4938      67.684235       0.00000
  24     48.69       88.8001        0.1364      156.3479      156.4843      67.684235      -0.00000
  23     57.69       88.7897        0.1611      156.3128      156.4739      67.684235       0.00000
  22     68.43       88.7773        0.1906      156.2709      156.4615      67.684235       0.00000
  21     81.20       88.7625        0.2258      156.2210      156.4467      67.684235       0.00000
  20     96.49       88.7448        0.2677      156.1613      156.4291      67.684235      -0.00000
  19     114.6       88.7268        0.3176      156.0078      156.3254      67.598574       0.04000
  18     136.5       88.7047        0.3768      155.8456      156.2224      67.517714       0.03109
  17     162.9       88.6772        0.4475      155.6711      156.1185      67.441294       0.02443
  16     196.4       88.6405        0.5393      155.4531      155.9924      67.351875       0.02251
  15     218.7       88.6166        0.5998      155.2795      155.8793      67.262716       0.03385
  14     243.0       88.5903        0.6656      155.0990      155.7646      67.174238       0.03069
  13     269.0       88.5629        0.7369      154.8607      155.5977      67.034801       0.04523
  12     297.5       88.5349        0.8141      154.5472      155.3613      66.826333       0.06183
  11     328.5       88.5076        0.8973      154.1403      155.0376      66.530007       0.08057
  10     361.9       88.4831        0.9869      153.6180      154.6049      66.121749       0.10329
   9     398.1       88.4647        1.0830      152.9460      154.0290      65.564234       0.12989
   8     437.6       88.4578        1.1856      152.0719      153.2575      64.799740       0.16345
   7     480.5       88.4704        1.2946      150.9313      152.2259      63.755584       0.20507
   6     533.0       88.5239        1.4271      149.2432      150.6704      62.146478       0.25885
   5     589.8       88.6428        1.5673      147.1146      148.6819      60.039126       0.31280
   4     651.6       88.8687        1.7145      144.4791      146.1936      57.324898       0.37118
   3     718.7       89.2487        1.8681      141.4095      143.2776      54.028909       0.41421
   2     792.3       89.8724        2.0278      137.9221      139.9499      50.077428       0.45319
   1     891.5       91.1732        2.2357      133.1703      135.4060      44.232726       0.49736
   0    1013.0       93.6641        2.4759      127.6956      130.1715      36.507425       0.53641



 Wavenumbers: 12850. - 16000. cm-1, ATM      1
 LEVEL PRESSURE   UPWARD FLUX   DIFDOWN FLUX  DIRDOWN FLUX  DOWNWARD FLUX   NET FLUX    HEATING RATE
          mb          W/m2          W/m2          W/m2        W/m2          W/m2       degree/day
  51    .06700       74.9191        0.0000       98.0872       98.0872      23.168157       0.00000
  50    .07753       74.9191        0.0001       98.0864       98.0864      23.167365       0.63451
  49    .09103       74.9191        0.0002       98.0853       98.0854      23.166371       0.62143
  48    0.1069       74.9191        0.0003       98.0841       98.0843      23.165228       0.60811
  47    0.1255       74.9191        0.0004       98.0826       98.0830      23.163916       0.59508
  46    0.1487       74.9191        0.0005       98.0809       98.0814      23.162259       0.60388
  45    0.1794       74.9192        0.0007       98.0784       98.0792      23.160005       0.61872
  44    0.2165       74.9192        0.0010       98.0756       98.0766      23.157354       0.60313
  43    0.2613       74.9193        0.0012       98.0723       98.0736      23.154236       0.58776
  42    0.3336       74.9196        0.0017       98.0670       98.0687      23.149146       0.59341
  41    0.4307       74.9199        0.0023       98.0602       98.0625      23.142564       0.57232
  40    0.5894       74.9207        0.0033       98.0496       98.0529      23.132190       0.55165
  39     1.339       74.9272        0.0080       98.0043       98.0124      23.085170       0.52936
  38     1.782       74.9332        0.0108       97.9793       97.9901      23.056933       0.53760
  37     2.292       74.9410        0.0174       97.9454       97.9627      23.021758       0.58259
  36     2.964       74.9553        0.0227       97.9030       97.9256      22.970302       0.64593
  35     3.853       74.9789        0.0288       97.8438       97.8726      22.893667       0.72728
  34     5.035       75.0145        0.0365       97.7610       97.7975      22.782970       0.79078
  33     6.613       75.0644        0.0466       97.6489       97.6955      22.631139       0.81169
  32     8.786       75.1293        0.0600       97.5033       97.5633      22.433940       0.76585
  31     11.80       75.2139        0.0791       97.3103       97.3894      22.175535       0.72345
  30     15.07       75.2950        0.0995       97.1207       97.2203      21.925312       0.64603
  29     18.79       75.3778        0.1226       96.9224       97.0450      21.667195       0.58523
  28     23.16       75.4644        0.1494       96.7089       96.8584      21.393975       0.52832
  27     28.12       75.5516        0.1802       96.4858       96.6660      21.114340       0.47536
  26     33.73       75.6324        0.2145       96.2654       96.4799      20.847558       0.40111
  25     40.54       75.7104        0.2560       96.0331       96.2891      20.578771       0.33346
  24     48.69       75.7854        0.3061       95.7869       96.0930      20.307603       0.28062
  23     57.69       75.8494        0.3611       95.5495       95.9107      20.061284       0.23089
  22     68.43       75.9057        0.4266       95.3029       95.7295      19.823815       0.18668
  21     81.20       75.9455        0.5048       95.0566       95.5614      19.615915       0.13738
  20     96.49       75.9677        0.5981       94.8075       95.4056      19.437907       0.09825
  19     114.6       75.9916        0.7098       94.5321       95.2419      19.250338       0.08758
  18     136.5       76.0092        0.8423       94.2219       95.0641      19.054917       0.07514
  17     162.9       76.0205        0.9999       93.8643       94.8641      18.843622       0.06754
  16     196.4       76.0145        1.2044       93.4225       94.6269      18.612359       0.05821
  15     218.7       76.0034        1.3386       93.1385       94.4771      18.473768       0.05262
  14     243.0       75.9879        1.4845       92.8321       94.3166      18.328669       0.05033
  13     269.0       75.9681        1.6426       92.5023       94.1449      18.176742       0.04928
  12     297.5       75.9441        1.8134       92.1474       93.9608      18.016752       0.04745
  11     328.5       75.9177        1.9979       91.7637       93.7616      17.843966       0.04698
  10     361.9       75.8896        2.1966       91.3491       93.5457      17.656041       0.04755
   9     398.1       75.8610        2.4103       90.9006       93.3109      17.449972       0.04801
   8     437.6       75.8337        2.6397       90.4133       93.0531      17.219361       0.04931
   7     480.5       75.8102        2.8855       89.8821       92.7676      16.957433       0.05144
   6     533.0       75.7926        3.1878       89.2105       92.3983      16.605667       0.05659
   5     589.8       75.7922        3.5129       88.4603       91.9732      16.181052       0.06303
   4     651.6       75.8207        3.8615       87.6145       91.4760      15.655292       0.07190
   3     718.7       75.8900        4.2340       86.6659       90.8999      15.009911       0.08111
   2     792.3       76.0234        4.6300       85.5989       90.2288      14.205468       0.09226
   1     891.5       76.3196        5.1586       84.0923       89.2509      12.931240       0.10843
   0    1013.0       76.8541        5.7858       82.2609       88.0467      11.192602       0.12072



 Wavenumbers: 16000. - 22650. cm-1, ATM      1
 LEVEL PRESSURE   UPWARD FLUX   DIFDOWN FLUX  DIRDOWN FLUX  DOWNWARD FLUX   NET FLUX    HEATING RATE
          mb          W/m2          W/m2          W/m2        W/m2          W/m2       degree/day
  51    .06700      141.2018        0.0000      156.3892      156.3892      15.187453       0.00000
  50    .07753      141.2018        0.0004      156.3887      156.3891      15.187305       0.11868
  49    .09103      141.2018        0.0009      156.3879      156.3888      15.187089       0.13461
  48    0.1069      141.2017        0.0015      156.3871      156.3885      15.186801       0.15350
  47    0.1255      141.2018        0.0021      156.3861      156.3882      15.186415       0.17497
  46    0.1487      141.2018        0.0030      156.3847      156.3877      15.185846       0.20733
  45    0.1794      141.2020        0.0041      156.3828      156.3869      15.184957       0.24412
  44    0.2165      141.2022        0.0054      156.3805      156.3859      15.183751       0.27436
  43    0.2613      141.2025        0.0070      156.3776      156.3846      15.182115       0.30845
  42    0.3336      141.2033        0.0097      156.3726      156.3823      15.179003       0.36273
  41    0.4307      141.2045        0.0131      156.3657      156.3789      15.174314       0.40775
  40    0.5894      141.2072        0.0188      156.3537      156.3725      15.165370       0.47562
  39     1.339      141.2300        0.0458      156.2834      156.3293      15.099291       0.74393
  38     1.782      141.2510        0.0617      156.2324      156.2940      15.043000       1.07169
  37     2.292      141.2783        0.0991      156.1407      156.2398      14.961519       1.34954
  36     2.964      141.3293        0.1292      156.0296      156.1588      14.829521       1.65697
  35     3.853      141.4134        0.1641      155.8694      156.0335      14.620073       1.98770
  34     5.035      141.5410        0.2081      155.6405      155.8486      14.307592       2.23223
  33     6.613      141.7195        0.2654      155.3275      155.5928      13.873331       2.32156
  32     8.786      141.9523        0.3417      154.9188      155.2605      13.308253       2.19456
  31     11.80      142.2553        0.4502      154.3760      154.8262      12.570958       2.06419
  30     15.07      142.5456        0.5663      153.8410      154.4073      11.861691       1.83119
  29     18.79      142.8421        0.6972      153.2796      153.9768      11.134744       1.64821
  28     23.16      143.1520        0.8497      152.6731      153.5229      10.370894       1.47704
  27     28.12      143.4639        1.0239      152.0361      153.0601       9.596205       1.31692
  26     33.73      143.7518        1.2186      151.4017      152.6203       8.868524       1.09409
  25     40.54      144.0289        1.4537      150.7245      152.1782       8.149298       0.89228
  24     48.69      144.2943        1.7368      149.9948      151.7315       7.437237       0.73687
  23     57.69      144.5194        2.0473      149.2762      151.3235       6.804130       0.59344
  22     68.43      144.7158        2.4168      148.5088      150.9256       6.209797       0.46723
  21     81.20      144.8516        2.8567      147.7130      150.5697       5.718136       0.32488
  20     96.49      144.9223        3.3804      146.8742      150.2546       5.332298       0.21295
  19     114.6      144.9592        4.0004      145.9379      149.9383       4.979081       0.16493
  18     136.5      144.9713        4.7325      144.8704      149.6029       4.631605       0.13361
  17     162.9      144.9570        5.6002      143.6404      149.2405       4.283554       0.11125
  16     196.4      144.8764        6.7198      142.1271      148.8469       3.970479       0.07880
  15     218.7      144.8008        7.4514      141.1656      148.6170       3.816177       0.05858
  14     243.0      144.7080        8.2433      140.1380      148.3812       3.673208       0.04959
  13     269.0      144.5965        9.0976      139.0431      148.1406       3.544074       0.04189
  12     297.5      144.4655       10.0162      137.8789      147.8951       3.429560       0.03396
  11     328.5      144.3191       11.0036      136.6344      147.6381       3.318959       0.03007
  10     361.9      144.1569       12.0607      135.3088      147.3695       3.212555       0.02692
   9     398.1      143.9784       13.1914      133.8968      147.0882       3.109771       0.02395
   8     437.6      143.7844       14.3978      132.3947      146.7925       3.008065       0.02175
   7     480.5      143.5744       15.6819      130.7999      146.4818       2.907405       0.01977
   6     533.0      143.3152       17.2504      128.8555      146.1058       2.790634       0.01878
   5     589.8      143.0376       18.9260      126.7789      145.7049       2.667360       0.01830
   4     651.6      142.7437       20.7103      124.5660      145.2762       2.532522       0.01844
   3     718.7      142.4348       22.6048      122.2130      144.8178       2.382997       0.01879
   2     792.3      142.1154       24.6079      119.7180      144.3259       2.210515       0.01978
   1     891.5      141.7065       27.2684      116.3891      143.6575       1.950973       0.02209
   0    1013.0      141.2445       30.3981      112.4583      142.8564       1.611851       0.02355



 Wavenumbers: 22650. - 29000. cm-1, ATM      1
 LEVEL PRESSURE   UPWARD FLUX   DIFDOWN FLUX  DIRDOWN FLUX  DOWNWARD FLUX   NET FLUX    HEATING RATE
          mb          W/m2          W/m2          W/m2        W/m2          W/m2       degree/day
  51    .06700       58.3821        0.0000       59.0156       59.0156       0.633495       0.00000
  50    .07753       58.3820        0.0005       59.0151       59.0155       0.633495      -0.00000
  49    .09103       58.3819        0.0010       59.0144       59.0154       0.633495      -0.00000
  48    0.1069       58.3818        0.0017       59.0136       59.0153       0.633495       0.00000
  47    0.1255       58.3816        0.0025       59.0127       59.0151       0.633495      -0.00000
  46    0.1487       58.3814        0.0034       59.0115       59.0149       0.633495       0.00000
  45    0.1794       58.3812        0.0048       59.0099       59.0147       0.633495      -0.00000
  44    0.2165       58.3809        0.0063       59.0080       59.0144       0.633495       0.00000
  43    0.2613       58.3805        0.0082       59.0058       59.0140       0.633495      -0.00000
  42    0.3336       58.3799        0.0113       59.0022       59.0134       0.633495       0.00000
  41    0.4307       58.3791        0.0153       58.9973       59.0126       0.633495      -0.00000
  40    0.5894       58.3778        0.0220       58.9894       59.0113       0.633495      -0.00000
  39     1.339       58.3717        0.0534       58.9518       59.0052       0.633495       0.00000
  38     1.782       58.3681        0.0719       58.9297       59.0016       0.633495      -0.00000
  37     2.292       58.3596        0.1154       58.8777       58.9931       0.633495       0.00000
  36     2.964       58.3528        0.1506       58.8357       58.9862       0.633495       0.00000
  35     3.853       58.3448        0.1913       58.7871       58.9783       0.633495       0.00000
  34     5.035       58.3348        0.2425       58.7258       58.9683       0.633495       0.00000
  33     6.613       58.3218        0.3094       58.6459       58.9553       0.633495      -0.00000
  32     8.786       58.3044        0.3985       58.5394       58.9379       0.633495       0.00000
  31     11.80       58.2797        0.5252       58.3879       58.9132       0.633495       0.00000
  30     15.07       58.2533        0.6608       58.2260       58.8868       0.633495      -0.00000
  29     18.79       58.2235        0.8134       58.0435       58.8570       0.633495       0.00000
  28     23.16       58.1888        0.9912       57.8310       58.8223       0.633495       0.00000
  27     28.12       58.1492        1.1939       57.5888       58.7827       0.633495      -0.00000
  26     33.73       58.1051        1.4200       57.3187       58.7386       0.633495       0.00000
  25     40.54       58.0521        1.6919       56.9937       58.6856       0.633495       0.00000
  24     48.69       57.9884        2.0180       56.6039       58.6219       0.633495       0.00000
  23     57.69       57.9189        2.3740       56.1784       58.5524       0.633495       0.00000
  22     68.43       57.8367        2.7949       55.6753       58.4702       0.633495       0.00000
  21     81.20       57.7396        3.2920       55.0811       58.3731       0.633495       0.00000
  20     96.49       57.6251        3.8781       54.3805       58.2586       0.633495       0.00000
  19     114.6       57.4908        4.5649       53.5594       58.1243       0.633495      -0.00000
  18     136.5       57.3340        5.3666       52.6009       57.9675       0.633495       0.00000
  17     162.9       57.1506        6.3037       51.4804       57.7841       0.633495       0.00000
  16     196.4       56.9180        7.4908       50.0607       57.5515       0.633495      -0.00000
  15     218.7       56.7685        8.2537       49.1482       57.4019       0.633495       0.00000
  14     243.0       56.6087        9.0681       48.1741       57.2422       0.633495      -0.00000
  13     269.0       56.4388        9.9336       47.1387       57.0722       0.633495       0.00000
  12     297.5       56.2588       10.8493       46.0431       56.8923       0.633495       0.00000
  11     328.5       56.0686       11.8165       44.8855       56.7021       0.633495       0.00000
  10     361.9       55.8685       12.8328       43.6692       56.5020       0.633495      -0.00000
   9     398.1       55.6585       13.8982       42.3938       56.2920       0.633495       0.00000
   8     437.6       55.4390       15.0104       41.0621       56.0725       0.633495       0.00000
   7     480.5       55.2104       16.1670       39.6769       55.8439       0.633495      -0.00000
   6     533.0       54.9380       17.5426       38.0289       55.5715       0.633495       0.00000
   5     589.8       54.6555       18.9668       36.3222       55.2890       0.633495       0.00000
   4     651.6       54.3635       20.4351       34.5619       54.9970       0.633495       0.00000
   3     718.7       54.0637       21.9390       32.7582       54.6972       0.633495      -0.00000
   2     792.3       53.7579       23.4682       30.9232       54.3914       0.633495       0.00000
   1     891.5       53.3683       25.4091       28.5927       54.0018       0.633495       0.00000
   0    1013.0       52.9343       27.5592       26.0086       53.5678       0.633495      -0.00000



 Wavenumbers: 29000. - 38000. cm-1, ATM      1
 LEVEL PRESSURE   UPWARD FLUX   DIFDOWN FLUX  DIRDOWN FLUX  DOWNWARD FLUX   NET FLUX    HEATING RATE
          mb          W/m2          W/m2          W/m2        W/m2          W/m2       degree/day
  51    .06700        8.7436        0.0000       20.8114       20.8114      12.067800       0.00000
  50    .07753        8.7434        0.0003       20.8070       20.8074      12.063992       3.05199
  49    .09103        8.7431        0.0007       20.8009       20.8016      12.058454       3.46135
  48    0.1069        8.7429        0.0012       20.7928       20.7939      12.051043       3.94486
  47    0.1255        8.7426        0.0017       20.7820       20.7837      12.041137       4.49099
  46    0.1487        8.7423        0.0024       20.7665       20.7688      12.026572       5.30922
  45    0.1794        8.7418        0.0033       20.7424       20.7457      12.003903       6.22296
  44    0.2165        8.7413        0.0044       20.7103       20.7147      11.973376       6.94444
  43    0.2613        8.7407        0.0056       20.6675       20.6731      11.932375       7.72850
  42    0.3336        8.7398        0.0077       20.5880       20.5956      11.855802       8.92765
  41    0.4307        8.7388        0.0104       20.4722       20.4826      11.743831       9.73562
  40    0.5894        8.7373        0.0147       20.2637       20.2784      11.541112      10.78037
  39     1.339        8.7342        0.0331       19.0984       19.1315      10.397336      12.87684
  38     1.782        8.7350        0.0427       18.4394       18.4821       9.747097      12.37949
  37     2.292        8.7306        0.0655       17.7518       17.8173       9.086742      10.93721
  36     2.964        8.7350        0.0815       17.0174       17.0989       8.363864       9.07431
  35     3.853        8.7468        0.0986       16.2415       16.3401       7.593299       7.31280
  34     5.035        8.7673        0.1189       15.4544       15.5733       6.805963       5.62440
  33     6.613        8.7976        0.1443       14.6910       14.8353       6.037686       4.10721
  32     8.786        8.8379        0.1776       13.9701       14.1477       5.309826       2.82674
  31     11.80        8.8905        0.2240       13.2614       13.4853       4.594866       2.00166
  30     15.07        8.9412        0.2724       12.7175       12.9898       4.048604       1.41034
  29     18.79        8.9937        0.3257       12.2457       12.5714       3.577674       1.06774
  28     23.16        9.0494        0.3867       11.8099       12.1967       3.147231       0.83234
  27     28.12        9.1065        0.4551       11.4086       11.8637       2.757188       0.66305
  26     33.73        9.1592        0.5305       11.0509       11.5814       2.422257       0.50358
  25     40.54        9.2091        0.6208       10.7030       11.3237       2.114637       0.38164
  24     48.69        9.2562        0.7279       10.3569       11.0848       1.828605       0.29600
  23     57.69        9.2948        0.8439       10.0382       10.8821       1.587301       0.22619
  22     68.43        9.3259        0.9800        9.7166       10.6966       1.370686       0.17029
  21     81.20        9.3407        1.1408        9.3978       10.5387       1.197967       0.11413
  20     96.49        9.3371        1.3299        9.0737       10.4036       1.066494       0.07256
  19     114.6        9.3233        1.5484        8.7244       10.2727       0.949474       0.05464
  18     136.5        9.3021        1.7981        8.3411       10.1393       0.837197       0.04317
  17     162.9        9.2737        2.0829        7.9181       10.0009       0.727273       0.03514
  16     196.4        9.2260        2.4362        7.4202        9.8564       0.630487       0.02436
  15     218.7        9.1917        2.6580        7.1170        9.7750       0.583306       0.01791
  14     243.0        9.1542        2.8899        6.8041        9.6940       0.539743       0.01511
  13     269.0        9.1132        3.1309        6.4829        9.6139       0.500628       0.01269
  12     297.5        9.0689        3.3800        6.1550        9.5350       0.466150       0.01023
  11     328.5        9.0225        3.6363        5.8193        9.4557       0.433142       0.00897
  10     361.9        8.9747        3.8972        5.4792        9.3764       0.401752       0.00794
   9     398.1        8.9254        4.1622        5.1352        9.2974       0.372007       0.00693
   8     437.6        8.8753        4.4298        4.7888        9.2187       0.343338       0.00613
   7     480.5        8.8247        4.6979        4.4428        9.1408       0.316124       0.00534
   6     533.0        8.7666        5.0031        4.0499        9.0531       0.286469       0.00477
   5     589.8        8.7094        5.3033        3.6639        8.9672       0.257758       0.00426
   4     651.6        8.6537        5.5964        3.2870        8.8834       0.229668       0.00384
   3     718.7        8.6003        5.8792        2.9233        8.8025       0.202160       0.00346
   2     792.3        8.5499        6.1491        2.5760        8.7251       0.175236       0.00309
   1     891.5        8.4918        6.4657        2.1681        8.6338       0.141999       0.00283
   0    1013.0        8.4361        6.7826        1.7588        8.5414       0.105310       0.00255



 Wavenumbers: 38000. - 50000. cm-1, ATM      1
 LEVEL PRESSURE   UPWARD FLUX   DIFDOWN FLUX  DIRDOWN FLUX  DOWNWARD FLUX   NET FLUX    HEATING RATE
          mb          W/m2          W/m2          W/m2        W/m2          W/m2       degree/day
  51    .06700        0.0066        0.0000        1.2836        1.2836       1.277060       0.00000
  50    .07753        0.0065        0.0001        1.2812        1.2812       1.274725       1.87182
  49    .09103        0.0064        0.0002        1.2777        1.2778       1.271393       2.08280
  48    0.1069        0.0064        0.0002        1.2731        1.2734       1.267014       2.33095
  47    0.1255        0.0063        0.0004        1.2672        1.2675       1.261258       2.60945
  46    0.1487        0.0062        0.0005        1.2586        1.2591       1.252930       3.03540
  45    0.1794        0.0060        0.0007        1.2455        1.2462       1.240161       3.50566
  44    0.2165        0.0058        0.0009        1.2282        1.2291       1.223232       3.85087
  43    0.2613        0.0056        0.0011        1.2054        1.2065       1.200881       4.21314
  42    0.3336        0.0053        0.0015        1.1639        1.1654       1.160052       4.76031
  41    0.4307        0.0050        0.0020        1.1051        1.1070       1.102085       5.04010
  40    0.5894        0.0044        0.0026        1.0039        1.0064       1.002029       5.32085
  39     1.339        0.0028        0.0035        0.5438        0.5473       0.544488       5.15108
  38     1.782        0.0024        0.0032        0.3635        0.3667       0.364244       3.43155
  37     2.292        0.0014        0.0033        0.2343        0.2377       0.236284       2.11935
  36     2.964        0.0009        0.0027        0.1444        0.1471       0.146234       1.13040
  35     3.853        0.0006        0.0021        0.0851        0.0872       0.086577       0.56616
  34     5.035        0.0004        0.0015        0.0484        0.0499       0.049513       0.26477
  33     6.613        0.0003        0.0011        0.0270        0.0281       0.027867       0.11572
  32     8.786        0.0002        0.0008        0.0143        0.0150       0.014872       0.05047
  31     11.80        0.0001        0.0005        0.0065        0.0070       0.006879       0.02238
  30     15.07        0.0000        0.0003        0.0031        0.0034       0.003319       0.00919
  29     18.79        0.0000        0.0002        0.0014        0.0016       0.001579       0.00394
  28     23.16        0.0000        0.0001        0.0006        0.0007       0.000719       0.00166
  27     28.12        0.0000        0.0001        0.0003        0.0003       0.000317       0.00068
  26     33.73        0.0000        0.0000        0.0001        0.0001       0.000139       0.00027
  25     40.54        0.0000        0.0000        0.0000        0.0001       0.000057       0.00010
  24     48.69        0.0000        0.0000        0.0000        0.0000       0.000021       0.00004
  23     57.69        0.0000        0.0000        0.0000        0.0000       0.000008       0.00001
  22     68.43        0.0000        0.0000        0.0000        0.0000       0.000003       0.00000
  21     81.20        0.0000        0.0000        0.0000        0.0000       0.000001       0.00000
  20     96.49        0.0000        0.0000        0.0000        0.0000       0.000000       0.00000
  19     114.6        0.0000        0.0000        0.0000        0.0000       0.000000       0.00000
  18     136.5        0.0000        0.0000        0.0000        0.0000       0.000000       0.00000
  17     162.9        0.0000        0.0000        0.0000        0.0000       0.000000       0.00000
  16     196.4        0.0000        0.0000        0.0000        0.0000       0.000000       0.00000
  15     218.7        0.0000        0.0000        0.0000        0.0000       0.000000       0.00000
  14     243.0        0.0000        0.0000        0.0000        0.0000       0.000000       0.00000
  13     269.0        0.0000        0.0000        0.0000        0.0000       0.000000       0.00000
  12     297.5        0.0000        0.0000        0.0000        0.0000       0.000000       0.00000
  11     328.5        0.0000        0.0000        0.0000        0.0000       0.000000       0.00000
  10     361.9        0.0000        0.0000        0.0000        0.0000       0.000000       0.00000
   9     398.1        0.0000        0.0000        0.0000        0.0000       0.000000       0.00000
   8     437.6        0.0000        0.0000        0.0000        0.0000       0.000000       0.00000
   7     480.5        0.0000        0.0000        0.0000        0.0000       0.000000       0.00000
   6     533.0        0.0000        0.0000        0.0000        0.0000       0.000000       0.00000
   5     589.8        0.0000        0.0000        0.0000        0.0000       0.000000       0.00000
   4     651.6        0.0000        0.0000        0.0000        0.0000       0.000000       0.00000
   3     718.7        0.0000        0.0000        0.0000        0.0000       0.000000       0.00000
   2     792.3        0.0000        0.0000        0.0000        0.0000       0.000000       0.00000
   1     891.5        0.0000        0.0000        0.0000        0.0000       0.000000       0.00000
   0    1013.0        0.0000        0.0000        0.0000        0.0000       0.000000       0.00000



 Wavenumbers:   820. -  2600. cm-1, ATM      1
 LEVEL PRESSURE   UPWARD FLUX   DIFDOWN FLUX  DIRDOWN FLUX  DOWNWARD FLUX   NET FLUX    HEATING RATE
          mb          W/m2          W/m2          W/m2        W/m2          W/m2       degree/day
  51    .06700        0.7338        0.0000        6.0047        6.0047       5.270862       0.00000
  50    .07753        0.7338        0.0000        6.0009        6.0009       5.267083       3.02937
  49    .09103        0.7338        0.0000        6.0001        6.0001       5.266293       0.49378
  48    0.1069        0.7338        0.0000        5.9992        5.9992       5.265418       0.46572
  47    0.1255        0.7338        0.0000        5.9982        5.9982       5.264437       0.44470
  46    0.1487        0.7338        0.0000        5.9970        5.9970       5.263259       0.42941
  45    0.1794        0.7338        0.0000        5.9956        5.9956       5.261792       0.40259
  44    0.2165        0.7338        0.0000        5.9940        5.9940       5.260260       0.34860
  43    0.2613        0.7338        0.0000        5.9925        5.9925       5.258681       0.29770
  42    0.3336        0.7338        0.0000        5.9902        5.9902       5.256451       0.25991
  41    0.4307        0.7338        0.0000        5.9877        5.9877       5.253863       0.22503
  40    0.5894        0.7338        0.0000        5.9836        5.9836       5.249831       0.21442
  39     1.339        0.7338        0.0000        5.9651        5.9651       5.231321       0.20839
  38     1.782        0.7338        0.0000        5.9549        5.9549       5.221104       0.19451
  37     2.292        0.8011        0.0000        1.5630        1.5630       0.761909      73.85590
  36     2.964        0.8275        0.0000        1.4643        1.4643       0.636785       1.57069
  35     3.853        0.8424        0.0000        1.4237        1.4237       0.581236       0.52717
  34     5.035        0.8515        0.0000        1.4024        1.4024       0.550871       0.21692
  33     6.613        0.8571        0.0000        1.3902        1.3902       0.533074       0.09514
  32     8.786        0.8606        0.0000        1.3831        1.3831       0.522505       0.04105
  31     11.80        0.8628        0.0000        1.3787        1.3787       0.515864       0.01859
  30     15.07        0.8640        0.0000        1.3764        1.3764       0.512370       0.00902
  29     18.79        0.8647        0.0000        1.3750        1.3750       0.510244       0.00482
  28     23.16        0.8652        0.0000        1.3740        1.3740       0.508760       0.00287
  27     28.12        0.8656        0.0000        1.3733        1.3733       0.507639       0.00190
  26     33.73        0.8659        0.0000        1.3727        1.3727       0.506776       0.00130
  25     40.54        0.8663        0.0000        1.3719        1.3719       0.505588       0.00147
  24     48.69        0.8667        0.0000        1.3713        1.3713       0.504572       0.00105
  23     57.69        0.8670        0.0000        1.3707        1.3707       0.503773       0.00075
  22     68.43        0.8672        0.0000        1.3703        1.3703       0.503085       0.00054
  21     81.20        0.8674        0.0000        1.3699        1.3699       0.502490       0.00039
  20     96.49        0.8676        0.0000        1.3696        1.3696       0.501968       0.00029
  19     114.6        0.8677        0.0000        1.3693        1.3693       0.501525       0.00021
  18     136.5        0.8679        0.0000        1.3690        1.3690       0.501060       0.00018
  17     162.9        0.8681        0.0000        1.3687        1.3687       0.500622       0.00014
  16     196.4        0.8682        0.0000        1.3684        1.3684       0.500193       0.00011
  15     218.7        0.8683        0.0000        1.3682        1.3682       0.499923       0.00010
  14     243.0        0.8684        0.0000        1.3681        1.3681       0.499709       0.00007
  13     269.0        0.8685        0.0000        1.3679        1.3679       0.499455       0.00008
  12     297.5        0.8686        0.0000        1.3677        1.3677       0.499108       0.00010
  11     328.5        0.8688        0.0000        1.3674        1.3674       0.498632       0.00013
  10     361.9        0.8690        0.0000        1.3669        1.3669       0.497951       0.00017
   9     398.1        0.8693        0.0000        1.3663        1.3663       0.496997       0.00022
   8     437.6        0.8698        0.0000        1.3655        1.3655       0.495691       0.00028
   7     480.5        0.8704        0.0000        1.3644        1.3644       0.493963       0.00034
   6     533.0        0.8715        0.0000        1.3625        1.3625       0.491046       0.00047
   5     589.8        0.8731        0.0000        1.3597        1.3597       0.486629       0.00066
   4     651.6        0.8758        0.0000        1.3550        1.3550       0.479180       0.00102
   3     718.7        0.8800        0.0000        1.3477        1.3477       0.467705       0.00144
   2     792.3        0.8866        0.0000        1.3367        1.3367       0.450126       0.00202
   1     891.5        0.8994        0.0000        1.3156        1.3157       0.416211       0.00289
   0    1013.0        0.9207        0.0000        1.2821        1.2822       0.361440       0.00380

  Modules and versions used in this calculation:

       rrtmg_sw.1col.f90:  $Revision$                    rrtmg_sw_init.f90:  $Revision$        
     rrtmgsw_cldprop.f90:  $Revision$                  rrtmgsw_cldprmc.f90:  NOT USED          
     rrtmg_sw_reftra.f90:  $Revision$                  rrtmg_sw_spcvrt.f90:  NOT USED          
     rrtmg_sw_spcvmc.f90:  NOT USED                    rrtmgsw_setcoef.f90:  NOT USED          
     rrtmg_sw_taumol.f90:  $Revision$                  rrtmg_sw_vrtqdr.f90:  NOT USED          
                rrtatm.f:  NOT USED                             util_xxx.f:  NOT USED          
                 extra.f:  NOT USED                       rrtmg_sw_k_g.f90:  $Revision$        

